* Measurement data measured by REW V5.20.13
* Source: Headset (DS by VECLAN.COM), MICROPHONE (Master Volume), L, volume: 0.720. Timing signal peak level -16.9 dBFS, measurement signal peak level -16.0 dBFS
* Format: 2M Log Swept Sine, 1 sweep at -12.0 dBFS using an acoustic timing reference
* Dated: Feb 26, 2024 12:08:06 PM
* REW Settings:
*  C-weighting compensation: Off
*  Target level: 75.0 dB
* Note: ; Delay -0.0109 ms (-3.7 mm, -0.15 in) using estimated IR delay relative to Acoustic reference played from HEADPHONE R with no timing offset
* Measurement: 64 Audio U18t R
* Smoothing: 1/24 octave
* Frequency Step: 1/48 octave
* Start Frequency: 1.000 Hz
*
* Freq(Hz) SPL(dB) Phase(degrees)
1.000000 71.314 -111.0422
1.015000 71.251 -112.5867
1.030000 71.189 -114.2129
1.044000 71.133 -115.8065
1.060000 71.070 -117.7200
1.075000 71.014 -119.6060
1.090000 70.961 -121.5836
1.106000 70.906 -123.8085
1.120000 70.848 -125.9167
1.138000 70.760 -128.8488
1.150000 70.694 -130.9304
1.172000 70.561 -134.9821
1.180000 70.509 -136.5236
1.206000 70.333 -141.7484
1.220000 70.235 -144.6783
1.241000 70.087 -149.1933
1.250000 70.024 -151.1638
1.265000 69.921 -154.4833
1.280000 69.823 -157.8345
1.315000 69.617 -165.6934
1.320000 69.591 -166.8126
1.340000 69.499 -171.2587
1.360000 69.427 -175.6295
1.380000 69.380 -179.8899
1.400000 69.361 175.9951
1.430000 69.393 170.1719
1.450000 69.460 166.5738
1.475000 69.602 162.4242
1.500000 69.814 158.4142
1.525000 70.090 154.4886
1.550000 70.422 150.6591
1.575000 70.799 146.9374
1.600000 71.214 143.3355
1.625000 71.657 139.8651
1.650000 72.120 136.5379
1.675000 72.594 133.3658
1.700000 73.070 130.3605
1.725000 73.540 127.5338
1.750000 73.993 124.8976
1.775000 74.423 122.4636
1.800000 74.819 120.2435
1.825000 75.173 118.2492
1.850000 75.488 116.5187
1.875000 75.787 115.1032
1.900000 76.074 113.9728
1.925000 76.348 113.0950
1.950000 76.611 112.4370
1.975000 76.864 111.9658
2.000000 77.109 111.6489
2.030000 77.391 111.4260
2.060000 77.664 111.3213
2.090000 77.929 111.2782
2.120000 78.188 111.2401
2.140000 78.358 111.1895
2.180000 78.694 110.9524
2.200000 78.861 110.7333
2.240000 79.184 110.2849
2.270000 79.414 110.0036
2.300000 79.636 109.7637
2.330000 79.849 109.5600
2.360000 80.056 109.3874
2.400000 80.323 109.1967
2.430000 80.519 109.0766
2.470000 80.777 108.9373
2.500000 80.969 108.8417
2.540000 81.225 108.7162
2.580000 81.484 108.5877
2.620000 81.740 108.4951
2.650000 81.929 108.4509
2.690000 82.176 108.4174
2.720000 82.360 108.4061
2.760000 82.602 108.4014
2.800000 82.841 108.3995
2.850000 83.137 108.3859
2.900000 83.430 108.3417
2.950000 83.723 108.2542
3.000000 84.013 108.1653
3.040000 84.243 108.0944
3.070000 84.414 108.0369
3.110000 84.641 107.9492
3.150000 84.865 107.8428
3.200000 85.141 107.6732
3.250000 85.413 107.4509
3.300000 85.679 107.1627
3.350000 85.941 106.8043
3.400000 86.199 106.3857
3.450000 86.453 105.9174
3.500000 86.702 105.4099
3.550000 86.945 104.8736
3.600000 87.182 104.3192
3.650000 87.412 103.7570
3.700000 87.635 103.1908
3.750000 87.852 102.6082
3.820000 88.146 101.7605
3.870000 88.348 101.1291
3.950000 88.657 100.0687
4.000000 88.841 99.3713
4.060000 89.053 98.4922
4.120000 89.254 97.5516
4.180000 89.446 96.5651
4.250000 89.657 95.3815
4.310000 89.828 94.3610
4.370000 89.990 93.3553
4.440000 90.167 92.2120
4.500000 90.307 91.2339
4.550000 90.416 90.4201
4.620000 90.560 89.2863
4.680000 90.673 88.3228
4.750000 90.797 87.2125
4.820000 90.910 86.1099
4.870000 90.983 85.3203
4.940000 91.076 84.2240
5.000000 91.149 83.3034
5.080000 91.236 82.1214
5.150000 91.307 81.1448
5.220000 91.368 80.2108
5.300000 91.428 79.1908
5.380000 91.480 78.2241
5.450000 91.522 77.4246
5.520000 91.562 76.6706
5.600000 91.602 75.8661
5.700000 91.645 74.9404
5.800000 91.685 74.0944
5.900000 91.730 73.3221
6.000000 91.773 72.6400
6.080000 91.809 72.1467
6.150000 91.843 71.7410
6.220000 91.879 71.3494
6.300000 91.925 70.9271
6.400000 91.988 70.4489
6.500000 92.055 69.9953
6.600000 92.127 69.5336
6.700000 92.206 69.0681
6.800000 92.290 68.6063
6.900000 92.376 68.1332
7.000000 92.464 67.6356
7.100000 92.554 67.1191
7.200000 92.646 66.5858
7.300000 92.736 66.0351
7.400000 92.824 65.4630
7.500000 92.910 64.8679
7.620000 93.010 64.1411
7.750000 93.112 63.3567
7.880000 93.208 62.5648
8.000000 93.291 61.8413
8.120000 93.370 61.1401
8.250000 93.451 60.3975
8.380000 93.527 59.6804
8.500000 93.595 59.0491
8.620000 93.660 58.4448
8.750000 93.729 57.8174
8.850000 93.782 57.3535
9.000000 93.859 56.6903
9.120000 93.921 56.1812
9.250000 93.989 55.6465
9.380000 94.057 55.1321
9.500000 94.117 54.6703
9.620000 94.175 54.2181
9.750000 94.235 53.7411
9.880000 94.288 53.2789
10.000000 94.329 52.8641
10.150000 94.371 52.3637
10.300000 94.407 51.8942
10.440000 94.432 51.4870
10.600000 94.459 51.0480
10.750000 94.488 50.6612
10.900000 94.519 50.2939
11.060000 94.557 49.8969
11.200000 94.594 49.5490
11.380000 94.644 49.0842
11.500000 94.679 48.7610
11.720000 94.743 48.1354
11.800000 94.767 47.8935
12.060000 94.841 47.0612
12.200000 94.878 46.5841
12.410000 94.927 45.8405
12.500000 94.944 45.5244
12.650000 94.967 44.9943
12.800000 94.986 44.4775
13.150000 95.010 43.3665
13.200000 95.013 43.2203
13.400000 95.023 42.6713
13.600000 95.034 42.1668
13.800000 95.048 41.7075
14.000000 95.068 41.2608
14.300000 95.104 40.5973
14.500000 95.131 40.1360
14.750000 95.166 39.5370
15.000000 95.199 38.9151
15.250000 95.230 38.2890
15.500000 95.258 37.6886
15.750000 95.285 37.1283
16.000000 95.312 36.6221
16.250000 95.345 36.1473
16.500000 95.385 35.6868
16.750000 95.432 35.2130
17.000000 95.483 34.7052
17.250000 95.534 34.1643
17.500000 95.581 33.5942
17.750000 95.620 33.0286
18.000000 95.652 32.4879
18.250000 95.679 31.9949
18.500000 95.705 31.5610
18.750000 95.735 31.1734
19.000000 95.771 30.8197
19.250000 95.812 30.4642
19.500000 95.858 30.0909
19.750000 95.903 29.6883
20.000000 95.945 29.2571
20.299999 95.987 28.7267
20.600000 96.019 28.2102
20.900000 96.043 27.7354
21.200001 96.065 27.3152
21.400000 96.080 27.0582
21.799999 96.115 26.5693
22.000000 96.135 26.3208
22.400000 96.176 25.7870
22.700001 96.205 25.3528
23.000000 96.230 24.9006
23.299999 96.251 24.4457
23.600000 96.268 23.9991
24.000000 96.289 23.4276
24.299999 96.304 23.0178
24.700001 96.326 22.4926
25.000000 96.344 22.1106
25.400000 96.372 21.6103
25.799999 96.402 21.1089
26.200001 96.434 20.5951
26.500000 96.457 20.2021
26.900000 96.485 19.6804
27.200001 96.504 19.3031
27.600000 96.529 18.8297
28.000000 96.555 18.3834
28.500000 96.590 17.8268
29.000000 96.622 17.2418
29.500000 96.642 16.6562
30.000000 96.651 16.1343
30.400000 96.656 15.7797
30.700001 96.662 15.5388
31.100000 96.675 15.2206
31.500000 96.691 14.8823
32.000000 96.709 14.4257
32.500000 96.724 13.9531
33.000000 96.737 13.4785
33.500000 96.750 12.9943
34.000000 96.760 12.4982
34.500000 96.769 12.0083
35.000000 96.776 11.5413
35.500000 96.784 11.0941
36.000000 96.793 10.6533
36.500000 96.801 10.2181
37.000000 96.807 9.8005
37.500000 96.814 9.4065
38.200001 96.826 8.8772
38.700001 96.835 8.5010
39.500000 96.849 7.8964
40.000000 96.856 7.5145
40.599998 96.862 7.0503
41.200001 96.864 6.5948
41.799999 96.864 6.1647
42.500000 96.866 5.6860
43.099998 96.870 5.2712
43.700001 96.874 4.8494
44.400002 96.877 4.3652
45.000000 96.879 3.9612
45.500000 96.881 3.6252
46.200001 96.883 3.1500
46.799999 96.883 2.7438
47.500000 96.881 2.2880
48.200001 96.878 1.8646
48.700001 96.877 1.5782
49.400002 96.878 1.1820
50.000000 96.879 0.8383
50.799999 96.878 0.3798
51.500000 96.875 -0.0190
52.200001 96.868 -0.4094
53.000000 96.860 -0.8266
53.799999 96.855 -1.2419
54.500000 96.850 -1.6385
55.200001 96.839 -2.0363
56.000000 96.827 -2.4548
57.000000 96.818 -2.9849
58.000000 96.802 -3.5173
59.000000 96.786 -3.9807
60.000000 96.777 -4.4260
60.799999 96.769 -4.7911
61.500000 96.760 -5.1110
62.200001 96.748 -5.4250
63.000000 96.730 -5.7654
64.000000 96.707 -6.1576
65.000000 96.686 -6.5470
66.000000 96.664 -6.9518
67.000000 96.641 -7.3573
68.000000 96.615 -7.7604
69.000000 96.589 -8.1454
70.000000 96.563 -8.5200
71.000000 96.536 -8.8985
72.000000 96.507 -9.2472
73.000000 96.481 -9.5541
74.000000 96.463 -9.8828
75.000000 96.441 -10.2540
76.199997 96.407 -10.6786
77.500000 96.372 -11.1122
78.800003 96.337 -11.5739
80.000000 96.298 -11.9896
81.199997 96.260 -12.3463
82.500000 96.226 -12.7296
83.800003 96.192 -13.1240
85.000000 96.158 -13.4644
86.199997 96.130 -13.7573
87.500000 96.115 -14.0924
88.500000 96.105 -14.4503
90.000000 96.055 -15.0322
91.199997 95.997 -15.2278
92.500000 95.970 -15.3220
93.800003 95.953 -15.6042
95.000000 95.914 -15.9238
96.199997 95.865 -16.1721
97.500000 95.817 -16.3813
98.800003 95.784 -16.5643
100.000000 95.766 -16.8015
101.500000 95.734 -17.1768
103.000000 95.687 -17.5186
104.400002 95.636 -17.7733
106.000000 95.587 -18.0494
107.500000 95.544 -18.3683
109.000000 95.501 -18.6830
110.599998 95.454 -18.9352
112.000000 95.415 -19.0920
113.800003 95.359 -19.2810
115.000000 95.317 -19.4170
117.199997 95.244 -19.7004
118.000000 95.224 -19.8403
120.599998 95.154 -20.3217
122.000000 95.120 -20.4592
124.099998 95.075 -20.6333
125.000000 95.052 -20.7144
126.500000 95.009 -20.8594
128.000000 94.964 -21.0377
131.500000 94.862 -21.5295
132.000000 94.847 -21.5997
134.000000 94.787 -21.8547
136.000000 94.731 -22.0471
138.000000 94.685 -22.2195
140.000000 94.638 -22.3703
143.000000 94.565 -22.5204
145.000000 94.512 -22.6571
147.500000 94.441 -22.8678
150.000000 94.371 -22.9872
152.500000 94.314 -22.9924
155.000000 94.251 -23.0993
157.500000 94.164 -23.2750
160.000000 94.083 -23.3788
162.500000 94.017 -23.3555
165.000000 93.959 -23.2111
167.500000 93.901 -23.0475
170.000000 93.862 -22.8455
172.500000 93.865 -22.7228
175.000000 93.869 -22.8120
177.500000 93.861 -22.9695
180.000000 93.845 -23.3083
182.500000 93.807 -23.6609
185.000000 93.758 -23.8905
187.500000 93.698 -24.0041
190.000000 93.631 -24.0543
192.500000 93.568 -24.1036
195.000000 93.516 -24.1886
197.500000 93.472 -24.2930
200.000000 93.428 -24.3679
203.000000 93.370 -24.4550
206.000000 93.309 -24.6039
209.000000 93.255 -24.7318
212.000000 93.202 -24.7271
214.000000 93.162 -24.6724
218.000000 93.079 -24.6281
220.000000 93.043 -24.6634
224.000000 92.969 -24.6980
227.000000 92.914 -24.6907
230.000000 92.837 -24.6208
233.000000 92.725 -24.3832
236.000000 92.646 -24.1149
240.000000 92.655 -24.3026
243.000000 92.648 -24.4979
247.000000 92.588 -24.5994
250.000000 92.536 -24.5820
254.000000 92.483 -24.3968
258.000000 92.442 -24.2755
262.000000 92.404 -24.2206
265.000000 92.367 -24.1356
269.000000 92.307 -24.0173
272.000000 92.263 -23.9937
276.000000 92.209 -24.0161
280.000000 92.160 -23.9980
285.000000 92.104 -23.8618
290.000000 92.057 -23.6139
295.000000 92.011 -23.4266
300.000000 91.949 -23.4288
304.000000 91.903 -23.3796
307.000000 91.876 -23.3042
311.000000 91.841 -23.2188
315.000000 91.801 -23.1475
320.000000 91.756 -23.0284
325.000000 91.712 -22.8596
330.000000 91.664 -22.7065
335.000000 91.618 -22.5948
340.000000 91.573 -22.4779
345.000000 91.529 -22.3317
350.000000 91.482 -22.1980
355.000000 91.439 -22.0496
360.000000 91.400 -21.8604
365.000000 91.361 -21.7013
370.000000 91.323 -21.5715
375.000000 91.285 -21.4257
382.000000 91.230 -21.1923
387.000000 91.195 -21.0121
395.000000 91.139 -20.7803
400.000000 91.100 -20.6365
406.000000 91.042 -20.3898
412.000000 90.975 -20.1086
418.000000 90.946 -19.9666
425.000000 90.923 -19.8280
431.000000 90.888 -19.6588
437.000000 90.850 -19.4713
444.000000 90.810 -19.2331
450.000000 90.777 -19.0496
455.000000 90.747 -18.8990
462.000000 90.705 -18.6735
468.000000 90.668 -18.4860
475.000000 90.632 -18.2573
482.000000 90.600 -18.0126
487.000000 90.575 -17.8396
494.000000 90.541 -17.5974
500.000000 90.513 -17.3937
508.000000 90.477 -17.1141
515.000000 90.445 -16.8657
522.000000 90.417 -16.6426
530.000000 90.390 -16.4219
538.000000 90.366 -16.1382
545.000000 90.344 -15.8690
552.000000 90.320 -15.5909
560.000000 90.294 -15.2794
570.000000 90.262 -14.9380
580.000000 90.232 -14.5706
590.000000 90.203 -14.1735
600.000000 90.176 -13.8315
608.000000 90.155 -13.5587
615.000000 90.138 -13.3005
622.000000 90.119 -13.0337
630.000000 90.097 -12.7244
640.000000 90.073 -12.3497
650.000000 90.052 -11.9738
660.000000 90.035 -11.5798
670.000000 90.021 -11.1910
680.000000 90.010 -10.8013
690.000000 90.000 -10.4042
700.000000 89.993 -9.9970
710.000000 89.985 -9.6013
720.000000 89.980 -9.2128
730.000000 89.977 -8.8180
740.000000 89.977 -8.4219
750.000000 89.979 -8.0288
762.000000 89.983 -7.5515
775.000000 89.988 -7.0225
788.000000 89.996 -6.4982
800.000000 90.005 -6.0157
812.000000 90.018 -5.5305
825.000000 90.038 -5.0178
838.000000 90.066 -4.5270
850.000000 90.097 -4.0865
862.000000 90.130 -3.6549
875.000000 90.167 -3.1974
885.000000 90.197 -2.8475
900.000000 90.244 -2.3429
912.000000 90.287 -1.9684
925.000000 90.337 -1.5897
938.000000 90.391 -1.2341
950.000000 90.442 -0.9203
962.000000 90.492 -0.6249
975.000000 90.548 -0.3274
988.000000 90.608 -0.0682
1000.000000 90.664 0.1367
1015.000000 90.734 0.3727
1030.000000 90.802 0.5800
1044.000000 90.865 0.7328
1060.000000 90.940 0.8850
1075.000000 91.012 0.9805
1090.000000 91.089 1.0349
1106.000000 91.176 1.0838
1120.000000 91.252 1.1033
1138.000000 91.346 1.0916
1150.000000 91.407 1.0676
1172.000000 91.516 0.9938
1180.000000 91.554 0.9602
1206.000000 91.678 0.8259
1220.000000 91.746 0.7390
1241.000000 91.850 0.5964
1250.000000 91.893 0.5319
1265.000000 91.964 0.4194
1280.000000 92.032 0.3048
1315.000000 92.182 0.0411
1320.000000 92.203 0.0025
1340.000000 92.277 -0.1539
1360.000000 92.331 -0.3098
1380.000000 92.382 -0.4622
1400.000000 92.445 -0.6093
1430.000000 92.545 -0.8242
1450.000000 92.611 -0.9618
1475.000000 92.695 -1.1317
1500.000000 92.782 -1.2983
1525.000000 92.870 -1.4670
1550.000000 92.953 -1.6305
1575.000000 93.032 -1.7903
1600.000000 93.112 -1.9454
1625.000000 93.195 -2.1027
1650.000000 93.282 -2.2680
1675.000000 93.372 -2.4373
1700.000000 93.463 -2.6060
1725.000000 93.552 -2.7789
1750.000000 93.643 -2.9580
1775.000000 93.738 -3.1482
1800.000000 93.839 -3.3549
1825.000000 93.945 -3.5776
1850.000000 94.057 -3.8169
1875.000000 94.173 -4.0748
1900.000000 94.296 -4.3597
1925.000000 94.425 -4.6802
1950.000000 94.560 -5.0430
1975.000000 94.700 -5.4556
2000.000000 94.846 -5.9279
2030.000000 95.031 -6.5976
2060.000000 95.226 -7.4089
2090.000000 95.429 -8.3977
2120.000000 95.634 -9.6063
2140.000000 95.770 -10.5524
2180.000000 96.021 -12.8154
2200.000000 96.126 -14.1370
2240.000000 96.271 -17.1044
2270.000000 96.308 -19.5099
2300.000000 96.276 -21.9246
2330.000000 96.176 -24.1958
2360.000000 96.019 -26.1835
2400.000000 95.750 -28.2300
2430.000000 95.531 -29.2854
2470.000000 95.249 -30.1299
2500.000000 95.058 -30.4280
2540.000000 94.843 -30.5123
2580.000000 94.676 -30.3688
2620.000000 94.554 -30.1190
2650.000000 94.491 -29.9216
2690.000000 94.441 -29.6938
2720.000000 94.425 -29.5652
2760.000000 94.424 -29.4590
2800.000000 94.442 -29.4255
2850.000000 94.491 -29.4932
2900.000000 94.564 -29.7158
2950.000000 94.654 -30.1468
3000.000000 94.749 -30.8249
3040.000000 94.815 -31.5305
3070.000000 94.856 -32.1301
3110.000000 94.896 -32.9897
3150.000000 94.922 -33.8907
3200.000000 94.936 -35.0385
3250.000000 94.933 -36.1792
3300.000000 94.914 -37.3054
3350.000000 94.882 -38.4109
3400.000000 94.838 -39.4935
3450.000000 94.788 -40.5635
3500.000000 94.727 -41.6227
3550.000000 94.650 -42.6552
3600.000000 94.553 -43.6370
3650.000000 94.437 -44.5417
3700.000000 94.302 -45.3455
3750.000000 94.152 -46.0336
3820.000000 93.920 -46.7727
3870.000000 93.736 -47.1121
3950.000000 93.409 -47.2512
4000.000000 93.193 -47.0356
4060.000000 92.937 -46.4240
4120.000000 92.700 -45.4052
4180.000000 92.499 -43.9944
4250.000000 92.327 -41.9290
4310.000000 92.242 -39.8856
4370.000000 92.220 -37.6838
4440.000000 92.289 -35.0533
4500.000000 92.440 -32.8860
4550.000000 92.630 -31.2435
4620.000000 92.984 -29.3641
4680.000000 93.352 -28.3012
4750.000000 93.825 -27.8795
4820.000000 94.300 -28.4594
4870.000000 94.610 -29.4971
4940.000000 94.956 -31.7272
5000.000000 95.136 -34.1696
5080.000000 95.172 -37.6942
5150.000000 95.012 -40.4344
5220.000000 94.718 -42.2822
5300.000000 94.332 -43.0297
5380.000000 94.007 -42.7704
5450.000000 93.780 -42.2000
5520.000000 93.578 -41.3762
5600.000000 93.380 -40.0449
5700.000000 93.211 -37.8915
5800.000000 93.149 -35.4504
5900.000000 93.195 -32.9496
6000.000000 93.344 -30.5597
6080.000000 93.530 -28.8274
6150.000000 93.735 -27.5063
6220.000000 93.973 -26.4141
6300.000000 94.278 -25.5015
6400.000000 94.690 -24.9567
6500.000000 95.106 -25.1530
6600.000000 95.486 -26.1091
6700.000000 95.790 -27.7497
6800.000000 95.990 -29.8944
6900.000000 96.069 -32.2520
7000.000000 96.007 -34.3432
7100.000000 95.807 -35.3585
7200.000000 95.623 -34.4409
7300.000000 95.784 -32.1525
7400.000000 96.340 -31.1725
7500.000000 96.875 -33.0586
7620.000000 97.148 -37.2706
7750.000000 97.106 -41.5170
7880.000000 96.877 -44.9693
8000.000000 96.585 -48.0154
8120.000000 96.202 -51.2828
8250.000000 95.614 -54.9082
8380.000000 94.807 -58.0205
8500.000000 93.888 -59.9149
8620.000000 92.842 -60.5458
8750.000000 91.625 -59.5857
8850.000000 90.684 -57.6851
9000.000000 89.356 -53.2960
9120.000000 88.403 -48.7277
9250.000000 87.503 -42.9763
9380.000000 86.752 -36.6555
9500.000000 86.195 -30.5196
9620.000000 85.767 -24.2598
9750.000000 85.448 -17.5222
9880.000000 85.266 -11.0177
10000.000000 85.198 -5.3666
10150.000000 85.212 1.0669
10300.000000 85.293 6.7194
10440.000000 85.386 11.3016
10600.000000 85.472 15.8348
10750.000000 85.510 19.5895
10900.000000 85.496 23.0818
11060.000000 85.428 26.7469
11200.000000 85.330 30.0640
11380.000000 85.175 34.6548
11500.000000 85.071 37.9683
11720.000000 84.928 44.5695
11800.000000 84.902 47.1198
12060.000000 84.960 55.7804
12200.000000 85.100 60.5522
12410.000000 85.480 67.5978
12500.000000 85.717 70.4962
12650.000000 86.229 75.0301
12800.000000 86.905 78.9940
13150.000000 89.176 83.9026
13200.000000 89.568 83.7999
13400.000000 91.158 80.2605
13600.000000 92.433 70.7937
13800.000000 92.923 56.6527
14000.000000 92.472 42.4544
14300.000000 90.761 29.0460
14500.000000 89.705 25.1541
14750.000000 89.164 22.4603
15000.000000 89.773 18.4713
15250.000000 91.418 9.1387
15500.000000 93.382 -9.2085
15750.000000 94.680 -36.3643
16000.000000 94.910 -66.3464
16250.000000 94.321 -94.3103
16500.000000 93.037 -119.0228
16750.000000 90.996 -137.7367
17000.000000 88.470 -147.9557
17250.000000 86.049 -150.6802
17500.000000 84.227 -148.7562
17750.000000 83.202 -144.8992
18000.000000 82.956 -141.5082
18250.000000 83.310 -141.1588
18500.000000 83.831 -146.1548
18750.000000 83.914 -155.9750
19000.000000 83.170 -165.6385
19250.000000 81.657 -169.9927
19500.000000 79.705 -168.2625
19750.000000 77.694 -162.7748
20000.000000 75.794 -156.0864
20300.000000 73.485 -147.1069
20600.000000 71.028 -133.9667
20900.000000 68.963 -116.2030
21200.000000 67.958 -100.9015
21400.000000 67.641 -99.5842
21800.000000 66.351 106.9667
22000.000000 64.663 53.7345
22400.000000 58.227 -175.9453
22700.000000 51.085 24.5068
23000.000000 42.782 -4.7383
23300.000000 35.346 122.9297
23600.000000 32.285 6.0117
24000.000000 31.577 -126.8633
