* Measurement data measured by REW V5.20.13
* Source: Headset (DS by VECLAN.COM), MICROPHONE (Master Volume), L, volume: 0.720. Timing signal peak level -14.8 dBFS, measurement signal peak level -14.4 dBFS
* Format: 2M Log Swept Sine, 1 sweep at -12.0 dBFS using an acoustic timing reference
* Dated: Feb 26, 2024 12:13:55 PM
* REW Settings:
*  C-weighting compensation: Off
*  Target level: 75.0 dB
* Note: ; Delay -0.0700 ms (-24 mm, -0.94 in) using estimated IR delay relative to Acoustic reference played from HEADPHONE R with no timing offset
* Measurement: 64 Audio Duo R
* Smoothing: 1/24 octave
* Frequency Step: 1/48 octave
* Start Frequency: 1.000 Hz
*
* Freq(Hz) SPL(dB) Phase(degrees)
1.000000 67.780 72.6244
1.015000 67.691 76.7093
1.030000 67.635 80.6489
1.044000 67.616 84.1751
1.060000 67.636 88.0025
1.075000 67.698 91.3713
1.090000 67.806 94.5047
1.106000 67.975 97.5861
1.120000 68.179 100.1835
1.138000 68.514 103.4238
1.150000 68.779 105.5207
1.172000 69.342 109.2308
1.180000 69.570 110.5361
1.206000 70.381 114.6134
1.220000 70.858 116.7025
1.241000 71.613 119.6930
1.250000 71.949 120.9213
1.265000 72.522 122.8961
1.280000 73.107 124.7791
1.315000 74.490 128.8080
1.320000 74.687 129.3410
1.340000 75.469 131.3647
1.360000 76.229 133.2122
1.380000 76.957 134.8801
1.400000 77.642 136.3649
1.430000 78.564 138.2410
1.450000 79.092 139.2527
1.475000 79.642 140.2180
1.500000 80.118 140.6549
1.525000 80.540 140.5763
1.550000 80.913 140.0510
1.575000 81.242 139.1479
1.600000 81.534 137.9360
1.625000 81.793 136.4842
1.650000 82.026 134.8614
1.675000 82.238 133.1365
1.700000 82.434 131.3784
1.725000 82.621 129.6561
1.750000 82.803 128.0384
1.775000 82.987 126.5942
1.800000 83.177 125.3925
1.825000 83.381 124.5022
1.850000 83.593 123.9148
1.875000 83.794 123.4702
1.900000 83.985 123.1430
1.925000 84.165 122.9151
1.950000 84.337 122.7681
1.975000 84.501 122.6839
2.000000 84.658 122.6443
2.030000 84.838 122.6299
2.060000 85.012 122.6219
2.090000 85.180 122.5888
2.120000 85.345 122.4991
2.140000 85.454 122.3923
2.180000 85.670 122.0239
2.200000 85.779 121.7439
2.240000 85.992 121.0435
2.270000 86.146 120.4298
2.300000 86.294 119.7542
2.330000 86.438 119.0295
2.360000 86.578 118.2682
2.400000 86.758 117.2181
2.430000 86.889 116.4205
2.470000 87.059 115.3678
2.500000 87.183 114.6026
2.540000 87.346 113.6389
2.580000 87.505 112.7584
2.620000 87.658 111.9059
2.650000 87.768 111.2759
2.690000 87.911 110.4502
2.720000 88.015 109.8430
2.760000 88.149 109.0513
2.800000 88.279 108.2822
2.850000 88.436 107.3562
2.900000 88.589 106.4739
2.950000 88.738 105.6430
3.000000 88.882 104.8882
3.040000 88.991 104.3305
3.070000 89.071 103.9316
3.110000 89.175 103.4168
3.150000 89.276 102.9109
3.200000 89.400 102.2742
3.250000 89.520 101.6120
3.300000 89.640 100.9023
3.350000 89.755 100.1271
3.400000 89.867 99.3022
3.450000 89.975 98.4538
3.500000 90.081 97.6083
3.550000 90.185 96.7921
3.600000 90.288 96.0316
3.650000 90.391 95.3530
3.700000 90.493 94.7795
3.750000 90.594 94.3019
3.820000 90.732 93.7429
3.870000 90.830 93.3851
3.950000 90.986 92.8093
4.000000 91.084 92.4050
4.060000 91.203 91.8379
4.120000 91.323 91.2091
4.180000 91.442 90.5458
4.250000 91.582 89.7591
4.310000 91.702 89.1000
4.370000 91.822 88.4792
4.440000 91.963 87.8303
4.500000 92.084 87.3318
4.550000 92.186 86.9403
4.620000 92.328 86.4028
4.680000 92.449 85.9278
4.750000 92.589 85.3257
4.820000 92.727 84.6555
4.870000 92.826 84.1488
4.940000 92.963 83.4132
5.000000 93.080 82.7697
5.080000 93.231 81.9117
5.150000 93.359 81.1771
5.220000 93.484 80.4490
5.300000 93.624 79.6169
5.380000 93.760 78.7832
5.450000 93.874 78.0511
5.520000 93.983 77.3145
5.600000 94.103 76.4615
5.700000 94.246 75.3892
5.800000 94.381 74.3285
5.900000 94.508 73.2952
6.000000 94.627 72.2754
6.080000 94.717 71.4743
6.150000 94.792 70.7912
6.220000 94.866 70.1301
6.300000 94.946 69.4041
6.400000 95.041 68.5332
6.500000 95.132 67.6967
6.600000 95.221 66.8880
6.700000 95.307 66.1066
6.800000 95.391 65.3551
6.900000 95.473 64.6330
7.000000 95.554 63.9414
7.100000 95.635 63.2865
7.200000 95.715 62.6583
7.300000 95.795 62.0438
7.400000 95.874 61.4351
7.500000 95.952 60.8392
7.620000 96.044 60.1420
7.750000 96.143 59.4098
7.880000 96.239 58.7022
8.000000 96.326 58.0682
8.120000 96.412 57.4504
8.250000 96.503 56.8011
8.380000 96.593 56.1696
8.500000 96.676 55.6024
8.620000 96.759 55.0534
8.750000 96.848 54.4637
8.850000 96.918 54.0069
9.000000 97.023 53.3273
9.120000 97.107 52.7689
9.250000 97.197 52.1349
9.380000 97.288 51.4784
9.500000 97.366 50.8459
9.620000 97.436 50.1795
9.750000 97.504 49.4244
9.880000 97.557 48.6554
10.000000 97.587 47.9285
10.150000 97.604 47.0068
10.300000 97.598 46.1447
10.440000 97.569 45.3825
10.600000 97.519 44.6098
10.750000 97.462 44.0246
10.900000 97.395 43.5601
11.060000 97.332 43.2234
11.200000 97.279 43.0699
11.380000 97.231 42.9955
11.500000 97.215 43.0343
11.720000 97.220 43.1632
11.800000 97.237 43.1928
12.060000 97.333 43.2152
12.200000 97.404 43.0603
12.410000 97.529 42.6229
12.500000 97.579 42.3456
12.650000 97.662 41.7542
12.800000 97.733 41.0568
13.150000 97.828 39.1187
13.200000 97.834 38.8390
13.400000 97.834 37.7033
13.600000 97.808 36.6719
13.800000 97.760 35.7956
14.000000 97.708 35.0992
14.300000 97.634 34.3798
14.500000 97.605 34.0641
14.750000 97.595 33.7216
15.000000 97.616 33.3689
15.250000 97.657 32.8931
15.500000 97.702 32.3078
15.750000 97.742 31.6328
16.000000 97.768 30.9364
16.250000 97.783 30.2800
16.500000 97.792 29.6854
16.750000 97.804 29.1696
17.000000 97.823 28.6952
17.250000 97.849 28.2386
17.500000 97.881 27.7672
17.750000 97.912 27.2747
18.000000 97.939 26.7752
18.250000 97.960 26.2860
18.500000 97.979 25.8367
18.750000 97.998 25.4250
19.000000 98.021 25.0477
19.250000 98.050 24.6695
19.500000 98.083 24.2675
19.750000 98.115 23.8255
20.000000 98.141 23.3411
20.299999 98.161 22.7421
20.600000 98.166 22.1703
20.900000 98.160 21.6738
21.200001 98.153 21.2752
21.400000 98.152 21.0489
21.799999 98.164 20.6289
22.000000 98.175 20.4034
22.400000 98.201 19.8736
22.700001 98.217 19.4180
23.000000 98.223 18.9538
23.299999 98.224 18.5228
23.600000 98.224 18.1410
24.000000 98.232 17.6927
24.299999 98.248 17.3581
24.700001 98.275 16.8559
25.000000 98.294 16.4262
25.400000 98.308 15.8197
25.799999 98.306 15.2574
26.200001 98.297 14.8035
26.500000 98.294 14.5342
26.900000 98.298 14.2295
27.200001 98.309 14.0038
27.600000 98.327 13.6749
28.000000 98.344 13.3202
28.500000 98.360 12.8880
29.000000 98.378 12.4802
29.500000 98.402 12.0262
30.000000 98.421 11.4628
30.400000 98.419 10.9716
30.700001 98.409 10.6291
31.100000 98.389 10.2590
31.500000 98.378 9.9798
32.000000 98.388 9.6392
32.500000 98.415 9.1493
33.000000 98.430 8.4950
33.500000 98.420 7.8287
34.000000 98.400 7.2938
34.500000 98.390 6.8650
35.000000 98.393 6.4256
35.500000 98.392 5.9390
36.000000 98.376 5.5036
36.500000 98.356 5.2138
37.000000 98.352 5.0353
37.500000 98.368 4.8425
38.200001 98.400 4.4027
38.700001 98.411 3.9992
39.500000 98.405 3.3416
40.000000 98.391 2.9565
40.599998 98.366 2.5508
41.200001 98.342 2.2230
41.799999 98.328 1.9218
42.500000 98.322 1.5133
43.099998 98.313 1.1213
43.700001 98.302 0.7487
44.400002 98.292 0.3492
45.000000 98.289 -0.0053
45.500000 98.286 -0.3250
46.200001 98.277 -0.7812
46.799999 98.265 -1.1407
47.500000 98.254 -1.5172
48.200001 98.248 -1.8911
48.700001 98.244 -2.1730
49.400002 98.234 -2.5706
50.000000 98.224 -2.8910
50.799999 98.212 -3.2895
51.500000 98.204 -3.6329
52.200001 98.197 -3.9851
53.000000 98.185 -4.4060
53.799999 98.165 -4.8236
54.500000 98.142 -5.1398
55.200001 98.122 -5.4132
56.000000 98.105 -5.7526
57.000000 98.072 -6.2054
58.000000 98.037 -6.5178
59.000000 98.027 -6.8459
60.000000 98.014 -7.2986
60.799999 97.998 -7.6519
61.500000 97.984 -7.9630
62.200001 97.968 -8.2828
63.000000 97.945 -8.6201
64.000000 97.920 -9.0061
65.000000 97.897 -9.4031
66.000000 97.872 -9.7883
67.000000 97.851 -10.1651
68.000000 97.831 -10.5596
69.000000 97.808 -10.9610
70.000000 97.782 -11.3640
71.000000 97.752 -11.7420
72.000000 97.722 -12.0898
73.000000 97.690 -12.4215
74.000000 97.658 -12.7062
75.000000 97.632 -12.9820
76.199997 97.601 -13.3525
77.500000 97.564 -13.7329
78.800003 97.530 -14.1052
80.000000 97.500 -14.4766
81.199997 97.466 -14.8699
82.500000 97.423 -15.2580
83.800003 97.382 -15.5929
85.000000 97.349 -15.8975
86.199997 97.316 -16.2037
87.500000 97.280 -16.5341
88.500000 97.252 -16.7821
90.000000 97.208 -17.1561
91.199997 97.171 -17.4604
92.500000 97.131 -17.7803
93.800003 97.092 -18.1010
95.000000 97.055 -18.3990
96.199997 97.016 -18.6651
97.500000 96.976 -18.9073
98.800003 96.942 -19.1521
100.000000 96.911 -19.4171
101.500000 96.863 -19.7756
103.000000 96.808 -20.1353
104.400002 96.753 -20.4195
106.000000 96.703 -20.6977
107.500000 96.665 -21.0110
109.000000 96.624 -21.3503
110.599998 96.572 -21.6739
112.000000 96.524 -21.8560
113.800003 96.474 -21.9591
115.000000 96.458 -22.0095
117.199997 96.427 -22.4699
118.000000 96.394 -22.6787
120.599998 96.268 -23.1433
122.000000 96.207 -23.3680
124.099998 96.126 -23.6780
125.000000 96.099 -23.8069
126.500000 96.058 -24.0483
128.000000 96.013 -24.2613
131.500000 95.911 -24.5618
132.000000 95.896 -24.5967
134.000000 95.836 -24.7350
136.000000 95.781 -24.8877
138.000000 95.738 -25.1295
140.000000 95.690 -25.4915
143.000000 95.596 -25.8808
145.000000 95.539 -26.0308
147.500000 95.471 -26.2426
150.000000 95.400 -26.5229
152.500000 95.322 -26.7965
155.000000 95.249 -26.9535
157.500000 95.187 -27.0519
160.000000 95.119 -27.1952
162.500000 95.042 -27.4154
165.000000 94.962 -27.6473
167.500000 94.896 -27.7909
170.000000 94.829 -27.8876
172.500000 94.745 -27.9622
175.000000 94.660 -28.0370
177.500000 94.598 -28.1691
180.000000 94.543 -28.3360
182.500000 94.477 -28.4681
185.000000 94.404 -28.5658
187.500000 94.331 -28.6509
190.000000 94.259 -28.7257
192.500000 94.188 -28.7782
195.000000 94.118 -28.8351
197.500000 94.050 -28.9069
200.000000 93.978 -28.9972
203.000000 93.887 -29.0485
206.000000 93.807 -29.0196
209.000000 93.732 -28.9739
212.000000 93.654 -28.8866
214.000000 93.604 -28.8098
218.000000 93.515 -28.6375
220.000000 93.479 -28.5806
224.000000 93.419 -28.5803
227.000000 93.371 -28.6293
230.000000 93.309 -28.6395
233.000000 93.239 -28.6207
236.000000 93.176 -28.6804
240.000000 93.098 -28.7418
243.000000 93.032 -28.6377
247.000000 92.946 -28.4995
250.000000 92.895 -28.5079
254.000000 92.821 -28.5437
258.000000 92.739 -28.5354
262.000000 92.662 -28.4225
265.000000 92.597 -28.2822
269.000000 92.503 -28.1957
272.000000 92.443 -28.1818
276.000000 92.380 -28.1316
280.000000 92.319 -28.0206
285.000000 92.227 -27.8604
290.000000 92.127 -27.7479
295.000000 92.033 -27.5677
300.000000 91.949 -27.3757
304.000000 91.881 -27.2123
307.000000 91.831 -27.0707
311.000000 91.769 -26.8905
315.000000 91.710 -26.7053
320.000000 91.633 -26.4636
325.000000 91.561 -26.2170
330.000000 91.492 -25.9748
335.000000 91.418 -25.8124
340.000000 91.347 -25.6916
345.000000 91.275 -25.5032
350.000000 91.214 -25.2187
355.000000 91.138 -24.8425
360.000000 91.059 -24.4939
365.000000 90.984 -24.2367
370.000000 90.915 -24.0133
375.000000 90.849 -23.7482
382.000000 90.759 -23.2742
387.000000 90.695 -22.9616
395.000000 90.598 -22.5562
400.000000 90.537 -22.3358
406.000000 90.463 -22.0955
412.000000 90.394 -21.7046
418.000000 90.324 -21.1986
425.000000 90.239 -20.7193
431.000000 90.172 -20.3340
437.000000 90.110 -19.9418
444.000000 90.036 -19.4949
450.000000 89.972 -19.1169
455.000000 89.919 -18.8049
462.000000 89.842 -18.3643
468.000000 89.780 -17.9683
475.000000 89.721 -17.4430
482.000000 89.667 -16.9373
487.000000 89.629 -16.6137
494.000000 89.578 -16.1871
500.000000 89.534 -15.8065
508.000000 89.479 -15.2359
515.000000 89.431 -14.7166
522.000000 89.383 -14.2128
530.000000 89.331 -13.6975
538.000000 89.278 -13.1992
545.000000 89.227 -12.7043
552.000000 89.177 -12.1454
560.000000 89.128 -11.4977
570.000000 89.079 -10.7433
580.000000 89.041 -10.0240
590.000000 88.999 -9.2863
600.000000 88.956 -8.5436
608.000000 88.923 -7.9442
615.000000 88.897 -7.4316
622.000000 88.874 -6.9328
630.000000 88.851 -6.3838
640.000000 88.825 -5.7195
650.000000 88.801 -5.0477
660.000000 88.780 -4.3825
670.000000 88.764 -3.7717
680.000000 88.753 -3.2869
690.000000 88.733 -2.9480
700.000000 88.693 -2.6769
710.000000 88.624 -2.3881
720.000000 88.525 -1.9802
730.000000 88.418 -1.3492
740.000000 88.324 -0.4949
750.000000 88.254 0.4943
762.000000 88.202 1.7004
775.000000 88.171 2.9642
788.000000 88.150 4.1968
800.000000 88.138 5.2938
812.000000 88.134 6.3488
825.000000 88.134 7.4598
838.000000 88.141 8.5464
850.000000 88.155 9.5316
862.000000 88.175 10.5076
875.000000 88.201 11.5586
885.000000 88.227 12.3490
900.000000 88.274 13.4800
912.000000 88.315 14.3609
925.000000 88.363 15.3062
938.000000 88.412 16.2157
950.000000 88.459 17.0235
962.000000 88.509 17.8063
975.000000 88.567 18.6241
988.000000 88.631 19.3860
1000.000000 88.696 20.0249
1015.000000 88.777 20.7961
1030.000000 88.852 21.5458
1044.000000 88.922 22.2050
1060.000000 89.005 22.9027
1075.000000 89.085 23.5128
1090.000000 89.171 24.0862
1106.000000 89.270 24.6517
1120.000000 89.360 25.1124
1138.000000 89.474 25.6623
1150.000000 89.545 26.0098
1172.000000 89.667 26.6199
1180.000000 89.710 26.8310
1206.000000 89.849 27.4564
1220.000000 89.923 27.7738
1241.000000 90.035 28.2434
1250.000000 90.083 28.4257
1265.000000 90.163 28.7082
1280.000000 90.241 28.9925
1315.000000 90.408 29.6562
1320.000000 90.431 29.7462
1340.000000 90.514 30.0876
1360.000000 90.574 30.4353
1380.000000 90.628 30.7947
1400.000000 90.697 31.1341
1430.000000 90.817 31.6409
1450.000000 90.897 31.9553
1475.000000 90.984 32.3804
1500.000000 91.065 32.8268
1525.000000 91.153 33.2204
1550.000000 91.236 33.6121
1575.000000 91.305 34.0406
1600.000000 91.370 34.4666
1625.000000 91.440 34.8832
1650.000000 91.512 35.2934
1675.000000 91.581 35.7043
1700.000000 91.646 36.1223
1725.000000 91.705 36.5453
1750.000000 91.764 36.9722
1775.000000 91.829 37.3818
1800.000000 91.900 37.7806
1825.000000 91.969 38.1817
1850.000000 92.035 38.5900
1875.000000 92.099 39.0026
1900.000000 92.165 39.4117
1925.000000 92.234 39.8141
1950.000000 92.306 40.2043
1975.000000 92.378 40.5948
2000.000000 92.447 40.9917
2030.000000 92.528 41.4711
2060.000000 92.610 41.9488
2090.000000 92.697 42.4213
2120.000000 92.785 42.9022
2140.000000 92.843 43.2365
2180.000000 92.964 43.9382
2200.000000 93.029 44.2990
2240.000000 93.173 45.0449
2270.000000 93.297 45.6061
2300.000000 93.436 46.1193
2330.000000 93.592 46.5260
2360.000000 93.757 46.7946
2400.000000 93.978 46.9468
2430.000000 94.136 46.9400
2470.000000 94.329 46.8304
2500.000000 94.466 46.6914
2540.000000 94.647 46.4313
2580.000000 94.833 46.0787
2620.000000 95.018 45.6258
2650.000000 95.153 45.2146
2690.000000 95.327 44.5613
2720.000000 95.454 43.9739
2760.000000 95.617 43.0409
2800.000000 95.770 41.9349
2850.000000 95.936 40.2928
2900.000000 96.055 38.3800
2950.000000 96.121 36.2119
3000.000000 96.129 33.8232
3040.000000 96.087 31.8033
3070.000000 96.022 30.2644
3110.000000 95.889 28.2271
3150.000000 95.707 26.2482
3200.000000 95.417 23.9413
3250.000000 95.057 21.9020
3300.000000 94.633 20.1831
3350.000000 94.152 18.8300
3400.000000 93.619 17.9262
3450.000000 93.042 17.5680
3500.000000 92.442 17.7978
3550.000000 91.839 18.6284
3600.000000 91.249 20.0130
3650.000000 90.685 21.8727
3700.000000 90.152 24.1270
3750.000000 89.652 26.7163
3820.000000 88.997 30.9203
3870.000000 88.557 34.3631
3950.000000 87.915 40.7009
4000.000000 87.571 45.1962
4060.000000 87.247 51.1162
4120.000000 87.048 57.5468
4180.000000 87.000 64.3672
4250.000000 87.179 72.4594
4310.000000 87.541 78.8941
4370.000000 88.011 84.4351
4440.000000 88.612 90.0611
4500.000000 89.187 94.4468
4550.000000 89.721 97.7282
4620.000000 90.537 101.5532
4680.000000 91.281 104.0089
4750.000000 92.168 105.8505
4820.000000 93.036 106.5891
4870.000000 93.626 106.4484
4940.000000 94.381 105.3796
5000.000000 94.936 103.7644
5080.000000 95.512 100.8599
5150.000000 95.846 97.9257
5220.000000 96.022 94.9497
5300.000000 96.054 91.8399
5380.000000 95.944 89.3185
5450.000000 95.766 87.7069
5520.000000 95.539 86.6750
5600.000000 95.248 86.1629
5700.000000 94.872 86.4070
5800.000000 94.512 87.4625
5900.000000 94.190 89.1504
6000.000000 93.922 91.3171
6080.000000 93.751 93.3148
6150.000000 93.635 95.2112
6220.000000 93.551 97.2101
6300.000000 93.492 99.5914
6400.000000 93.470 102.6667
6500.000000 93.504 105.7983
6600.000000 93.590 108.9408
6700.000000 93.731 112.0446
6800.000000 93.933 115.0618
6900.000000 94.217 117.9363
7000.000000 94.583 120.6155
7100.000000 95.014 123.0291
7200.000000 95.502 125.0902
7300.000000 96.043 126.6770
7400.000000 96.627 127.6530
7500.000000 97.240 127.8792
7620.000000 97.999 126.9528
7750.000000 98.770 124.2538
7880.000000 99.304 119.7575
8000.000000 99.506 114.3712
8120.000000 99.389 108.5385
8250.000000 98.903 102.7638
8380.000000 98.116 98.4367
8500.000000 97.225 96.0801
8620.000000 96.263 95.2688
8750.000000 95.208 95.8903
8850.000000 94.418 97.2377
9000.000000 93.299 100.3690
9120.000000 92.477 103.6229
9250.000000 91.665 107.7216
9380.000000 90.930 112.2961
9500.000000 90.319 116.8563
9620.000000 89.774 121.6841
9750.000000 89.260 127.1612
9880.000000 88.828 132.8167
10000.000000 88.502 138.1125
10150.000000 88.179 144.7404
10300.000000 87.930 151.3167
10440.000000 87.752 157.3888
10600.000000 87.612 164.2316
10750.000000 87.545 170.5203
10900.000000 87.538 176.6463
11060.000000 87.591 -177.0506
11200.000000 87.688 -171.7883
11380.000000 87.871 -165.4598
11500.000000 88.021 -161.5687
11720.000000 88.324 -155.2349
11800.000000 88.434 -153.2128
12060.000000 88.739 -147.7249
12200.000000 88.833 -145.3804
12410.000000 88.833 -142.3414
12500.000000 88.777 -141.0916
12650.000000 88.617 -138.9259
12800.000000 88.385 -136.5502
13150.000000 87.621 -129.6513
13200.000000 87.495 -128.4677
13400.000000 86.971 -123.1931
13600.000000 86.463 -117.1177
13800.000000 86.014 -110.3867
14000.000000 85.644 -103.1298
14300.000000 85.215 -91.2942
14500.000000 85.034 -82.7086
14750.000000 84.999 -71.3053
15000.000000 85.249 -59.5376
15250.000000 85.842 -47.8575
15500.000000 86.853 -36.6909
15750.000000 88.332 -26.5389
16000.000000 90.318 -18.2264
16250.000000 92.829 -13.2869
16500.000000 95.614 -14.3559
16750.000000 98.029 -24.4658
17000.000000 99.364 -43.3148
17250.000000 99.394 -65.2792
17500.000000 98.396 -85.7259
17750.000000 96.585 -103.7190
18000.000000 93.946 -117.4524
18250.000000 90.585 -124.5264
18500.000000 86.889 -125.0032
18750.000000 83.348 -120.7876
19000.000000 80.256 -113.7406
19250.000000 77.498 -104.9541
19500.000000 74.717 -94.7456
19750.000000 71.702 -82.8408
20000.000000 68.463 -69.0398
20300.000000 64.423 -50.2156
20600.000000 60.487 -29.3355
20900.000000 57.043 -10.7047
21200.000000 54.613 -21.3203
21400.000000 53.594 -110.3406
21800.000000 52.129 -148.8595
22000.000000 50.864 14.8364
22400.000000 45.656 -154.1768
22700.000000 39.776 -80.3105
23000.000000 34.447 121.8984
23300.000000 32.200 -90.9453
23600.000000 31.625 -7.2461
24000.000000 31.025 -13.4219
