* Measurement data measured by REW V5.20.13
* Source: Headset (DS by VECLAN.COM), MICROPHONE (Master Volume), L, volume: 0.720. Timing signal peak level -17.6 dBFS, measurement signal peak level -16.0 dBFS
* Format: 4M Log Swept Sine, 1 sweep at -12.0 dBFS using an acoustic timing reference
* Dated: Dec 30, 2023 10:18:58 PM
* REW Settings:
*  C-weighting compensation: Off
*  Target level: 75.0 dB
* Note: ; Delay -0.0677 ms (-23 mm, -0.91 in) using estimated IR delay relative to Acoustic reference played from  L with no timing offset
* Measurement: AFUL MagicOne S2 L
* Smoothing: 1/24 octave
* Frequency Step: 1/48 octave
* Start Frequency: 1.000 Hz
*
* Freq(Hz) SPL(dB) Phase(degrees)
1.000000 76.554 100.2713
1.015000 76.859 98.5825
1.030000 77.160 96.9868
1.044000 77.434 95.5888
1.060000 77.740 94.1081
1.075000 78.019 92.8417
1.090000 78.287 91.7017
1.106000 78.563 90.6359
1.120000 78.803 89.8420
1.138000 79.112 89.0012
1.150000 79.317 88.5450
1.172000 79.692 87.9058
1.180000 79.827 87.7313
1.206000 80.265 87.3529
1.220000 80.499 87.2547
1.241000 80.845 87.2231
1.250000 80.992 87.2459
1.265000 81.234 87.3243
1.280000 81.474 87.4439
1.315000 82.018 87.8255
1.320000 82.094 87.8861
1.340000 82.393 88.1283
1.360000 82.683 88.3518
1.380000 82.965 88.5320
1.400000 83.236 88.6443
1.430000 83.623 88.6318
1.450000 83.867 88.4670
1.475000 84.154 88.0562
1.500000 84.420 87.5226
1.525000 84.669 86.9073
1.550000 84.900 86.2238
1.575000 85.115 85.4857
1.600000 85.317 84.7065
1.625000 85.506 83.9000
1.650000 85.684 83.0795
1.675000 85.852 82.2587
1.700000 86.013 81.4512
1.725000 86.167 80.6706
1.750000 86.316 79.9303
1.775000 86.462 79.2441
1.800000 86.606 78.6254
1.825000 86.750 78.0878
1.850000 86.891 77.6354
1.875000 87.022 77.2480
1.900000 87.144 76.9169
1.925000 87.258 76.6343
1.950000 87.365 76.3922
1.975000 87.466 76.1828
2.000000 87.562 75.9983
2.030000 87.672 75.7986
2.060000 87.779 75.6096
2.090000 87.883 75.4179
2.120000 87.986 75.2098
2.140000 88.056 75.0552
2.180000 88.200 74.6899
2.200000 88.275 74.4713
2.240000 88.425 73.9947
2.270000 88.537 73.6180
2.300000 88.649 73.2274
2.330000 88.759 72.8256
2.360000 88.867 72.4149
2.400000 89.010 71.8580
2.430000 89.115 71.4366
2.470000 89.253 70.8743
2.500000 89.353 70.4556
2.540000 89.485 69.9062
2.580000 89.612 69.3695
2.620000 89.735 68.8270
2.650000 89.825 68.4154
2.690000 89.943 67.8643
2.720000 90.029 67.4515
2.760000 90.141 66.9058
2.800000 90.250 66.3694
2.850000 90.382 65.7192
2.900000 90.511 65.0999
2.950000 90.637 64.5212
3.000000 90.758 63.9914
3.040000 90.852 63.5954
3.070000 90.920 63.3100
3.110000 91.009 62.9391
3.150000 91.096 62.5726
3.200000 91.202 62.1096
3.250000 91.305 61.6283
3.300000 91.406 61.1143
3.350000 91.505 60.5594
3.400000 91.600 59.9739
3.450000 91.692 59.3721
3.500000 91.782 58.7684
3.550000 91.869 58.1773
3.600000 91.954 57.6131
3.650000 92.037 57.0901
3.700000 92.118 56.6194
3.750000 92.197 56.1935
3.820000 92.302 55.6491
3.870000 92.375 55.2805
3.950000 92.488 54.6916
4.000000 92.557 54.3050
4.060000 92.637 53.8044
4.120000 92.715 53.2726
4.180000 92.791 52.7248
4.250000 92.876 52.0849
4.310000 92.946 51.5522
4.370000 93.015 51.0493
4.440000 93.094 50.5154
4.500000 93.159 50.0953
4.550000 93.211 49.7637
4.620000 93.282 49.3159
4.680000 93.342 48.9362
4.750000 93.411 48.4839
4.820000 93.480 48.0152
4.870000 93.527 47.6774
4.940000 93.593 47.2042
5.000000 93.649 46.8018
5.080000 93.720 46.2756
5.150000 93.781 45.8300
5.220000 93.840 45.3964
5.300000 93.905 44.9125
5.380000 93.968 44.4388
5.450000 94.021 44.0307
5.520000 94.072 43.6272
5.600000 94.128 43.1724
5.700000 94.195 42.6151
5.800000 94.260 42.0715
5.900000 94.322 41.5428
6.000000 94.382 41.0292
6.080000 94.428 40.6283
6.150000 94.468 40.2845
6.220000 94.506 39.9466
6.300000 94.549 39.5688
6.400000 94.602 39.1098
6.500000 94.652 38.6611
6.600000 94.700 38.2184
6.700000 94.746 37.7784
6.800000 94.790 37.3449
6.900000 94.832 36.9238
7.000000 94.872 36.5206
7.100000 94.911 36.1355
7.200000 94.949 35.7639
7.300000 94.986 35.4013
7.400000 95.023 35.0454
7.500000 95.059 34.6993
7.620000 95.102 34.2937
7.750000 95.148 33.8630
7.880000 95.193 33.4439
8.000000 95.233 33.0630
8.120000 95.273 32.6828
8.250000 95.314 32.2732
8.380000 95.355 31.8685
8.500000 95.390 31.5005
8.620000 95.424 31.1372
8.750000 95.459 30.7507
8.850000 95.485 30.4601
9.000000 95.523 30.0341
9.120000 95.552 29.7003
9.250000 95.584 29.3452
9.380000 95.617 28.9973
9.500000 95.645 28.6797
9.620000 95.670 28.3642
9.750000 95.695 28.0258
9.880000 95.713 27.6902
10.000000 95.722 27.3807
10.150000 95.726 26.9970
10.300000 95.722 26.6274
10.440000 95.710 26.2968
10.600000 95.694 25.9312
10.750000 95.680 25.6007
10.900000 95.665 25.2801
11.060000 95.652 24.9377
11.200000 95.643 24.6379
11.380000 95.631 24.2596
11.500000 95.622 24.0132
11.720000 95.608 23.5731
11.800000 95.604 23.4183
12.060000 95.592 22.9293
12.200000 95.588 22.6693
12.410000 95.585 22.2856
12.500000 95.583 22.1248
12.650000 95.581 21.8613
12.800000 95.579 21.6033
13.150000 95.575 21.0225
13.200000 95.574 20.9414
13.400000 95.575 20.6214
13.600000 95.576 20.3088
13.800000 95.580 20.0042
14.000000 95.583 19.7045
14.300000 95.588 19.2638
14.500000 95.591 18.9773
14.750000 95.596 18.6272
15.000000 95.601 18.2852
15.250000 95.609 17.9455
15.500000 95.618 17.6133
15.750000 95.627 17.2914
16.000000 95.635 16.9836
16.250000 95.642 16.6873
16.500000 95.649 16.4011
16.750000 95.657 16.1237
17.000000 95.667 15.8516
17.250000 95.678 15.5826
17.500000 95.690 15.3144
17.750000 95.701 15.0432
18.000000 95.710 14.7690
18.250000 95.717 14.4911
18.500000 95.723 14.2185
18.750000 95.729 13.9556
19.000000 95.734 13.7065
19.250000 95.741 13.4702
19.500000 95.749 13.2433
19.750000 95.758 13.0232
20.000000 95.768 12.8051
20.299999 95.782 12.5409
20.600000 95.795 12.2714
20.900000 95.808 11.9966
21.200001 95.818 11.7208
21.400000 95.823 11.5408
21.799999 95.832 11.1970
22.000000 95.835 11.0349
22.400000 95.843 10.7289
22.700001 95.850 10.5083
23.000000 95.858 10.2863
23.299999 95.867 10.0558
23.600000 95.876 9.8157
24.000000 95.884 9.4886
24.299999 95.888 9.2513
24.700001 95.891 8.9618
25.000000 95.894 8.7677
25.400000 95.902 8.5270
25.799999 95.916 8.2785
26.200001 95.931 7.9976
26.500000 95.940 7.7661
26.900000 95.947 7.4485
27.200001 95.948 7.2223
27.600000 95.947 6.9525
28.000000 95.946 6.7159
28.500000 95.948 6.4406
29.000000 95.953 6.1743
29.500000 95.958 5.9329
30.000000 95.968 5.7161
30.400000 95.981 5.5287
30.700001 95.992 5.3597
31.100000 96.004 5.0874
31.500000 96.009 4.7821
32.000000 96.002 4.4208
32.500000 95.989 4.1412
33.000000 95.979 3.9314
33.500000 95.977 3.7304
34.000000 95.979 3.4960
34.500000 95.980 3.2382
35.000000 95.979 2.9853
35.500000 95.978 2.7449
36.000000 95.978 2.5095
36.500000 95.978 2.2764
37.000000 95.976 2.0469
37.500000 95.975 1.8193
38.200001 95.973 1.5011
38.700001 95.971 1.2755
39.500000 95.966 0.9327
40.000000 95.963 0.7332
40.599998 95.962 0.4979
41.200001 95.961 0.2563
41.799999 95.958 0.0153
42.500000 95.954 -0.2522
43.099998 95.952 -0.4763
43.700001 95.950 -0.7046
44.400002 95.946 -0.9684
45.000000 95.941 -1.1804
45.500000 95.937 -1.3480
46.200001 95.934 -1.5826
46.799999 95.931 -1.7940
47.500000 95.926 -2.0466
48.200001 95.920 -2.2875
48.700001 95.915 -2.4492
49.400002 95.910 -2.6722
50.000000 95.906 -2.8663
50.799999 95.900 -3.1245
51.500000 95.894 -3.3442
52.200001 95.887 -3.5573
53.000000 95.879 -3.7946
53.799999 95.869 -4.0282
54.500000 95.859 -4.2297
55.200001 95.847 -4.4300
56.000000 95.834 -4.6591
57.000000 95.819 -4.9377
58.000000 95.806 -5.2452
59.000000 95.782 -5.5798
60.000000 95.754 -5.8015
60.799999 95.747 -5.9397
61.500000 95.749 -6.1005
62.200001 95.748 -6.2933
63.000000 95.739 -6.5143
64.000000 95.723 -6.7649
65.000000 95.707 -6.9928
66.000000 95.692 -7.2172
67.000000 95.675 -7.4393
68.000000 95.659 -7.6589
69.000000 95.644 -7.8941
70.000000 95.624 -8.1412
71.000000 95.601 -8.3552
72.000000 95.581 -8.5358
73.000000 95.564 -8.7141
74.000000 95.546 -8.8908
75.000000 95.526 -9.0715
76.199997 95.502 -9.2927
77.500000 95.476 -9.5309
78.800003 95.451 -9.7714
80.000000 95.429 -9.9867
81.199997 95.407 -10.1948
82.500000 95.380 -10.4158
83.800003 95.351 -10.6211
85.000000 95.326 -10.7919
86.199997 95.305 -10.9735
87.500000 95.282 -11.1794
88.500000 95.264 -11.3325
90.000000 95.235 -11.5476
91.199997 95.213 -11.7019
92.500000 95.191 -11.8678
93.800003 95.169 -12.0444
95.000000 95.145 -12.2089
96.199997 95.120 -12.3638
97.500000 95.093 -12.5165
98.800003 95.067 -12.6577
100.000000 95.043 -12.7930
101.500000 95.011 -12.9758
103.000000 94.980 -13.1526
104.400002 94.949 -13.3126
106.000000 94.913 -13.4897
107.500000 94.881 -13.6533
109.000000 94.850 -13.8185
110.599998 94.817 -13.9889
112.000000 94.787 -14.1246
113.800003 94.750 -14.2765
115.000000 94.724 -14.3762
117.199997 94.675 -14.5886
118.000000 94.656 -14.6681
120.599998 94.598 -14.8807
122.000000 94.575 -14.9872
124.099998 94.541 -15.1536
125.000000 94.525 -15.2233
126.500000 94.496 -15.3314
128.000000 94.467 -15.4315
131.500000 94.404 -15.6635
132.000000 94.395 -15.6982
134.000000 94.361 -15.8363
136.000000 94.328 -15.9561
138.000000 94.294 -16.0697
140.000000 94.259 -16.1992
143.000000 94.211 -16.3785
145.000000 94.179 -16.4852
147.500000 94.138 -16.6101
150.000000 94.097 -16.7195
152.500000 94.056 -16.8383
155.000000 94.013 -16.9733
157.500000 93.971 -17.1016
160.000000 93.929 -17.2265
162.500000 93.887 -17.3389
165.000000 93.844 -17.4427
167.500000 93.799 -17.5475
170.000000 93.751 -17.6517
172.500000 93.702 -17.7576
175.000000 93.654 -17.8613
177.500000 93.605 -17.9476
180.000000 93.555 -18.0369
182.500000 93.502 -18.1354
185.000000 93.448 -18.2317
187.500000 93.394 -18.3232
190.000000 93.340 -18.4007
192.500000 93.287 -18.4649
195.000000 93.234 -18.5246
197.500000 93.180 -18.5767
200.000000 93.126 -18.6199
203.000000 93.063 -18.6617
206.000000 92.996 -18.6949
209.000000 92.925 -18.7271
212.000000 92.857 -18.7219
214.000000 92.812 -18.6890
218.000000 92.721 -18.6085
220.000000 92.676 -18.5652
224.000000 92.586 -18.4546
227.000000 92.520 -18.3512
230.000000 92.454 -18.2225
233.000000 92.391 -18.0657
236.000000 92.331 -17.8994
240.000000 92.252 -17.6683
243.000000 92.198 -17.4717
247.000000 92.131 -17.1926
250.000000 92.082 -16.9819
254.000000 92.021 -16.6906
258.000000 91.964 -16.3940
262.000000 91.910 -16.1096
265.000000 91.873 -15.9039
269.000000 91.827 -15.6294
272.000000 91.795 -15.4203
276.000000 91.755 -15.1417
280.000000 91.717 -14.8735
285.000000 91.672 -14.5509
290.000000 91.629 -14.2277
295.000000 91.587 -13.9124
300.000000 91.546 -13.5804
304.000000 91.513 -13.3184
307.000000 91.492 -13.1501
311.000000 91.467 -12.9341
315.000000 91.443 -12.7020
320.000000 91.413 -12.4107
325.000000 91.381 -12.1362
330.000000 91.350 -11.8666
335.000000 91.322 -11.6006
340.000000 91.294 -11.3268
345.000000 91.264 -11.0457
350.000000 91.234 -10.7729
355.000000 91.203 -10.4990
360.000000 91.172 -10.2196
365.000000 91.144 -9.9545
370.000000 91.117 -9.6982
375.000000 91.090 -9.4474
382.000000 91.053 -9.0984
387.000000 91.026 -8.8463
395.000000 90.982 -8.4526
400.000000 90.955 -8.2183
406.000000 90.924 -7.9110
412.000000 90.894 -7.5996
418.000000 90.863 -7.3000
425.000000 90.828 -6.9419
431.000000 90.796 -6.6356
437.000000 90.766 -6.3431
444.000000 90.733 -6.0023
450.000000 90.704 -5.7059
455.000000 90.680 -5.4576
462.000000 90.647 -5.1095
468.000000 90.619 -4.8058
475.000000 90.587 -4.4554
482.000000 90.556 -4.1077
487.000000 90.535 -3.8557
494.000000 90.508 -3.5105
500.000000 90.484 -3.2147
508.000000 90.451 -2.7921
515.000000 90.423 -2.4250
522.000000 90.397 -2.0758
530.000000 90.368 -1.6567
538.000000 90.339 -1.2298
545.000000 90.315 -0.8702
552.000000 90.293 -0.5053
560.000000 90.268 -0.0679
570.000000 90.238 0.4661
580.000000 90.210 1.0069
590.000000 90.184 1.5500
600.000000 90.154 2.1011
608.000000 90.128 2.5436
615.000000 90.108 2.9410
622.000000 90.090 3.3551
630.000000 90.069 3.8299
640.000000 90.042 4.4047
650.000000 90.017 4.9872
660.000000 89.994 5.5877
670.000000 89.969 6.1794
680.000000 89.948 6.7698
690.000000 89.930 7.3766
700.000000 89.913 7.9922
710.000000 89.901 8.6194
720.000000 89.890 9.2541
730.000000 89.879 9.8815
740.000000 89.871 10.5173
750.000000 89.866 11.1632
762.000000 89.861 11.9435
775.000000 89.858 12.7960
788.000000 89.858 13.6500
800.000000 89.861 14.4294
812.000000 89.869 15.2184
825.000000 89.881 16.0715
838.000000 89.898 16.9106
850.000000 89.915 17.6942
862.000000 89.937 18.4742
875.000000 89.964 19.2960
885.000000 89.985 19.9177
900.000000 90.023 20.8323
912.000000 90.059 21.5615
925.000000 90.100 22.3267
938.000000 90.143 23.0657
950.000000 90.184 23.7301
962.000000 90.229 24.3790
975.000000 90.281 25.0792
988.000000 90.340 25.7640
1000.000000 90.394 26.3594
1015.000000 90.452 27.0356
1030.000000 90.512 27.6744
1044.000000 90.572 28.2538
1060.000000 90.639 28.9057
1075.000000 90.700 29.4930
1090.000000 90.767 30.0376
1106.000000 90.846 30.5962
1120.000000 90.917 31.0674
1138.000000 91.007 31.6438
1150.000000 91.064 32.0218
1172.000000 91.167 32.7089
1180.000000 91.203 32.9572
1206.000000 91.317 33.7374
1220.000000 91.381 34.1385
1241.000000 91.477 34.7415
1250.000000 91.518 35.0072
1265.000000 91.585 35.4511
1280.000000 91.650 35.9016
1315.000000 91.799 36.9753
1320.000000 91.820 37.1291
1340.000000 91.898 37.7556
1360.000000 91.959 38.4118
1380.000000 92.020 39.0836
1400.000000 92.095 39.7583
1430.000000 92.221 40.7995
1450.000000 92.310 41.5034
1475.000000 92.427 42.3918
1500.000000 92.551 43.2793
1525.000000 92.681 44.1623
1550.000000 92.813 45.0373
1575.000000 92.950 45.8989
1600.000000 93.097 46.7387
1625.000000 93.250 47.5466
1650.000000 93.414 48.3311
1675.000000 93.588 49.0776
1700.000000 93.770 49.7695
1725.000000 93.957 50.4030
1750.000000 94.151 50.9572
1775.000000 94.353 51.4283
1800.000000 94.560 51.8146
1825.000000 94.770 52.1021
1850.000000 94.981 52.2919
1875.000000 95.193 52.3892
1900.000000 95.404 52.3880
1925.000000 95.610 52.2869
1950.000000 95.810 52.0833
1975.000000 96.006 51.7812
2000.000000 96.190 51.3740
2030.000000 96.387 50.7547
2060.000000 96.565 50.0498
2090.000000 96.725 49.2852
2120.000000 96.864 48.4695
2140.000000 96.943 47.9076
2180.000000 97.068 46.7823
2200.000000 97.115 46.2346
2240.000000 97.179 45.2111
2270.000000 97.207 44.5194
2300.000000 97.221 43.9037
2330.000000 97.225 43.3702
2360.000000 97.222 42.9153
2400.000000 97.213 42.4281
2430.000000 97.203 42.1447
2470.000000 97.188 41.8463
2500.000000 97.175 41.6798
2540.000000 97.156 41.5181
2580.000000 97.139 41.4242
2620.000000 97.125 41.3909
2650.000000 97.117 41.4001
2690.000000 97.113 41.4665
2720.000000 97.111 41.5525
2760.000000 97.114 41.6931
2800.000000 97.123 41.8497
2850.000000 97.148 42.0679
2900.000000 97.186 42.3077
2950.000000 97.238 42.5353
3000.000000 97.307 42.7091
3040.000000 97.371 42.7444
3070.000000 97.420 42.7078
3110.000000 97.485 42.5923
3150.000000 97.544 42.4143
3200.000000 97.609 42.1294
3250.000000 97.667 41.7853
3300.000000 97.720 41.3708
3350.000000 97.763 40.8633
3400.000000 97.793 40.2687
3450.000000 97.806 39.6219
3500.000000 97.802 38.9581
3550.000000 97.780 38.3086
3600.000000 97.738 37.7002
3650.000000 97.680 37.1492
3700.000000 97.605 36.6678
3750.000000 97.517 36.2710
3820.000000 97.372 35.8762
3870.000000 97.254 35.7215
3950.000000 97.051 35.7274
4000.000000 96.925 35.8873
4060.000000 96.787 36.2054
4120.000000 96.662 36.6153
4180.000000 96.551 37.0510
4250.000000 96.426 37.5458
4310.000000 96.311 37.9783
4370.000000 96.185 38.4655
4440.000000 96.029 39.1470
4500.000000 95.896 39.8433
4550.000000 95.790 40.5004
4620.000000 95.655 41.5282
4680.000000 95.554 42.4915
4750.000000 95.455 43.6959
4820.000000 95.378 44.9535
4870.000000 95.336 45.8641
4940.000000 95.292 47.1237
5000.000000 95.271 48.1842
5080.000000 95.269 49.5826
5150.000000 95.289 50.7569
5220.000000 95.330 51.8571
5300.000000 95.405 52.9749
5380.000000 95.501 53.8840
5450.000000 95.598 54.4795
5520.000000 95.700 54.8744
5600.000000 95.813 55.0887
5700.000000 95.928 55.0452
5800.000000 95.999 54.7366
5900.000000 96.022 54.3229
6000.000000 96.003 53.9126
6080.000000 95.968 53.6252
6150.000000 95.926 53.4131
6220.000000 95.876 53.2378
6300.000000 95.809 53.0884
6400.000000 95.710 52.9968
6500.000000 95.602 53.0274
6600.000000 95.497 53.1869
6700.000000 95.406 53.4368
6800.000000 95.340 53.6896
6900.000000 95.314 53.8569
7000.000000 95.318 53.8641
7100.000000 95.317 53.7153
7200.000000 95.301 53.5919
7300.000000 95.325 53.6225
7400.000000 95.439 53.1089
7500.000000 95.507 51.5749
7620.000000 95.469 49.4315
7750.000000 95.376 46.7926
7880.000000 95.082 43.3088
8000.000000 94.531 39.6904
8120.000000 93.671 36.5540
8250.000000 92.369 35.0757
8380.000000 90.736 38.6393
8500.000000 89.804 48.7258
8620.000000 90.298 55.3116
8750.000000 90.218 53.0461
8850.000000 89.465 52.7955
9000.000000 88.295 57.2905
9120.000000 87.643 62.7148
9250.000000 87.214 69.0687
9380.000000 87.022 75.3501
9500.000000 87.021 80.7869
9620.000000 87.159 85.6693
9750.000000 87.437 90.1485
9880.000000 87.811 93.6259
10000.000000 88.197 95.8304
10150.000000 88.663 97.1640
10300.000000 89.024 97.0433
10440.000000 89.203 95.9781
10600.000000 89.190 94.2893
10750.000000 88.985 92.8718
10900.000000 88.646 92.0300
11060.000000 88.201 91.9168
11200.000000 87.781 92.4199
11380.000000 87.222 93.7653
11500.000000 86.843 95.1465
11720.000000 86.222 98.8342
11800.000000 86.051 100.4066
12060.000000 85.707 105.2847
12200.000000 85.599 107.5161
12410.000000 85.462 110.3407
12500.000000 85.405 111.3871
12650.000000 85.308 112.9554
12800.000000 85.201 114.3442
13150.000000 84.906 117.1738
13200.000000 84.858 117.5587
13400.000000 84.663 119.0829
13600.000000 84.468 120.6085
13800.000000 84.298 122.1544
14000.000000 84.162 123.7037
14300.000000 84.038 126.0281
14500.000000 84.036 127.4583
14750.000000 84.165 128.8123
15000.000000 84.465 129.3599
15250.000000 84.975 128.5282
15500.000000 85.720 125.3124
15750.000000 86.550 118.3158
16000.000000 87.088 106.5988
16250.000000 86.944 91.3598
16500.000000 85.981 75.8945
16750.000000 84.379 62.5804
17000.000000 82.377 51.4642
17250.000000 80.045 42.1063
17500.000000 77.342 35.1314
17750.000000 74.284 31.5882
18000.000000 70.985 31.7737
18250.000000 67.573 35.1978
18500.000000 64.064 41.4945
18750.000000 60.317 52.2342
19000.000000 56.071 74.7344
19250.000000 51.808 119.8131
19500.000000 52.021 175.2377
19750.000000 55.735 -147.9128
20000.000000 59.137 -130.7310
20300.000000 62.794 -121.0931
20600.000000 66.329 -117.6781
20900.000000 69.331 -122.6537
21200.000000 71.171 -136.3347
21400.000000 71.646 -147.6027
21800.000000 71.102 -168.2316
22000.000000 70.313 177.4988
22400.000000 67.874 -66.4491
22700.000000 64.475 -137.5759
23000.000000 58.686 33.3911
23300.000000 50.837 95.0020
23600.000000 43.207 175.6387
24000.000000 40.128 -121.3086
