* Measurement data measured by REW V5.20.13
* Source: Headset (DS by VECLAN.COM), MICROPHONE (Master Volume), L, volume: 0.720. Timing signal peak level -17.8 dBFS, measurement signal peak level -14.8 dBFS
* Format: 4M Log Swept Sine, 1 sweep at -12.0 dBFS using an acoustic timing reference
* Dated: Dec 30, 2023 10:48:55 PM
* REW Settings:
*  C-weighting compensation: Off
*  Target level: 75.0 dB
* Note: ; Delay -0.0728 ms (-25 mm, -0.98 in) using estimated IR delay relative to Acoustic reference played from  R with no timing offset Clock adjustment: -0.1 ppm
* Measurement: Black Deep R
* Smoothing: 1/24 octave
* Frequency Step: 1/48 octave
* Start Frequency: 1.000 Hz
*
* Freq(Hz) SPL(dB) Phase(degrees)
1.000000 76.628 105.8159
1.015000 76.931 104.0015
1.030000 77.230 102.2870
1.044000 77.503 100.7849
1.060000 77.807 99.1936
1.075000 78.084 97.8324
1.090000 78.351 96.6068
1.106000 78.626 95.4607
1.120000 78.865 94.6065
1.138000 79.172 93.7014
1.150000 79.376 93.2099
1.172000 79.749 92.5201
1.180000 79.884 92.3315
1.206000 80.320 91.9207
1.220000 80.553 91.8128
1.241000 80.898 91.7751
1.250000 81.044 91.7979
1.265000 81.286 91.8792
1.280000 81.524 92.0049
1.315000 82.067 92.4080
1.320000 82.143 92.4721
1.340000 82.441 92.7285
1.360000 82.730 92.9649
1.380000 83.011 93.1549
1.400000 83.282 93.2723
1.430000 83.667 93.2544
1.450000 83.910 93.0747
1.475000 84.196 92.6308
1.500000 84.462 92.0550
1.525000 84.709 91.3913
1.550000 84.939 90.6544
1.575000 85.154 89.8589
1.600000 85.355 89.0196
1.625000 85.543 88.1510
1.650000 85.720 87.2677
1.675000 85.888 86.3845
1.700000 86.048 85.5159
1.725000 86.202 84.6767
1.750000 86.351 83.8813
1.775000 86.496 83.1446
1.800000 86.639 82.4811
1.825000 86.782 81.9055
1.850000 86.923 81.4221
1.875000 87.054 81.0091
1.900000 87.176 80.6571
1.925000 87.290 80.3578
1.950000 87.396 80.1026
1.975000 87.497 79.8831
2.000000 87.593 79.6907
2.030000 87.703 79.4836
2.060000 87.809 79.2887
2.090000 87.913 79.0913
2.120000 88.017 78.8768
2.140000 88.086 78.7170
2.180000 88.230 78.3375
2.200000 88.305 78.1093
2.240000 88.456 77.6114
2.270000 88.569 77.2180
2.300000 88.680 76.8102
2.330000 88.790 76.3908
2.360000 88.899 75.9624
2.400000 89.043 75.3818
2.430000 89.148 74.9427
2.470000 89.287 74.3574
2.500000 89.388 73.9219
2.540000 89.520 73.3509
2.580000 89.648 72.7938
2.620000 89.772 72.2314
2.650000 89.863 71.8051
2.690000 89.982 71.2346
2.720000 90.068 70.8077
2.760000 90.181 70.2438
2.800000 90.292 69.6900
2.850000 90.426 69.0195
2.900000 90.557 68.3817
2.950000 90.684 67.7869
3.000000 90.807 67.2447
3.040000 90.902 66.8411
3.070000 90.971 66.5507
3.110000 91.062 66.1738
3.150000 91.151 65.8013
3.200000 91.259 65.3299
3.250000 91.364 64.8378
3.300000 91.468 64.3095
3.350000 91.568 63.7362
3.400000 91.666 63.1292
3.450000 91.761 62.5041
3.500000 91.853 61.8761
3.550000 91.943 61.2606
3.600000 92.030 60.6730
3.650000 92.116 60.1286
3.700000 92.199 59.6393
3.750000 92.280 59.1971
3.820000 92.389 58.6320
3.870000 92.465 58.2490
3.950000 92.582 57.6349
4.000000 92.653 57.2298
4.060000 92.736 56.7029
4.120000 92.817 56.1404
4.180000 92.895 55.5592
4.250000 92.982 54.8785
4.310000 93.055 54.3109
4.370000 93.126 53.7745
4.440000 93.207 53.2043
4.500000 93.273 52.7541
4.550000 93.327 52.3979
4.620000 93.399 51.9161
4.680000 93.460 51.5076
4.750000 93.530 51.0218
4.820000 93.599 50.5190
4.870000 93.647 50.1562
4.940000 93.712 49.6483
5.000000 93.767 49.2171
5.080000 93.838 48.6555
5.150000 93.898 48.1828
5.220000 93.956 47.7250
5.300000 94.020 47.2166
5.380000 94.081 46.7217
5.450000 94.133 46.2979
5.520000 94.183 45.8815
5.600000 94.238 45.4159
5.700000 94.304 44.8501
5.800000 94.367 44.3021
5.900000 94.430 43.7721
6.000000 94.490 43.2623
6.080000 94.538 42.8668
6.150000 94.579 42.5279
6.220000 94.619 42.1941
6.300000 94.665 41.8209
6.400000 94.722 41.3685
6.500000 94.777 40.9243
6.600000 94.830 40.4802
6.700000 94.882 40.0330
6.800000 94.933 39.5875
6.900000 94.981 39.1492
7.000000 95.028 38.7227
7.100000 95.073 38.3076
7.200000 95.117 37.9009
7.300000 95.158 37.5003
7.400000 95.199 37.1039
7.500000 95.237 36.7125
7.620000 95.282 36.2526
7.750000 95.327 35.7704
7.880000 95.370 35.3037
8.000000 95.408 34.8865
8.120000 95.444 34.4826
8.250000 95.480 34.0595
8.380000 95.516 33.6529
8.500000 95.548 33.2938
8.620000 95.579 32.9509
8.750000 95.612 32.5916
8.850000 95.638 32.3218
9.000000 95.678 31.9323
9.120000 95.710 31.6233
9.250000 95.746 31.2837
9.380000 95.784 30.9434
9.500000 95.817 30.6231
9.620000 95.846 30.2926
9.750000 95.875 29.9258
9.880000 95.896 29.5565
10.000000 95.905 29.2110
10.150000 95.906 28.7771
10.300000 95.898 28.3691
10.440000 95.879 28.0117
10.600000 95.853 27.6328
10.750000 95.829 27.3156
10.900000 95.806 27.0280
11.060000 95.787 26.7361
11.200000 95.775 26.4969
11.380000 95.764 26.1919
11.500000 95.760 25.9891
11.720000 95.758 25.6027
11.800000 95.759 25.4509
12.060000 95.768 24.9218
12.200000 95.772 24.6038
12.410000 95.777 24.0956
12.500000 95.776 23.8795
12.650000 95.771 23.5131
12.800000 95.763 23.1631
13.150000 95.730 22.4674
13.200000 95.725 22.3845
13.400000 95.709 22.1013
13.600000 95.700 21.8710
13.800000 95.702 21.6937
14.000000 95.716 21.5115
14.300000 95.755 21.1958
14.500000 95.789 20.9088
14.750000 95.831 20.4630
15.000000 95.867 19.9274
15.250000 95.889 19.3518
15.500000 95.900 18.8075
15.750000 95.899 18.3341
16.000000 95.894 17.9772
16.250000 95.894 17.7095
16.500000 95.905 17.5015
16.750000 95.931 17.2991
17.000000 95.966 17.0437
17.250000 96.005 16.7213
17.500000 96.040 16.3197
17.750000 96.062 15.8759
18.000000 96.071 15.4227
18.250000 96.066 14.9971
18.500000 96.051 14.6429
18.750000 96.032 14.3656
19.000000 96.014 14.1700
19.250000 96.001 14.0339
19.500000 95.993 13.9379
19.750000 95.992 13.8663
20.000000 95.996 13.8008
20.299999 96.009 13.7153
20.600000 96.027 13.6040
20.900000 96.049 13.4476
21.200001 96.073 13.2279
21.400000 96.086 13.0443
21.799999 96.100 12.6113
22.000000 96.099 12.3822
22.400000 96.083 11.9546
22.700001 96.063 11.7004
23.000000 96.044 11.5190
23.299999 96.032 11.3902
23.600000 96.030 11.2812
24.000000 96.043 11.1100
24.299999 96.062 10.9291
24.700001 96.090 10.6037
25.000000 96.109 10.3053
25.400000 96.128 9.8627
25.799999 96.136 9.4170
26.200001 96.136 9.0259
26.500000 96.134 8.7925
26.900000 96.139 8.5577
27.200001 96.150 8.4071
27.600000 96.176 8.1790
28.000000 96.202 7.8771
28.500000 96.217 7.4598
29.000000 96.215 7.1880
29.500000 96.227 7.1322
30.000000 96.278 7.0756
30.400000 96.334 6.8259
30.700001 96.367 6.4844
31.100000 96.380 5.9174
31.500000 96.353 5.3942
32.000000 96.289 5.0283
32.500000 96.235 4.9877
33.000000 96.218 5.0345
33.500000 96.224 4.9669
34.000000 96.229 4.7709
34.500000 96.226 4.5432
35.000000 96.224 4.3306
35.500000 96.226 4.1088
36.000000 96.228 3.8594
36.500000 96.228 3.6036
37.000000 96.226 3.3612
37.500000 96.226 3.1244
38.200001 96.227 2.7864
38.700001 96.226 2.5509
39.500000 96.223 2.2053
40.000000 96.223 2.0025
40.599998 96.223 1.7640
41.200001 96.221 1.5286
41.799999 96.219 1.2957
42.500000 96.215 1.0276
43.099998 96.211 0.8046
43.700001 96.208 0.5907
44.400002 96.205 0.3479
45.000000 96.204 0.1345
45.500000 96.204 -0.0519
46.200001 96.201 -0.3181
46.799999 96.197 -0.5369
47.500000 96.192 -0.7774
48.200001 96.190 -1.0140
48.700001 96.188 -1.1843
49.400002 96.184 -1.4222
50.000000 96.180 -1.6252
50.799999 96.175 -1.8956
51.500000 96.168 -2.1229
52.200001 96.162 -2.3345
53.000000 96.156 -2.5723
53.799999 96.150 -2.8119
54.500000 96.142 -3.0111
55.200001 96.133 -3.2021
56.000000 96.122 -3.4146
57.000000 96.111 -3.6769
58.000000 96.095 -3.9796
59.000000 96.066 -4.2438
60.000000 96.047 -4.4052
60.799999 96.050 -4.5924
61.500000 96.053 -4.8262
62.200001 96.047 -5.0714
63.000000 96.034 -5.3161
64.000000 96.017 -5.5629
65.000000 96.004 -5.7764
66.000000 95.990 -5.9817
67.000000 95.974 -6.1761
68.000000 95.953 -6.3821
69.000000 95.922 -6.5764
70.000000 95.895 -6.6808
71.000000 95.890 -6.8315
72.000000 95.884 -7.1337
73.000000 95.865 -7.4282
74.000000 95.845 -7.6632
75.000000 95.826 -7.8763
76.199997 95.804 -8.0972
77.500000 95.783 -8.3220
78.800003 95.761 -8.5536
80.000000 95.737 -8.7714
81.199997 95.712 -8.9767
82.500000 95.686 -9.1860
83.800003 95.661 -9.3998
85.000000 95.638 -9.5840
86.199997 95.617 -9.7620
87.500000 95.595 -9.9622
88.500000 95.576 -10.1130
90.000000 95.547 -10.3281
91.199997 95.525 -10.4907
92.500000 95.502 -10.6645
93.800003 95.479 -10.8269
95.000000 95.457 -10.9650
96.199997 95.433 -11.1011
97.500000 95.407 -11.2318
98.800003 95.382 -11.3529
100.000000 95.360 -11.4880
101.500000 95.332 -11.6816
103.000000 95.303 -11.8798
104.400002 95.273 -12.0496
106.000000 95.235 -12.2128
107.500000 95.202 -12.3419
109.000000 95.172 -12.4849
110.599998 95.139 -12.6554
112.000000 95.109 -12.7977
113.800003 95.071 -12.9437
115.000000 95.047 -13.0331
117.199997 94.999 -13.2166
118.000000 94.979 -13.2781
120.599998 94.923 -13.4346
122.000000 94.899 -13.5344
124.099998 94.862 -13.7049
125.000000 94.846 -13.7769
126.500000 94.816 -13.8838
128.000000 94.787 -13.9689
131.500000 94.727 -14.1381
132.000000 94.719 -14.1639
134.000000 94.688 -14.2736
136.000000 94.656 -14.3736
138.000000 94.626 -14.4603
140.000000 94.596 -14.5629
143.000000 94.554 -14.7102
145.000000 94.526 -14.8002
147.500000 94.490 -14.9012
150.000000 94.455 -14.9910
152.500000 94.418 -15.0898
155.000000 94.378 -15.1933
157.500000 94.338 -15.2815
160.000000 94.298 -15.3649
162.500000 94.259 -15.4359
165.000000 94.220 -15.5023
167.500000 94.178 -15.5645
170.000000 94.134 -15.6099
172.500000 94.091 -15.6509
175.000000 94.050 -15.6935
177.500000 94.009 -15.7242
180.000000 93.969 -15.7561
182.500000 93.929 -15.7953
185.000000 93.889 -15.8341
187.500000 93.851 -15.8708
190.000000 93.815 -15.8949
192.500000 93.782 -15.9117
195.000000 93.751 -15.9355
197.500000 93.721 -15.9683
200.000000 93.692 -16.0142
203.000000 93.660 -16.0986
206.000000 93.626 -16.2216
209.000000 93.586 -16.3789
212.000000 93.545 -16.5346
214.000000 93.516 -16.6320
218.000000 93.448 -16.8451
220.000000 93.409 -16.9532
224.000000 93.325 -17.1474
227.000000 93.257 -17.2713
230.000000 93.185 -17.3597
233.000000 93.112 -17.4020
236.000000 93.040 -17.4143
240.000000 92.940 -17.3971
243.000000 92.862 -17.3348
247.000000 92.761 -17.1923
250.000000 92.688 -17.0584
254.000000 92.593 -16.8370
258.000000 92.502 -16.5758
262.000000 92.418 -16.2867
265.000000 92.358 -16.0539
269.000000 92.285 -15.7200
272.000000 92.236 -15.4565
276.000000 92.175 -15.0970
280.000000 92.121 -14.7343
285.000000 92.059 -14.2871
290.000000 92.003 -13.8333
295.000000 91.955 -13.3815
300.000000 91.911 -12.9168
304.000000 91.874 -12.5690
307.000000 91.850 -12.3384
311.000000 91.823 -12.0405
315.000000 91.799 -11.7336
320.000000 91.771 -11.3536
325.000000 91.740 -10.9919
330.000000 91.711 -10.6389
335.000000 91.685 -10.2964
340.000000 91.660 -9.9488
345.000000 91.633 -9.5918
350.000000 91.607 -9.2446
355.000000 91.583 -8.8970
360.000000 91.560 -8.5439
365.000000 91.541 -8.2106
370.000000 91.525 -7.8945
375.000000 91.510 -7.5948
382.000000 91.492 -7.2037
387.000000 91.478 -6.9442
395.000000 91.453 -6.5677
400.000000 91.436 -6.3553
406.000000 91.413 -6.0806
412.000000 91.389 -5.8020
418.000000 91.363 -5.5333
425.000000 91.331 -5.2099
431.000000 91.302 -4.9291
437.000000 91.273 -4.6582
444.000000 91.241 -4.3398
450.000000 91.213 -4.0580
455.000000 91.189 -3.8171
462.000000 91.157 -3.4758
468.000000 91.129 -3.1747
475.000000 91.097 -2.8214
482.000000 91.067 -2.4703
487.000000 91.047 -2.2178
494.000000 91.021 -1.8663
500.000000 91.000 -1.5621
508.000000 90.971 -1.1453
515.000000 90.944 -0.7745
522.000000 90.918 -0.3976
530.000000 90.891 0.0349
538.000000 90.865 0.4574
545.000000 90.844 0.8309
552.000000 90.823 1.2201
560.000000 90.800 1.6691
570.000000 90.773 2.2141
580.000000 90.745 2.7772
590.000000 90.718 3.3546
600.000000 90.690 3.9282
608.000000 90.667 4.3903
615.000000 90.649 4.8125
622.000000 90.632 5.2478
630.000000 90.613 5.7421
640.000000 90.588 6.3395
650.000000 90.561 6.9497
660.000000 90.535 7.5847
670.000000 90.510 8.2032
680.000000 90.490 8.8284
690.000000 90.472 9.4706
700.000000 90.457 10.1174
710.000000 90.447 10.7741
720.000000 90.438 11.4396
730.000000 90.429 12.1002
740.000000 90.423 12.7665
750.000000 90.422 13.4410
762.000000 90.424 14.2496
775.000000 90.425 15.1377
788.000000 90.427 16.0417
800.000000 90.438 16.8460
812.000000 90.452 17.6644
825.000000 90.468 18.5711
838.000000 90.489 19.4398
850.000000 90.511 20.2612
862.000000 90.538 21.0696
875.000000 90.571 21.9346
885.000000 90.596 22.5895
900.000000 90.643 23.5446
912.000000 90.686 24.3144
925.000000 90.735 25.1229
938.000000 90.785 25.9041
950.000000 90.835 26.6049
962.000000 90.887 27.2894
975.000000 90.946 28.0280
988.000000 91.012 28.7520
1000.000000 91.072 29.3848
1015.000000 91.136 30.1004
1030.000000 91.203 30.7722
1044.000000 91.270 31.3828
1060.000000 91.350 32.0585
1075.000000 91.423 32.6641
1090.000000 91.499 33.2266
1106.000000 91.589 33.7927
1120.000000 91.670 34.2678
1138.000000 91.773 34.8416
1150.000000 91.840 35.2155
1172.000000 91.958 35.8866
1180.000000 91.999 36.1258
1206.000000 92.132 36.8768
1220.000000 92.205 37.2611
1241.000000 92.314 37.8391
1250.000000 92.361 38.0935
1265.000000 92.437 38.5151
1280.000000 92.512 38.9401
1315.000000 92.681 39.9455
1320.000000 92.704 40.0885
1340.000000 92.792 40.6714
1360.000000 92.863 41.2775
1380.000000 92.934 41.8945
1400.000000 93.018 42.5141
1430.000000 93.156 43.4640
1450.000000 93.253 44.1069
1475.000000 93.380 44.9261
1500.000000 93.513 45.7509
1525.000000 93.650 46.5668
1550.000000 93.789 47.3752
1575.000000 93.933 48.1749
1600.000000 94.085 48.9537
1625.000000 94.245 49.7021
1650.000000 94.415 50.4254
1675.000000 94.595 51.1045
1700.000000 94.782 51.7270
1725.000000 94.974 52.2950
1750.000000 95.173 52.7925
1775.000000 95.379 53.2151
1800.000000 95.588 53.5523
1825.000000 95.801 53.7878
1850.000000 96.015 53.9218
1875.000000 96.228 53.9581
1900.000000 96.439 53.8891
1925.000000 96.645 53.7153
1950.000000 96.845 53.4368
1975.000000 97.038 53.0631
2000.000000 97.220 52.5900
2030.000000 97.412 51.8911
2060.000000 97.584 51.1102
2090.000000 97.736 50.2803
2120.000000 97.864 49.4084
2140.000000 97.935 48.8146
2180.000000 98.044 47.6454
2200.000000 98.082 47.0918
2240.000000 98.131 46.0932
2270.000000 98.151 45.4457
2300.000000 98.162 44.8859
2330.000000 98.167 44.4100
2360.000000 98.169 43.9996
2400.000000 98.171 43.5357
2430.000000 98.168 43.2378
2470.000000 98.159 42.8975
2500.000000 98.148 42.6998
2540.000000 98.129 42.5105
2580.000000 98.111 42.4070
2620.000000 98.098 42.3807
2650.000000 98.092 42.4044
2690.000000 98.091 42.4920
2720.000000 98.094 42.5904
2760.000000 98.104 42.7379
2800.000000 98.123 42.8886
2850.000000 98.160 43.0685
2900.000000 98.210 43.2175
2950.000000 98.267 43.3285
3000.000000 98.332 43.4001
3040.000000 98.388 43.3874
3070.000000 98.432 43.3441
3110.000000 98.491 43.2585
3150.000000 98.551 43.1354
3200.000000 98.622 42.9120
3250.000000 98.689 42.6029
3300.000000 98.749 42.2209
3350.000000 98.801 41.7734
3400.000000 98.844 41.2689
3450.000000 98.880 40.7188
3500.000000 98.907 40.1323
3550.000000 98.921 39.5191
3600.000000 98.922 38.8934
3650.000000 98.907 38.2681
3700.000000 98.879 37.6586
3750.000000 98.837 37.0868
3820.000000 98.755 36.3688
3870.000000 98.682 35.9199
3950.000000 98.542 35.3561
4000.000000 98.446 35.1010
4060.000000 98.331 34.8780
4120.000000 98.215 34.7440
4180.000000 98.100 34.6792
4250.000000 97.968 34.6643
4310.000000 97.851 34.6866
4370.000000 97.728 34.7508
4440.000000 97.579 34.8942
4500.000000 97.452 35.0669
4550.000000 97.348 35.2361
4620.000000 97.207 35.5062
4680.000000 97.090 35.7582
4750.000000 96.955 36.0670
4820.000000 96.821 36.3908
4870.000000 96.724 36.6441
4940.000000 96.589 37.0277
5000.000000 96.477 37.3790
5080.000000 96.336 37.8664
5150.000000 96.218 38.2504
5220.000000 96.098 38.5673
5300.000000 95.957 38.8424
5380.000000 95.801 39.0506
5450.000000 95.649 39.2239
5520.000000 95.480 39.4316
5600.000000 95.268 39.7625
5700.000000 94.981 40.3972
5800.000000 94.689 41.3169
5900.000000 94.410 42.4961
6000.000000 94.157 43.8375
6080.000000 93.974 44.9607
6150.000000 93.826 45.9497
6220.000000 93.686 46.9297
6300.000000 93.530 48.0395
6400.000000 93.335 49.4413
6500.000000 93.141 50.8899
6600.000000 92.948 52.4315
6700.000000 92.761 54.1121
6800.000000 92.594 55.9540
6900.000000 92.468 57.9574
7000.000000 92.390 60.0817
7100.000000 92.347 62.2614
7200.000000 92.328 64.4431
7300.000000 92.329 66.6011
7400.000000 92.359 68.7679
7500.000000 92.434 70.8657
7620.000000 92.579 73.0598
7750.000000 92.772 74.8884
7880.000000 92.891 76.0591
8000.000000 92.918 76.5441
8120.000000 92.853 76.5905
8250.000000 92.651 76.5302
8380.000000 92.291 77.0222
8500.000000 91.819 78.9811
8620.000000 91.413 83.9202
8750.000000 91.755 90.9573
8850.000000 92.363 92.5363
9000.000000 92.586 90.3053
9120.000000 92.391 90.1203
9250.000000 92.243 91.5775
9380.000000 92.237 93.4303
9500.000000 92.331 94.8934
9620.000000 92.490 95.8338
9750.000000 92.699 96.0750
9880.000000 92.904 95.4306
10000.000000 93.048 94.0824
10150.000000 93.113 91.5706
10300.000000 93.027 88.5016
10440.000000 92.812 85.5305
10600.000000 92.428 82.3970
10750.000000 91.966 79.8836
10900.000000 91.437 77.7736
11060.000000 90.817 75.8815
11200.000000 90.221 74.5618
11380.000000 89.379 73.7199
11500.000000 88.817 73.8292
11720.000000 87.923 74.5970
11800.000000 87.638 74.7663
12060.000000 86.708 74.5597
12200.000000 86.149 74.1663
12410.000000 85.192 73.5743
12500.000000 84.737 73.4017
12650.000000 83.923 73.3272
12800.000000 83.043 73.6274
13150.000000 80.793 76.4548
13200.000000 80.458 77.1596
13400.000000 79.118 80.8272
13600.000000 77.836 85.8474
13800.000000 76.699 92.0736
14000.000000 75.778 99.1721
14300.000000 74.869 110.4198
14500.000000 74.571 117.6287
14750.000000 74.485 125.6460
15000.000000 74.624 132.0982
15250.000000 74.907 136.6827
15500.000000 75.288 139.2604
15750.000000 75.707 139.9553
16000.000000 76.096 139.1016
16250.000000 76.444 136.9846
16500.000000 76.769 133.6904
16750.000000 77.093 129.0965
17000.000000 77.412 122.7914
17250.000000 77.652 114.2239
17500.000000 77.663 103.0849
17750.000000 77.255 89.8419
18000.000000 76.296 75.9419
18250.000000 74.762 63.1255
18500.000000 72.691 52.6390
18750.000000 70.093 45.5292
19000.000000 66.896 44.4199
19250.000000 62.988 56.1018
19500.000000 59.007 86.3841
19750.000000 58.282 122.3429
20000.000000 60.305 144.0883
20300.000000 62.243 152.1522
20600.000000 63.178 153.2525
20900.000000 63.658 154.0580
21200.000000 64.150 156.1407
21400.000000 64.518 158.1054
21800.000000 65.346 161.1227
22000.000000 65.755 156.1785
22400.000000 65.824 -49.5721
22700.000000 63.694 -10.4375
23000.000000 58.565 -124.1748
23300.000000 51.036 174.7344
23600.000000 43.415 -95.5176
24000.000000 39.837 -59.6367
