* Measurement data measured by REW V5.20.13
* Source: Headset (DS by VECLAN.COM), MICROPHONE (Master Volume), L, volume: 0.970. Timing signal peak level -13.2 dBFS, measurement signal peak level -11.1 dBFS
* Format: 2M Log Swept Sine, 1 sweep at -12.0 dBFS using an acoustic timing reference
* Dated: Oct 14, 2023 3:02:22 PM
* REW Settings:
*  C-weighting compensation: Off
*  Target level: 75.0 dB
* Note: ; Delay 0.0187 ms (6.4 mm, 0.25 in) using estimated IR delay relative to Acoustic reference played from HEADPHONE L with no timing offset
* Measurement: Aful P8 L
* Smoothing: 1/24 octave
* Frequency Step: 1/48 octave
* Start Frequency: 1.000 Hz
*
* Freq(Hz) SPL(dB) Phase(degrees)
1.000000 81.044 17.2924
1.015000 81.280 15.4519
1.030000 81.510 13.6573
1.044000 81.717 12.0292
1.060000 81.945 10.2304
1.075000 82.149 8.6105
1.090000 82.342 7.0612
1.106000 82.536 5.4901
1.120000 82.701 4.1690
1.138000 82.906 2.5351
1.150000 83.040 1.4839
1.172000 83.278 -0.3704
1.180000 83.362 -1.0228
1.206000 83.628 -3.0699
1.220000 83.767 -4.1300
1.241000 83.968 -5.6716
1.250000 84.052 -6.3162
1.265000 84.189 -7.3717
1.280000 84.323 -8.4062
1.315000 84.622 -10.7558
1.320000 84.664 -11.0858
1.340000 84.826 -12.3962
1.360000 84.982 -13.6967
1.380000 85.133 -14.9947
1.400000 85.280 -16.2974
1.430000 85.491 -18.2765
1.450000 85.627 -19.6232
1.475000 85.790 -21.3470
1.500000 85.940 -23.0953
1.525000 86.077 -24.8554
1.550000 86.203 -26.6199
1.575000 86.318 -28.3816
1.600000 86.424 -30.1329
1.625000 86.523 -31.8665
1.650000 86.615 -33.5751
1.675000 86.703 -35.2513
1.700000 86.787 -36.8876
1.725000 86.870 -38.4768
1.750000 86.952 -40.0114
1.775000 87.035 -41.4840
1.800000 87.120 -42.8874
1.825000 87.209 -44.2140
1.850000 87.301 -45.4574
1.875000 87.390 -46.6194
1.900000 87.476 -47.7078
1.925000 87.561 -48.7302
1.950000 87.643 -49.6941
1.975000 87.724 -50.6073
2.000000 87.804 -51.4772
2.030000 87.899 -52.4750
2.060000 87.994 -53.4348
2.090000 88.088 -54.3697
2.120000 88.184 -55.2931
2.140000 88.248 -55.9087
2.180000 88.378 -57.1577
2.200000 88.445 -57.7986
2.240000 88.580 -59.0735
2.270000 88.683 -60.0089
2.300000 88.786 -60.9262
2.330000 88.890 -61.8255
2.360000 88.995 -62.7066
2.400000 89.134 -63.8530
2.430000 89.238 -64.6915
2.470000 89.375 -65.7807
2.500000 89.477 -66.5761
2.540000 89.611 -67.6076
2.580000 89.743 -68.6046
2.620000 89.872 -69.5582
2.650000 89.968 -70.2462
2.690000 90.095 -71.1311
2.720000 90.189 -71.7735
2.760000 90.314 -72.6053
2.800000 90.438 -73.4139
2.850000 90.593 -74.3995
2.900000 90.747 -75.3664
2.950000 90.902 -76.3200
3.000000 91.057 -77.2298
3.040000 91.181 -77.9277
3.070000 91.273 -78.4381
3.110000 91.396 -79.1066
3.150000 91.518 -79.7677
3.200000 91.670 -80.5938
3.250000 91.821 -81.4318
3.300000 91.970 -82.2950
3.350000 92.117 -83.1815
3.400000 92.265 -84.0803
3.450000 92.411 -84.9861
3.500000 92.555 -85.8936
3.550000 92.698 -86.7975
3.600000 92.838 -87.6926
3.650000 92.975 -88.5734
3.700000 93.109 -89.4345
3.750000 93.241 -90.2760
3.820000 93.422 -91.4344
3.870000 93.548 -92.2574
3.950000 93.743 -93.5860
4.000000 93.860 -94.4347
4.060000 93.996 -95.4835
4.120000 94.127 -96.5660
4.180000 94.254 -97.6691
4.250000 94.395 -98.9634
4.310000 94.511 -100.0629
4.370000 94.621 -101.1385
4.440000 94.742 -102.3530
4.500000 94.840 -103.3743
4.550000 94.917 -104.2136
4.620000 95.019 -105.3717
4.680000 95.101 -106.3499
4.750000 95.191 -107.4756
4.820000 95.276 -108.5909
4.870000 95.331 -109.3832
4.940000 95.404 -110.4781
5.000000 95.461 -111.3958
5.080000 95.534 -112.5770
5.150000 95.594 -113.5601
5.220000 95.649 -114.4998
5.300000 95.706 -115.5274
5.380000 95.759 -116.5099
5.450000 95.804 -117.3359
5.520000 95.849 -118.1325
5.600000 95.899 -118.9980
5.700000 95.958 -120.0205
5.800000 96.017 -120.9935
5.900000 96.079 -121.9304
6.000000 96.143 -122.8140
6.080000 96.195 -123.4920
6.150000 96.242 -124.0746
6.220000 96.289 -124.6557
6.300000 96.346 -125.3135
6.400000 96.419 -126.1161
6.500000 96.494 -126.9148
6.600000 96.567 -127.7292
6.700000 96.641 -128.5622
6.800000 96.715 -129.4054
6.900000 96.786 -130.2560
7.000000 96.852 -131.1126
7.100000 96.915 -131.9814
7.200000 96.973 -132.8545
7.300000 97.027 -133.7206
7.400000 97.075 -134.5778
7.500000 97.117 -135.4340
7.620000 97.161 -136.4396
7.750000 97.201 -137.4772
7.880000 97.233 -138.4706
8.000000 97.257 -139.3427
8.120000 97.280 -140.1622
8.250000 97.300 -140.9920
8.380000 97.320 -141.7710
8.500000 97.340 -142.4485
8.620000 97.360 -143.0809
8.750000 97.383 -143.7344
8.850000 97.403 -144.2248
9.000000 97.435 -144.9292
9.120000 97.463 -145.4784
9.250000 97.495 -146.0698
9.380000 97.529 -146.6520
9.500000 97.558 -147.1819
9.620000 97.585 -147.7072
9.750000 97.611 -148.2695
9.880000 97.632 -148.8167
10.000000 97.643 -149.3064
10.150000 97.649 -149.8991
10.300000 97.651 -150.4591
10.440000 97.648 -150.9456
10.600000 97.646 -151.4834
10.750000 97.653 -151.9780
10.900000 97.664 -152.4687
11.060000 97.684 -153.0362
11.200000 97.709 -153.5643
11.380000 97.741 -154.3073
11.500000 97.762 -154.8509
11.720000 97.797 -155.9290
11.800000 97.807 -156.3475
12.060000 97.825 -157.7860
12.200000 97.823 -158.5794
12.410000 97.803 -159.7777
12.500000 97.789 -160.2641
12.650000 97.755 -161.0524
12.800000 97.713 -161.7840
13.150000 97.597 -163.1997
13.200000 97.581 -163.3710
13.400000 97.518 -163.9682
13.600000 97.466 -164.4771
13.800000 97.427 -164.9075
14.000000 97.402 -165.3289
14.300000 97.386 -165.9811
14.500000 97.383 -166.4749
14.750000 97.381 -167.1553
15.000000 97.376 -167.8997
15.250000 97.364 -168.6692
15.500000 97.344 -169.4124
15.750000 97.316 -170.0993
16.000000 97.285 -170.6946
16.250000 97.258 -171.2039
16.500000 97.240 -171.6396
16.750000 97.236 -172.0254
17.000000 97.249 -172.4124
17.250000 97.278 -172.8336
17.500000 97.319 -173.3303
17.750000 97.366 -173.9395
18.000000 97.410 -174.6651
18.250000 97.445 -175.5108
18.500000 97.462 -176.4345
18.750000 97.456 -177.3833
19.000000 97.426 -178.3063
19.250000 97.375 -179.1135
19.500000 97.310 -179.7617
19.750000 97.240 179.7801
20.000000 97.180 179.5136
20.299999 97.133 179.3625
20.600000 97.123 179.2822
20.900000 97.148 179.1367
21.200001 97.193 178.8132
21.400000 97.223 178.4813
21.799999 97.265 177.6015
22.000000 97.270 177.1053
22.400000 97.248 176.1400
22.700001 97.212 175.5263
23.000000 97.173 175.0368
23.299999 97.142 174.6297
23.600000 97.123 174.2448
24.000000 97.112 173.6750
24.299999 97.105 173.1722
24.700001 97.085 172.4308
25.000000 97.059 171.8783
25.400000 97.013 171.2187
25.799999 96.969 170.6749
26.200001 96.939 170.2017
26.500000 96.928 169.8422
26.900000 96.925 169.3026
27.200001 96.926 168.8344
27.600000 96.924 168.1327
28.000000 96.908 167.3849
28.500000 96.867 166.4865
29.000000 96.810 165.7567
29.500000 96.758 165.2558
30.000000 96.738 164.8899
30.400000 96.746 164.5508
30.700001 96.759 164.2073
31.100000 96.771 163.6210
31.500000 96.763 162.9562
32.000000 96.723 162.1823
32.500000 96.669 161.5844
33.000000 96.623 161.1113
33.500000 96.588 160.6521
34.000000 96.554 160.1798
34.500000 96.521 159.7369
35.000000 96.497 159.3120
35.500000 96.482 158.8220
36.000000 96.464 158.2307
36.500000 96.431 157.6072
37.000000 96.389 157.0389
37.500000 96.352 156.5196
38.200001 96.308 155.7533
38.700001 96.269 155.1762
39.500000 96.198 154.3732
40.000000 96.162 153.9447
40.599998 96.131 153.4091
41.200001 96.100 152.8191
41.799999 96.061 152.2345
42.500000 96.014 151.6049
43.099998 95.977 151.0698
43.700001 95.935 150.5122
44.400002 95.873 149.9006
45.000000 95.817 149.4756
45.500000 95.781 149.1487
46.200001 95.744 148.5778
46.799999 95.702 147.9533
47.500000 95.625 147.2753
48.200001 95.552 146.7919
48.700001 95.519 146.4827
49.400002 95.492 145.9332
50.000000 95.464 145.3633
50.799999 95.409 144.6743
51.500000 95.366 144.2515
52.200001 95.350 143.8807
53.000000 95.340 143.3230
53.799999 95.301 142.7372
54.500000 95.253 142.4172
55.200001 95.227 142.2056
56.000000 95.223 141.7681
57.000000 95.181 140.7694
58.000000 95.051 139.7594
59.000000 94.896 139.2025
60.000000 94.798 138.9053
60.799999 94.762 138.5643
61.500000 94.740 138.1562
62.200001 94.716 137.7192
63.000000 94.687 137.2505
64.000000 94.652 136.7114
65.000000 94.607 136.2214
66.000000 94.552 135.8131
67.000000 94.496 135.4416
68.000000 94.441 135.0299
69.000000 94.388 134.5320
70.000000 94.337 133.9227
71.000000 94.284 133.2591
72.000000 94.237 132.5681
73.000000 94.188 131.8264
74.000000 94.125 131.1219
75.000000 94.049 130.4868
76.199997 93.932 129.9103
77.500000 93.827 129.6541
78.800003 93.775 129.2261
80.000000 93.723 128.6224
81.199997 93.664 128.0280
82.500000 93.613 127.4469
83.800003 93.557 126.8553
85.000000 93.504 126.4302
86.199997 93.454 125.9777
87.500000 93.396 125.5014
88.500000 93.358 125.0745
90.000000 93.282 124.3726
91.199997 93.212 123.9628
92.500000 93.158 123.6554
93.800003 93.109 123.2440
95.000000 93.053 122.8537
96.199997 92.990 122.3029
97.500000 92.886 121.7291
98.800003 92.823 121.2888
100.000000 92.794 120.5794
101.500000 92.713 119.5937
103.000000 92.605 119.1772
104.400002 92.567 119.1084
106.000000 92.550 118.7308
107.500000 92.511 118.2095
109.000000 92.446 117.6986
110.599998 92.375 117.3277
112.000000 92.314 117.0445
113.800003 92.215 116.8044
115.000000 92.158 116.6879
117.199997 92.084 116.0620
118.000000 92.053 115.7077
120.599998 91.961 114.5848
122.000000 91.918 114.0085
124.099998 91.850 113.2821
125.000000 91.823 112.9978
126.500000 91.775 112.5250
128.000000 91.721 112.1707
131.500000 91.607 111.5575
132.000000 91.588 111.4640
134.000000 91.512 110.9898
136.000000 91.451 110.4232
138.000000 91.423 109.8027
140.000000 91.390 109.2390
143.000000 91.298 108.5077
145.000000 91.219 108.0210
147.500000 91.160 107.5087
150.000000 91.118 106.9700
152.500000 91.026 106.3225
155.000000 90.926 105.7376
157.500000 90.906 105.1549
160.000000 90.909 104.5897
162.500000 90.869 104.1151
165.000000 90.795 103.5469
167.500000 90.714 102.8787
170.000000 90.652 102.2825
172.500000 90.615 101.7026
175.000000 90.579 101.1277
177.500000 90.542 100.7341
180.000000 90.508 100.5417
182.500000 90.457 100.2687
185.000000 90.376 99.8600
187.500000 90.313 99.3370
190.000000 90.271 98.7553
192.500000 90.225 98.3317
195.000000 90.183 98.0000
197.500000 90.150 97.5388
200.000000 90.118 96.9857
203.000000 90.070 96.3828
206.000000 90.005 95.9270
209.000000 89.953 95.6014
212.000000 89.920 95.2253
214.000000 89.897 94.8859
218.000000 89.850 94.1559
220.000000 89.826 93.8050
224.000000 89.779 93.1861
227.000000 89.747 92.8193
230.000000 89.709 92.6179
233.000000 89.683 92.2484
236.000000 89.663 91.5481
240.000000 89.627 90.6765
243.000000 89.590 90.2939
247.000000 89.564 89.8294
250.000000 89.545 89.3802
254.000000 89.500 88.7112
258.000000 89.454 88.1030
262.000000 89.424 87.6385
265.000000 89.406 87.3012
269.000000 89.374 86.8434
272.000000 89.352 86.4613
276.000000 89.334 85.9080
280.000000 89.314 85.4753
285.000000 89.302 85.0421
290.000000 89.297 84.4846
295.000000 89.280 83.7801
300.000000 89.249 83.1369
304.000000 89.233 82.6748
307.000000 89.214 82.2947
311.000000 89.180 81.8433
315.000000 89.159 81.4218
320.000000 89.143 80.9361
325.000000 89.148 80.4673
330.000000 89.170 79.9473
335.000000 89.179 79.5932
340.000000 89.160 79.1354
345.000000 89.137 78.5858
350.000000 89.131 78.0917
355.000000 89.130 77.6142
360.000000 89.132 77.1822
365.000000 89.130 76.8034
370.000000 89.133 76.4093
375.000000 89.137 76.0038
382.000000 89.131 75.4294
387.000000 89.131 75.0794
395.000000 89.134 74.4921
400.000000 89.143 74.0660
406.000000 89.163 73.5922
412.000000 89.183 73.2468
418.000000 89.201 72.9728
425.000000 89.221 72.5803
431.000000 89.225 72.0816
437.000000 89.238 71.6495
444.000000 89.270 71.1619
450.000000 89.294 70.7211
455.000000 89.310 70.3892
462.000000 89.342 69.9132
468.000000 89.365 69.5242
475.000000 89.376 69.1218
482.000000 89.397 68.6977
487.000000 89.423 68.3627
494.000000 89.463 67.9237
500.000000 89.492 67.5970
508.000000 89.527 67.1366
515.000000 89.560 66.7435
522.000000 89.594 66.3422
530.000000 89.650 65.8812
538.000000 89.694 65.4025
545.000000 89.729 64.9837
552.000000 89.776 64.5879
560.000000 89.840 64.1197
570.000000 89.940 63.4496
580.000000 90.033 62.8054
590.000000 90.069 62.2871
600.000000 90.115 61.7380
608.000000 90.157 61.2912
615.000000 90.194 60.8846
622.000000 90.240 60.4914
630.000000 90.297 60.0160
640.000000 90.362 59.3402
650.000000 90.423 58.6849
660.000000 90.472 58.1186
670.000000 90.514 57.5134
680.000000 90.554 56.8912
690.000000 90.599 56.2631
700.000000 90.644 55.6215
710.000000 90.685 54.9790
720.000000 90.721 54.3510
730.000000 90.754 53.7353
740.000000 90.783 53.1473
750.000000 90.812 52.5650
762.000000 90.850 51.9290
775.000000 90.881 51.3072
788.000000 90.897 50.6198
800.000000 90.909 49.9483
812.000000 90.923 49.3475
825.000000 90.936 48.7746
838.000000 90.949 48.2371
850.000000 90.963 47.7736
862.000000 90.977 47.3382
875.000000 90.995 46.8897
885.000000 91.009 46.5689
900.000000 91.031 46.1080
912.000000 91.048 45.7372
925.000000 91.070 45.3400
938.000000 91.092 44.9956
950.000000 91.112 44.7113
962.000000 91.135 44.4106
975.000000 91.161 44.0788
988.000000 91.187 43.7501
1000.000000 91.212 43.4298
1015.000000 91.249 43.0509
1030.000000 91.284 42.6940
1044.000000 91.314 42.3262
1060.000000 91.346 41.9088
1075.000000 91.380 41.5260
1090.000000 91.426 41.1401
1106.000000 91.484 40.7147
1120.000000 91.532 40.3447
1138.000000 91.590 39.8860
1150.000000 91.632 39.5851
1172.000000 91.712 39.0229
1180.000000 91.741 38.8164
1206.000000 91.834 38.1809
1220.000000 91.885 37.8458
1241.000000 91.965 37.3089
1250.000000 91.999 37.0883
1265.000000 92.054 36.7436
1280.000000 92.109 36.4032
1315.000000 92.239 35.6152
1320.000000 92.257 35.5088
1340.000000 92.325 35.0761
1360.000000 92.375 34.6310
1380.000000 92.426 34.1976
1400.000000 92.494 33.7699
1430.000000 92.615 33.1440
1450.000000 92.701 32.6975
1475.000000 92.809 32.0998
1500.000000 92.917 31.4957
1525.000000 93.022 30.8810
1550.000000 93.126 30.2535
1575.000000 93.231 29.5826
1600.000000 93.340 28.8645
1625.000000 93.445 28.1544
1650.000000 93.551 27.4572
1675.000000 93.660 26.7103
1700.000000 93.771 25.9449
1725.000000 93.883 25.1357
1750.000000 93.999 24.2767
1775.000000 94.116 23.3702
1800.000000 94.230 22.4200
1825.000000 94.342 21.4268
1850.000000 94.455 20.3697
1875.000000 94.564 19.2544
1900.000000 94.666 18.0985
1925.000000 94.764 16.8832
1950.000000 94.859 15.6063
1975.000000 94.950 14.2789
2000.000000 95.036 12.9077
2030.000000 95.132 11.2007
2060.000000 95.222 9.4147
2090.000000 95.301 7.5620
2120.000000 95.367 5.6530
2140.000000 95.402 4.3570
2180.000000 95.453 1.7092
2200.000000 95.467 0.3689
2240.000000 95.472 -2.3280
2270.000000 95.458 -4.3571
2300.000000 95.426 -6.3618
2330.000000 95.377 -8.3274
2360.000000 95.318 -10.2542
2400.000000 95.227 -12.7477
2430.000000 95.146 -14.5348
2470.000000 95.021 -16.7968
2500.000000 94.920 -18.4016
2540.000000 94.782 -20.4285
2580.000000 94.641 -22.3203
2620.000000 94.505 -24.0883
2650.000000 94.410 -25.3536
2690.000000 94.293 -26.9576
2720.000000 94.210 -28.0978
2760.000000 94.109 -29.5625
2800.000000 94.023 -30.9854
2850.000000 93.938 -32.7246
2900.000000 93.873 -34.4315
2950.000000 93.832 -36.1594
3000.000000 93.812 -37.9109
3040.000000 93.815 -39.3615
3070.000000 93.826 -40.4840
3110.000000 93.851 -42.0266
3150.000000 93.887 -43.6367
3200.000000 93.950 -45.7562
3250.000000 94.030 -48.0002
3300.000000 94.116 -50.3640
3350.000000 94.204 -52.8418
3400.000000 94.299 -55.4514
3450.000000 94.401 -58.1960
3500.000000 94.504 -61.0584
3550.000000 94.602 -64.0475
3600.000000 94.690 -67.1431
3650.000000 94.755 -70.2883
3700.000000 94.795 -73.4296
3750.000000 94.820 -76.5348
3820.000000 94.845 -80.7715
3870.000000 94.855 -83.6927
3950.000000 94.857 -88.1946
4000.000000 94.855 -90.9155
4060.000000 94.845 -94.0834
4120.000000 94.827 -97.1456
4180.000000 94.806 -100.1049
4250.000000 94.782 -103.4174
4310.000000 94.753 -106.1271
4370.000000 94.711 -108.7132
4440.000000 94.655 -111.5879
4500.000000 94.600 -113.9130
4550.000000 94.552 -115.7451
4620.000000 94.483 -118.1422
4680.000000 94.422 -120.0370
4750.000000 94.351 -122.0566
4820.000000 94.275 -123.8628
4870.000000 94.221 -125.0280
4940.000000 94.152 -126.5009
5000.000000 94.101 -127.6213
5080.000000 94.047 -128.9182
5150.000000 94.017 -129.8975
5220.000000 94.004 -130.7466
5300.000000 94.004 -131.5773
5380.000000 94.028 -132.3066
5450.000000 94.071 -132.8907
5520.000000 94.134 -133.4338
5600.000000 94.224 -134.0158
5700.000000 94.363 -134.7212
5800.000000 94.533 -135.4570
5900.000000 94.730 -136.2906
6000.000000 94.951 -137.3195
6080.000000 95.134 -138.3365
6150.000000 95.291 -139.3977
6220.000000 95.442 -140.6399
6300.000000 95.596 -142.2905
6400.000000 95.737 -144.6724
6500.000000 95.799 -147.3267
6600.000000 95.770 -150.1017
6700.000000 95.646 -152.8006
6800.000000 95.433 -155.2061
6900.000000 95.167 -157.1403
7000.000000 94.879 -158.4900
7100.000000 94.578 -159.2079
7200.000000 94.293 -159.3580
7300.000000 94.049 -159.0665
7400.000000 93.856 -158.4775
7500.000000 93.721 -157.7376
7620.000000 93.643 -156.8480
7750.000000 93.649 -156.1226
7880.000000 93.645 -155.7853
8000.000000 93.629 -155.9148
8120.000000 93.621 -156.6429
8250.000000 93.567 -158.4077
8380.000000 93.361 -161.2518
8500.000000 92.953 -164.3413
8620.000000 92.300 -167.0645
8750.000000 91.351 -168.8234
8850.000000 90.504 -169.0534
9000.000000 89.152 -167.5040
9120.000000 88.071 -164.7602
9250.000000 86.945 -160.4426
9380.000000 85.894 -154.8428
9500.000000 85.020 -148.5753
9620.000000 84.274 -141.2964
9750.000000 83.674 -132.4587
9880.000000 83.358 -123.0876
10000.000000 83.337 -114.5702
10150.000000 83.608 -104.9297
10300.000000 84.065 -96.8704
10440.000000 84.549 -90.7068
10600.000000 85.097 -84.8593
10750.000000 85.582 -80.1598
10900.000000 86.041 -75.9816
11060.000000 86.515 -71.9177
11200.000000 86.925 -68.5676
11380.000000 87.486 -64.5392
11500.000000 87.898 -62.1593
11720.000000 88.715 -58.7888
11800.000000 89.019 -57.9532
12060.000000 89.948 -57.0133
12200.000000 90.334 -57.6766
12410.000000 90.646 -59.5705
12500.000000 90.681 -60.3962
12650.000000 90.644 -61.4978
12800.000000 90.519 -62.1595
13150.000000 90.022 -61.5261
13200.000000 89.949 -61.1825
13400.000000 89.713 -59.4400
13600.000000 89.587 -57.6207
13800.000000 89.542 -56.2521
14000.000000 89.509 -55.4761
14300.000000 89.385 -55.0657
14500.000000 89.238 -55.0622
14750.000000 88.993 -55.3208
15000.000000 88.666 -55.8529
15250.000000 88.259 -56.6143
15500.000000 87.797 -57.6175
15750.000000 87.244 -58.7399
16000.000000 86.518 -59.3886
16250.000000 85.622 -58.7239
16500.000000 84.669 -56.2485
16750.000000 83.827 -52.0988
17000.000000 83.251 -46.9781
17250.000000 83.058 -42.0466
17500.000000 83.265 -38.9766
17750.000000 83.657 -39.8623
18000.000000 83.734 -45.8231
18250.000000 82.972 -54.2102
18500.000000 81.233 -58.1527
18750.000000 79.279 -52.9329
19000.000000 78.537 -44.9904
19250.000000 78.284 -41.8775
19500.000000 77.321 -39.5051
19750.000000 75.829 -34.6439
20000.000000 74.122 -28.9771
20300.000000 71.706 -22.5362
20600.000000 68.743 -15.3385
20900.000000 65.142 -6.3622
21200.000000 60.966 2.9824
21400.000000 57.868 7.2778
21800.000000 50.708 -39.3981
22000.000000 46.557 130.2233
22400.000000 37.039 126.8955
22700.000000 28.884 68.6982
23000.000000 20.209 32.2539
23300.000000 12.997 110.6562
23600.000000 10.259 -144.2930
24000.000000 9.364 -80.2852
