* Measurement data measured by REW V5.20.13
* Source: Headset (DS by VECLAN.COM), MICROPHONE (Master Volume), L, volume: 0.880. Timing signal peak level -16.0 dBFS, measurement signal peak level -15.9 dBFS
* Format: 2M Log Swept Sine, 1 sweep at -12.0 dBFS using an acoustic timing reference
* Dated: Nov 11, 2023 4:26:41 PM
* REW Settings:
*  C-weighting compensation: Off
*  Target level: 75.0 dB
* Note: ; Delay -0.0643 ms (-22 mm, -0.87 in) using estimated IR delay relative to Acoustic reference played from HEADPHONE R with no timing offset
* Measurement: AFUL MagicOne R
* Smoothing: 1/24 octave
* Frequency Step: 1/48 octave
* Start Frequency: 1.000 Hz
*
* Freq(Hz) SPL(dB) Phase(degrees)
1.000000 78.090 92.2236
1.015000 78.356 92.1121
1.030000 78.617 91.9942
1.044000 78.855 91.8784
1.060000 79.121 91.7393
1.075000 79.363 91.6021
1.090000 79.596 91.4583
1.106000 79.837 91.2968
1.120000 80.044 91.1434
1.138000 80.309 90.9293
1.150000 80.484 90.7768
1.172000 80.802 90.4790
1.180000 80.916 90.3654
1.206000 81.283 89.9791
1.220000 81.477 89.7617
1.241000 81.764 89.4255
1.250000 81.886 89.2784
1.265000 82.085 89.0299
1.280000 82.282 88.7782
1.315000 82.727 88.1843
1.320000 82.789 88.0993
1.340000 83.033 87.7604
1.360000 83.270 87.4250
1.380000 83.499 87.0958
1.400000 83.721 86.7751
1.430000 84.038 86.3156
1.450000 84.238 86.0272
1.475000 84.476 85.6899
1.500000 84.698 85.3697
1.525000 84.903 85.0622
1.550000 85.094 84.7656
1.575000 85.272 84.4781
1.600000 85.439 84.1976
1.625000 85.595 83.9224
1.650000 85.742 83.6504
1.675000 85.881 83.3798
1.700000 86.014 83.1087
1.725000 86.142 82.8352
1.750000 86.267 82.5574
1.775000 86.389 82.2733
1.800000 86.511 81.9811
1.825000 86.633 81.6788
1.850000 86.753 81.3662
1.875000 86.866 81.0465
1.900000 86.972 80.7208
1.925000 87.072 80.3900
1.950000 87.166 80.0550
1.975000 87.256 79.7168
2.000000 87.342 79.3763
2.030000 87.441 78.9660
2.060000 87.538 78.5554
2.090000 87.634 78.1460
2.120000 87.729 77.7396
2.140000 87.794 77.4711
2.180000 87.927 76.9419
2.200000 87.996 76.6822
2.240000 88.137 76.1681
2.270000 88.243 75.7853
2.300000 88.349 75.4047
2.330000 88.454 75.0264
2.360000 88.559 74.6501
2.400000 88.698 74.1513
2.430000 88.800 73.7794
2.470000 88.933 73.2862
2.500000 89.031 72.9182
2.540000 89.156 72.4297
2.580000 89.277 71.9435
2.620000 89.392 71.4598
2.650000 89.476 71.0988
2.690000 89.584 70.6198
2.720000 89.664 70.2626
2.760000 89.766 69.7890
2.800000 89.867 69.3187
2.850000 89.989 68.7360
2.900000 90.109 68.1592
2.950000 90.226 67.5883
3.000000 90.341 67.0208
3.040000 90.430 66.5696
3.070000 90.495 66.2334
3.110000 90.581 65.7886
3.150000 90.664 65.3485
3.200000 90.766 64.8063
3.250000 90.866 64.2744
3.300000 90.964 63.7542
3.350000 91.059 63.2472
3.400000 91.152 62.7523
3.450000 91.243 62.2677
3.500000 91.330 61.7910
3.550000 91.416 61.3205
3.600000 91.500 60.8540
3.650000 91.582 60.3895
3.700000 91.661 59.9261
3.750000 91.739 59.4658
3.820000 91.843 58.8280
3.870000 91.915 58.3784
3.950000 92.028 57.6712
4.000000 92.096 57.2380
4.060000 92.178 56.7286
4.120000 92.257 56.2317
4.180000 92.335 55.7451
4.250000 92.423 55.1871
4.310000 92.496 54.7143
4.370000 92.568 54.2439
4.440000 92.648 53.6961
4.500000 92.715 53.2294
4.550000 92.769 52.8432
4.620000 92.842 52.3080
4.680000 92.903 51.8552
4.750000 92.973 51.3350
4.820000 93.041 50.8240
4.870000 93.088 50.4640
4.940000 93.152 49.9667
5.000000 93.205 49.5466
5.080000 93.273 48.9953
5.150000 93.331 48.5207
5.220000 93.387 48.0531
5.300000 93.447 47.5277
5.380000 93.506 47.0128
5.450000 93.555 46.5717
5.520000 93.603 46.1400
5.600000 93.656 45.6581
5.700000 93.719 45.0717
5.800000 93.780 44.5022
5.900000 93.839 43.9488
6.000000 93.896 43.4138
6.080000 93.940 42.9973
6.150000 93.978 42.6395
6.220000 94.015 42.2867
6.300000 94.057 41.8903
6.400000 94.108 41.4067
6.500000 94.157 40.9330
6.600000 94.206 40.4660
6.700000 94.254 40.0072
6.800000 94.301 39.5564
6.900000 94.348 39.1102
7.000000 94.393 38.6653
7.100000 94.437 38.2232
7.200000 94.480 37.7843
7.300000 94.521 37.3483
7.400000 94.561 36.9144
7.500000 94.600 36.4823
7.620000 94.643 35.9697
7.750000 94.688 35.4252
7.880000 94.729 34.8892
8.000000 94.764 34.4069
8.120000 94.797 33.9417
8.250000 94.831 33.4542
8.380000 94.862 32.9865
8.500000 94.891 32.5754
8.620000 94.918 32.1835
8.750000 94.947 31.7774
8.850000 94.970 31.4772
9.000000 95.005 31.0495
9.120000 95.034 30.7188
9.250000 95.068 30.3678
9.380000 95.104 30.0273
9.500000 95.137 29.7130
9.620000 95.168 29.3938
9.750000 95.201 29.0463
9.880000 95.227 28.6952
10.000000 95.244 28.3643
10.150000 95.256 27.9461
10.300000 95.260 27.5387
10.440000 95.255 27.1669
10.600000 95.244 26.7585
10.750000 95.234 26.3992
10.900000 95.222 26.0593
11.060000 95.211 25.7163
11.200000 95.204 25.4332
11.380000 95.197 25.0892
11.500000 95.194 24.8749
11.720000 95.192 24.4961
11.800000 95.194 24.3584
12.060000 95.204 23.9097
12.200000 95.213 23.6499
12.410000 95.226 23.2430
12.500000 95.230 23.0663
12.650000 95.235 22.7641
12.800000 95.236 22.4680
13.150000 95.226 21.8340
13.200000 95.223 21.7544
13.400000 95.213 21.4666
13.600000 95.204 21.2251
13.800000 95.199 21.0352
14.000000 95.199 20.8596
14.300000 95.210 20.5989
14.500000 95.222 20.3889
14.750000 95.235 20.0757
15.000000 95.244 19.7077
15.250000 95.242 19.3175
15.500000 95.230 18.9642
15.750000 95.211 18.6774
16.000000 95.191 18.4900
16.250000 95.181 18.3560
16.500000 95.184 18.2342
16.750000 95.203 18.0535
17.000000 95.226 17.7572
17.250000 95.245 17.3487
17.500000 95.250 16.8402
17.750000 95.233 16.3332
18.000000 95.198 15.8905
18.250000 95.151 15.5822
18.500000 95.112 15.4342
18.750000 95.089 15.3913
19.000000 95.093 15.4007
19.250000 95.124 15.3289
19.500000 95.169 15.1257
19.750000 95.217 14.7573
20.000000 95.250 14.2545
20.299999 95.264 13.5999
20.600000 95.250 13.0177
20.900000 95.223 12.6150
21.200001 95.204 12.4088
21.400000 95.207 12.3208
21.799999 95.242 12.1063
22.000000 95.268 11.9156
22.400000 95.305 11.3235
22.700001 95.300 10.8096
23.000000 95.261 10.4227
23.299999 95.204 10.3096
23.600000 95.159 10.5017
24.000000 95.159 11.0955
24.299999 95.223 11.5383
24.700001 95.372 11.7589
25.000000 95.493 11.4979
25.400000 95.609 10.6288
25.799999 95.630 9.5166
26.200001 95.556 8.6554
26.500000 95.471 8.4004
26.900000 95.376 8.6267
27.200001 95.361 9.0454
27.600000 95.432 9.5246
28.000000 95.569 9.4534
28.500000 95.711 8.3963
29.000000 95.711 6.8750
29.500000 95.579 5.8188
30.000000 95.431 5.6822
30.400000 95.379 5.9814
30.700001 95.388 6.1936
31.100000 95.436 6.2295
31.500000 95.483 5.9691
32.000000 95.504 5.4812
32.500000 95.496 5.1168
33.000000 95.492 4.9224
33.500000 95.506 4.7472
34.000000 95.525 4.4968
34.500000 95.536 4.2113
35.000000 95.540 3.9486
35.500000 95.541 3.7130
36.000000 95.541 3.4857
36.500000 95.538 3.2669
37.000000 95.534 3.0635
37.500000 95.530 2.8692
38.200001 95.526 2.6013
38.700001 95.523 2.4172
39.500000 95.527 2.1080
40.000000 95.530 1.8747
40.599998 95.530 1.5626
41.200001 95.522 1.2634
41.799999 95.512 0.9991
42.500000 95.502 0.7213
43.099998 95.495 0.5064
43.700001 95.492 0.3133
44.400002 95.495 0.0902
45.000000 95.498 -0.1175
45.500000 95.501 -0.2971
46.200001 95.502 -0.5432
46.799999 95.502 -0.7366
47.500000 95.502 -0.9331
48.200001 95.503 -1.1251
48.700001 95.500 -1.2713
49.400002 95.487 -1.4536
50.000000 95.476 -1.5813
50.799999 95.462 -1.8175
51.500000 95.434 -2.0845
52.200001 95.403 -2.3196
53.000000 95.375 -2.7475
53.799999 95.292 -3.3554
54.500000 95.174 -3.4169
55.200001 95.129 -2.9207
56.000000 95.219 -2.6540
57.000000 95.320 -3.3759
58.000000 95.325 -4.0144
59.000000 95.335 -4.3192
60.000000 95.349 -4.5571
60.799999 95.357 -4.7423
61.500000 95.352 -4.9162
62.200001 95.337 -5.0499
63.000000 95.322 -5.1735
64.000000 95.305 -5.3957
65.000000 95.283 -5.6543
66.000000 95.264 -5.8921
67.000000 95.253 -6.1258
68.000000 95.245 -6.3676
69.000000 95.232 -6.5904
70.000000 95.216 -6.7751
71.000000 95.196 -6.9362
72.000000 95.176 -7.0953
73.000000 95.155 -7.2844
74.000000 95.131 -7.4926
75.000000 95.108 -7.6848
76.199997 95.087 -7.9098
77.500000 95.067 -8.1550
78.800003 95.044 -8.3769
80.000000 95.020 -8.5530
81.199997 94.995 -8.7158
82.500000 94.968 -8.9046
83.800003 94.941 -9.0994
85.000000 94.918 -9.2738
86.199997 94.897 -9.4434
87.500000 94.874 -9.6180
88.500000 94.856 -9.7438
90.000000 94.825 -9.9151
91.199997 94.803 -10.0339
92.500000 94.785 -10.1961
93.800003 94.764 -10.4032
95.000000 94.740 -10.5826
96.199997 94.715 -10.7285
97.500000 94.688 -10.8682
98.800003 94.662 -11.0041
100.000000 94.635 -11.1290
101.500000 94.602 -11.2790
103.000000 94.570 -11.4318
104.400002 94.542 -11.5756
106.000000 94.511 -11.7343
107.500000 94.481 -11.8621
109.000000 94.451 -11.9768
110.599998 94.420 -12.1025
112.000000 94.391 -12.2116
113.800003 94.353 -12.3544
115.000000 94.326 -12.4430
117.199997 94.276 -12.5768
118.000000 94.259 -12.6281
120.599998 94.204 -12.8171
122.000000 94.177 -12.9062
124.099998 94.150 -13.0111
125.000000 94.143 -13.0629
126.500000 94.126 -13.1644
128.000000 94.099 -13.2497
131.500000 94.020 -13.3720
132.000000 94.008 -13.3967
134.000000 93.960 -13.5038
136.000000 93.921 -13.5935
138.000000 93.900 -13.7127
140.000000 93.875 -13.8825
143.000000 93.830 -13.9915
145.000000 93.805 -14.0546
147.500000 93.768 -14.1281
150.000000 93.730 -14.1134
152.500000 93.698 -14.1277
155.000000 93.660 -14.2152
157.500000 93.616 -14.3129
160.000000 93.578 -14.4007
162.500000 93.544 -14.4787
165.000000 93.507 -14.5074
167.500000 93.469 -14.5103
170.000000 93.429 -14.5551
172.500000 93.387 -14.6377
175.000000 93.346 -14.7056
177.500000 93.303 -14.7044
180.000000 93.258 -14.6746
182.500000 93.213 -14.7099
185.000000 93.169 -14.8112
187.500000 93.126 -14.9003
190.000000 93.084 -14.9389
192.500000 93.043 -14.9645
195.000000 93.002 -15.0015
197.500000 92.962 -15.0472
200.000000 92.920 -15.0974
203.000000 92.868 -15.1745
206.000000 92.816 -15.2384
209.000000 92.767 -15.2636
212.000000 92.717 -15.2988
214.000000 92.681 -15.3302
218.000000 92.607 -15.3838
220.000000 92.569 -15.4078
224.000000 92.489 -15.4602
227.000000 92.426 -15.4739
230.000000 92.362 -15.4507
233.000000 92.296 -15.4297
236.000000 92.228 -15.4212
240.000000 92.136 -15.3607
243.000000 92.067 -15.2703
247.000000 91.971 -15.1132
250.000000 91.901 -14.9654
254.000000 91.812 -14.7320
258.000000 91.722 -14.4464
262.000000 91.633 -14.1251
265.000000 91.572 -13.8670
269.000000 91.497 -13.4834
272.000000 91.446 -13.1884
276.000000 91.383 -12.8038
280.000000 91.327 -12.4031
285.000000 91.261 -11.8792
290.000000 91.202 -11.3396
295.000000 91.152 -10.8218
300.000000 91.106 -10.3277
304.000000 91.073 -9.9366
307.000000 91.052 -9.6463
311.000000 91.028 -9.2674
315.000000 91.006 -8.9075
320.000000 90.978 -8.4867
325.000000 90.952 -8.0785
330.000000 90.929 -7.6730
335.000000 90.906 -7.2652
340.000000 90.880 -6.8863
345.000000 90.853 -6.5244
350.000000 90.828 -6.1548
355.000000 90.804 -5.7870
360.000000 90.779 -5.4271
365.000000 90.754 -5.0771
370.000000 90.730 -4.7335
375.000000 90.708 -4.3953
382.000000 90.673 -3.9277
387.000000 90.647 -3.5987
395.000000 90.610 -3.0701
400.000000 90.588 -2.7422
406.000000 90.560 -2.3634
412.000000 90.532 -1.9793
418.000000 90.506 -1.5801
425.000000 90.475 -1.1368
431.000000 90.449 -0.7741
437.000000 90.424 -0.4004
444.000000 90.395 0.0432
450.000000 90.369 0.4195
455.000000 90.346 0.7265
462.000000 90.316 1.1542
468.000000 90.292 1.5290
475.000000 90.264 1.9618
482.000000 90.236 2.3956
487.000000 90.217 2.7138
494.000000 90.192 3.1672
500.000000 90.171 3.5527
508.000000 90.146 4.0368
515.000000 90.123 4.4576
522.000000 90.100 4.9106
530.000000 90.074 5.4395
538.000000 90.049 5.9545
545.000000 90.028 6.3864
552.000000 90.010 6.8345
560.000000 89.990 7.3689
570.000000 89.959 8.0208
580.000000 89.926 8.7100
590.000000 89.895 9.3572
600.000000 89.872 9.9802
608.000000 89.858 10.5077
615.000000 89.845 10.9961
622.000000 89.829 11.4827
630.000000 89.807 12.0204
640.000000 89.778 12.7115
650.000000 89.752 13.4193
660.000000 89.727 14.1249
670.000000 89.704 14.8349
680.000000 89.683 15.5593
690.000000 89.664 16.2877
700.000000 89.649 17.0354
710.000000 89.635 17.7919
720.000000 89.621 18.5371
730.000000 89.608 19.2918
740.000000 89.599 20.0680
750.000000 89.595 20.8252
762.000000 89.590 21.7403
775.000000 89.587 22.7711
788.000000 89.584 23.7945
800.000000 89.589 24.7319
812.000000 89.598 25.6670
825.000000 89.610 26.6827
838.000000 89.625 27.7035
850.000000 89.642 28.6324
862.000000 89.664 29.5540
875.000000 89.690 30.5452
885.000000 89.712 31.3058
900.000000 89.752 32.4345
912.000000 89.787 33.3122
925.000000 89.828 34.2460
938.000000 89.874 35.1708
950.000000 89.919 36.0029
962.000000 89.963 36.8059
975.000000 90.013 37.6646
988.000000 90.063 38.5046
1000.000000 90.110 39.2518
1015.000000 90.172 40.1574
1030.000000 90.235 41.0478
1044.000000 90.298 41.8503
1060.000000 90.371 42.7181
1075.000000 90.435 43.5021
1090.000000 90.503 44.2557
1106.000000 90.584 45.0356
1120.000000 90.659 45.7028
1138.000000 90.755 46.5300
1150.000000 90.817 47.0613
1172.000000 90.927 48.0176
1180.000000 90.965 48.3656
1206.000000 91.088 49.4861
1220.000000 91.155 50.0652
1241.000000 91.257 50.9310
1250.000000 91.300 51.3138
1265.000000 91.372 51.9524
1280.000000 91.444 52.5815
1315.000000 91.607 54.0894
1320.000000 91.629 54.3138
1340.000000 91.712 55.2110
1360.000000 91.778 56.0992
1380.000000 91.846 56.9920
1400.000000 91.929 57.9179
1430.000000 92.067 59.3269
1450.000000 92.166 60.2632
1475.000000 92.292 61.4496
1500.000000 92.424 62.6581
1525.000000 92.564 63.8495
1550.000000 92.707 65.0304
1575.000000 92.857 66.2201
1600.000000 93.019 67.3795
1625.000000 93.191 68.5071
1650.000000 93.370 69.5929
1675.000000 93.560 70.6273
1700.000000 93.760 71.6117
1725.000000 93.969 72.5466
1750.000000 94.191 73.3853
1775.000000 94.421 74.1077
1800.000000 94.656 74.7405
1825.000000 94.892 75.2833
1850.000000 95.130 75.7032
1875.000000 95.367 75.9901
1900.000000 95.603 76.1648
1925.000000 95.835 76.2097
1950.000000 96.059 76.1180
1975.000000 96.269 75.8995
2000.000000 96.470 75.5592
2030.000000 96.695 75.0481
2060.000000 96.888 74.4346
2090.000000 97.051 73.7239
2120.000000 97.185 72.9586
2140.000000 97.258 72.4405
2180.000000 97.362 71.4682
2200.000000 97.394 71.0364
2240.000000 97.430 70.3007
2270.000000 97.439 69.8583
2300.000000 97.437 69.5482
2330.000000 97.428 69.3592
2360.000000 97.421 69.2530
2400.000000 97.417 69.2065
2430.000000 97.416 69.2050
2470.000000 97.410 69.2172
2500.000000 97.400 69.2434
2540.000000 97.380 69.3271
2580.000000 97.351 69.5061
2620.000000 97.320 69.7880
2650.000000 97.300 70.0685
2690.000000 97.281 70.5097
2720.000000 97.273 70.8799
2760.000000 97.268 71.4103
2800.000000 97.274 71.9491
2850.000000 97.294 72.6370
2900.000000 97.326 73.3213
2950.000000 97.370 73.9600
3000.000000 97.422 74.5559
3040.000000 97.469 74.9869
3070.000000 97.507 75.2809
3110.000000 97.560 75.6364
3150.000000 97.612 75.9491
3200.000000 97.676 76.2724
3250.000000 97.735 76.5300
3300.000000 97.788 76.7168
3350.000000 97.833 76.8425
3400.000000 97.868 76.9184
3450.000000 97.897 76.9399
3500.000000 97.915 76.9436
3550.000000 97.920 76.9375
3600.000000 97.912 76.9283
3650.000000 97.889 76.9386
3700.000000 97.851 76.9807
3750.000000 97.797 77.0735
3820.000000 97.699 77.3074
3870.000000 97.614 77.5722
3950.000000 97.460 78.1845
4000.000000 97.357 78.6981
4060.000000 97.235 79.4201
4120.000000 97.120 80.2164
4180.000000 97.004 81.0618
4250.000000 96.865 82.0812
4310.000000 96.733 83.0290
4370.000000 96.584 84.0957
4440.000000 96.401 85.5135
4500.000000 96.248 86.8848
4550.000000 96.128 88.1365
4620.000000 95.975 90.0286
4680.000000 95.861 91.7519
4750.000000 95.755 93.8244
4820.000000 95.673 95.9243
4870.000000 95.624 97.4319
4940.000000 95.569 99.5514
5000.000000 95.534 101.3887
5080.000000 95.507 103.8797
5150.000000 95.507 106.0914
5220.000000 95.528 108.3299
5300.000000 95.585 110.8764
5380.000000 95.686 113.3455
5450.000000 95.808 115.3987
5520.000000 95.958 117.2973
5600.000000 96.157 119.2168
5700.000000 96.435 121.1570
5800.000000 96.711 122.5546
5900.000000 96.959 123.4736
6000.000000 97.170 124.0463
6080.000000 97.314 124.3409
6150.000000 97.423 124.5138
6220.000000 97.518 124.6014
6300.000000 97.609 124.5677
6400.000000 97.687 124.3137
6500.000000 97.708 123.8959
6600.000000 97.659 123.4746
6700.000000 97.550 123.2251
6800.000000 97.405 123.3013
6900.000000 97.268 123.7580
7000.000000 97.174 124.5371
7100.000000 97.129 125.4973
7200.000000 97.141 126.4407
7300.000000 97.203 127.1212
7400.000000 97.285 127.2771
7500.000000 97.332 126.9533
7620.000000 97.369 126.3964
7750.000000 97.435 124.9758
7880.000000 97.296 122.2514
8000.000000 96.897 119.1752
8120.000000 96.231 116.3427
8250.000000 95.228 114.3743
8380.000000 93.986 114.2356
8500.000000 92.679 116.3003
8620.000000 91.290 121.5974
8750.000000 90.174 132.1172
8850.000000 90.145 139.9332
9000.000000 90.255 143.9734
9120.000000 89.726 146.5760
9250.000000 89.059 152.1894
9380.000000 88.622 159.2191
9500.000000 88.446 165.9440
9620.000000 88.463 172.4490
9750.000000 88.675 178.9304
9880.000000 89.054 -175.4778
10000.000000 89.507 -171.3754
10150.000000 90.134 -167.9993
10300.000000 90.704 -166.7230
10440.000000 91.062 -167.2131
10600.000000 91.153 -168.8914
10750.000000 90.912 -170.2648
10900.000000 90.449 -170.3640
11060.000000 89.882 -168.8735
11200.000000 89.414 -166.6523
11380.000000 88.877 -163.0532
11500.000000 88.559 -160.3130
11720.000000 88.065 -154.7771
11800.000000 87.918 -152.6581
12060.000000 87.568 -145.6768
12200.000000 87.446 -141.9823
12410.000000 87.322 -136.6745
12500.000000 87.287 -134.5086
12650.000000 87.248 -131.0543
12800.000000 87.229 -127.7831
13150.000000 87.229 -120.7011
13200.000000 87.233 -119.7337
13400.000000 87.264 -115.9383
13600.000000 87.339 -112.2700
13800.000000 87.477 -108.7831
14000.000000 87.687 -105.5914
14300.000000 88.151 -101.6494
14500.000000 88.564 -99.8573
14750.000000 89.169 -99.1104
15000.000000 89.777 -100.4698
15250.000000 90.284 -103.9775
15500.000000 90.634 -109.2278
15750.000000 90.797 -115.6357
16000.000000 90.770 -122.9110
16250.000000 90.552 -131.2285
16500.000000 90.073 -140.8743
16750.000000 89.213 -151.5989
17000.000000 87.882 -162.3617
17250.000000 86.081 -171.8695
17500.000000 83.904 -179.3862
17750.000000 81.457 175.0988
18000.000000 78.787 171.3916
18250.000000 75.877 169.5957
18500.000000 72.710 170.2856
18750.000000 69.283 174.8498
19000.000000 65.526 -172.6769
19250.000000 61.329 -143.6091
19500.000000 58.176 -95.2763
19750.000000 59.726 -47.8122
20000.000000 62.999 -18.1422
20300.000000 66.601 0.5019
20600.000000 69.905 10.8313
20900.000000 72.964 15.4276
21200.000000 75.610 13.6366
21400.000000 76.880 7.9084
21800.000000 77.344 -28.5985
22000.000000 76.171 -115.1208
22400.000000 70.695 168.7024
22700.000000 64.447 104.2471
23000.000000 57.167 137.5684
23300.000000 50.399 62.8555
23600.000000 47.404 14.6211
24000.000000 47.243 -104.6328
