* Measurement data measured by REW V5.31.1
* Source: Headset (DS by VECLAN.COM), MICROPHONE (Master Volume), L, volume: 0.720. Timing signal peak level -21.4 dBFS, measurement signal peak level -15.5 dBFS
* Format: 2M Log Swept Sine, 1 sweep at -12.0 dBFS using an acoustic timing reference
* Dated: Jul 16, 2024 8:03:35 PM
* REW Settings:
*  C-weighting compensation: Off
*  Target level: 85.0 dB
* Note: ; Delay 0.2050 ms (70 mm, 2.77 in) using estimated IR delay relative to Acoustic reference played from HEADPHONE L with no timing offset Clock adjustment: -32.3 ppm
* Measurement: AFUL Explorer white L
* Smoothing: 1/24 octave
* Frequency Step: 1/48 octave
* Start Frequency: 1.000 Hz
*
* Freq(Hz), SPL(dB), Phase(degrees)
1.000000, 81.581, -44.4770
1.015000, 81.921, -45.3169
1.030000, 82.256, -46.1622
1.044000, 82.564, -46.9586
1.060000, 82.912, -47.8805
1.075000, 83.232, -48.7583
1.090000, 83.547, -49.6489
1.106000, 83.879, -50.6002
1.120000, 84.168, -51.4095
1.138000, 84.539, -52.4013
1.150000, 84.786, -53.0317
1.172000, 85.237, -54.1332
1.180000, 85.401, -54.5220
1.206000, 85.927, -55.7242
1.220000, 86.206, -56.3362
1.241000, 86.620, -57.2138
1.250000, 86.795, -57.5765
1.265000, 87.083, -58.1654
1.280000, 87.367, -58.7368
1.315000, 88.005, -60.0149
1.320000, 88.094, -60.1923
1.340000, 88.440, -60.8926
1.360000, 88.772, -61.5796
1.380000, 89.090, -62.2967
1.400000, 89.393, -63.0244
1.430000, 89.814, -64.1160
1.450000, 90.072, -64.8475
1.475000, 90.364, -65.7584
1.500000, 90.621, -66.6359
1.525000, 90.844, -67.4664
1.550000, 91.036, -68.2516
1.575000, 91.201, -69.0174
1.600000, 91.344, -69.7860
1.625000, 91.468, -70.5232
1.650000, 91.577, -71.2344
1.675000, 91.675, -71.9246
1.700000, 91.767, -72.5986
1.725000, 91.855, -73.2613
1.750000, 91.945, -73.9171
1.775000, 92.040, -74.5870
1.800000, 92.144, -75.2912
1.825000, 92.259, -75.9975
1.850000, 92.382, -76.7008
1.875000, 92.507, -77.3900
1.900000, 92.630, -78.0601
1.925000, 92.752, -78.7107
1.950000, 92.873, -79.3417
1.975000, 92.991, -79.9709
2.000000, 93.109, -80.6157
2.030000, 93.247, -81.3681
2.060000, 93.384, -82.1019
2.090000, 93.518, -82.8207
2.120000, 93.650, -83.5285
2.140000, 93.737, -83.9960
2.180000, 93.909, -84.9465
2.200000, 93.993, -85.4398
2.240000, 94.158, -86.4182
2.270000, 94.280, -87.1398
2.300000, 94.399, -87.8478
2.330000, 94.516, -88.5410
2.360000, 94.630, -89.2194
2.400000, 94.780, -90.1486
2.430000, 94.891, -90.8357
2.470000, 95.035, -91.7318
2.500000, 95.141, -92.3910
2.540000, 95.279, -93.2563
2.580000, 95.415, -94.1297
2.620000, 95.547, -95.0343
2.650000, 95.644, -95.7059
2.690000, 95.771, -96.5891
2.720000, 95.864, -97.2403
2.760000, 95.985, -98.0897
2.800000, 96.103, -98.9582
2.850000, 96.246, -100.0202
2.900000, 96.384, -101.0512
2.950000, 96.518, -102.0599
3.000000, 96.646, -103.0921
3.040000, 96.745, -103.9228
3.070000, 96.818, -104.5389
3.110000, 96.911, -105.3479
3.150000, 97.002, -106.1398
3.200000, 97.113, -107.1332
3.250000, 97.219, -108.1087
3.300000, 97.322, -109.0550
3.350000, 97.421, -109.9857
3.400000, 97.516, -110.9425
3.450000, 97.607, -111.9004
3.500000, 97.695, -112.8380
3.550000, 97.779, -113.7487
3.600000, 97.859, -114.6547
3.650000, 97.937, -115.5404
3.700000, 98.011, -116.4040
3.750000, 98.082, -117.2578
3.820000, 98.175, -118.4702
3.870000, 98.237, -119.3228
3.950000, 98.332, -120.6351
4.000000, 98.389, -121.4392
4.060000, 98.454, -122.3823
4.120000, 98.516, -123.3054
4.180000, 98.574, -124.2183
4.250000, 98.638, -125.2867
4.310000, 98.689, -126.1673
4.370000, 98.739, -127.0153
4.440000, 98.793, -127.9985
4.500000, 98.836, -128.8203
4.550000, 98.870, -129.4904
4.620000, 98.916, -130.4297
4.680000, 98.952, -131.2122
4.750000, 98.994, -132.0865
4.820000, 99.033, -132.9481
4.870000, 99.060, -133.5519
4.940000, 99.097, -134.3747
5.000000, 99.126, -135.0731
5.080000, 99.164, -135.9820
5.150000, 99.195, -136.7435
5.220000, 99.225, -137.5013
5.300000, 99.258, -138.3485
5.380000, 99.288, -139.1691
5.450000, 99.314, -139.8812
5.520000, 99.340, -140.5680
5.600000, 99.368, -141.3391
5.700000, 99.401, -142.2881
5.800000, 99.432, -143.2075
5.900000, 99.462, -144.1100
6.000000, 99.490, -144.9901
6.080000, 99.511, -145.6897
6.150000, 99.529, -146.2825
6.220000, 99.545, -146.8744
6.300000, 99.563, -147.5363
6.400000, 99.584, -148.3484
6.500000, 99.603, -149.1496
6.600000, 99.620, -149.9252
6.700000, 99.635, -150.6889
6.800000, 99.648, -151.4328
6.900000, 99.659, -152.1619
7.000000, 99.669, -152.8644
7.100000, 99.678, -153.5518
7.200000, 99.686, -154.2178
7.300000, 99.692, -154.8681
7.400000, 99.697, -155.4952
7.500000, 99.702, -156.1111
7.620000, 99.706, -156.8232
7.750000, 99.711, -157.5627
7.880000, 99.715, -158.2782
8.000000, 99.718, -158.9114
8.120000, 99.722, -159.5280
8.250000, 99.727, -160.1765
8.380000, 99.732, -160.8048
8.500000, 99.736, -161.3754
8.620000, 99.741, -161.9326
8.750000, 99.746, -162.5240
8.850000, 99.750, -162.9725
9.000000, 99.755, -163.6297
9.120000, 99.758, -164.1476
9.250000, 99.761, -164.7022
9.380000, 99.763, -165.2457
9.500000, 99.764, -165.7408
9.620000, 99.762, -166.2224
9.750000, 99.758, -166.7317
9.880000, 99.751, -167.2313
10.000000, 99.734, -167.6741
10.150000, 99.700, -168.2429
10.300000, 99.657, -168.7806
10.440000, 99.613, -169.2545
10.600000, 99.560, -169.7658
10.750000, 99.513, -170.2174
10.900000, 99.468, -170.6447
11.060000, 99.423, -171.1049
11.200000, 99.387, -171.5292
11.380000, 99.341, -172.0550
11.500000, 99.311, -172.3946
11.720000, 99.255, -172.9959
11.800000, 99.236, -173.2081
12.060000, 99.176, -173.8968
12.200000, 99.147, -174.2931
12.410000, 99.105, -174.8628
12.500000, 99.087, -175.0966
12.650000, 99.055, -175.4723
12.800000, 99.022, -175.8300
13.150000, 98.949, -176.6484
13.200000, 98.939, -176.7682
13.400000, 98.903, -177.2304
13.600000, 98.869, -177.6701
13.800000, 98.837, -178.0913
14.000000, 98.808, -178.5037
14.300000, 98.766, -179.1817
14.500000, 98.737, -179.6228
14.750000, 98.700, 179.8458
15.000000, 98.663, 179.3384
15.250000, 98.631, 178.8065
15.500000, 98.601, 178.3073
15.750000, 98.572, 177.8426
16.000000, 98.543, 177.4069
16.250000, 98.518, 176.9480
16.500000, 98.495, 176.5044
16.750000, 98.473, 176.0718
17.000000, 98.454, 175.6441
17.250000, 98.436, 175.1941
17.500000, 98.418, 174.7518
17.750000, 98.398, 174.3245
18.000000, 98.377, 173.9129
18.250000, 98.356, 173.4983
18.500000, 98.335, 173.1016
18.750000, 98.315, 172.7242
19.000000, 98.296, 172.3625
19.250000, 98.279, 171.9884
19.500000, 98.264, 171.6242
19.750000, 98.248, 171.2686
20.000000, 98.232, 170.9208
20.299999, 98.213, 170.4840
20.600000, 98.192, 170.0613
20.900000, 98.171, 169.6547
21.200001, 98.149, 169.2455
21.400000, 98.134, 168.9749
21.799999, 98.103, 168.4515
22.000000, 98.088, 168.1951
22.400000, 98.057, 167.6592
22.700001, 98.033, 167.2663
23.000000, 98.008, 166.8825
23.299999, 97.983, 166.4916
23.600000, 97.957, 166.1143
24.000000, 97.924, 165.6331
24.299999, 97.901, 165.2659
24.700001, 97.872, 164.7857
25.000000, 97.849, 164.4330
25.400000, 97.819, 163.9553
25.799999, 97.788, 163.5021
26.200001, 97.759, 163.0641
26.500000, 97.739, 162.7374
26.900000, 97.715, 162.3014
27.200001, 97.697, 161.9617
27.600000, 97.670, 161.5016
28.000000, 97.639, 161.0581
28.500000, 97.597, 160.5412
29.000000, 97.559, 160.0787
29.500000, 97.528, 159.6093
30.000000, 97.498, 159.1070
30.400000, 97.470, 158.6780
30.700001, 97.445, 158.3649
31.100000, 97.409, 157.9717
31.500000, 97.374, 157.5992
32.000000, 97.336, 157.1576
32.500000, 97.302, 156.6921
33.000000, 97.268, 156.2067
33.500000, 97.230, 155.7090
34.000000, 97.191, 155.2330
34.500000, 97.154, 154.7747
35.000000, 97.118, 154.3350
35.500000, 97.081, 153.9046
36.000000, 97.045, 153.4933
36.500000, 97.010, 153.0980
37.000000, 96.977, 152.7155
37.500000, 96.944, 152.3288
38.200001, 96.898, 151.7871
38.700001, 96.863, 151.4038
39.500000, 96.807, 150.7961
40.000000, 96.773, 150.4048
40.599998, 96.728, 149.9158
41.200001, 96.679, 149.4468
41.799999, 96.631, 149.0045
42.500000, 96.580, 148.4737
43.099998, 96.533, 148.0031
43.700001, 96.482, 147.5762
44.400002, 96.431, 147.1541
45.000000, 96.400, 146.7696
45.500000, 96.373, 146.3945
46.200001, 96.325, 145.8648
46.799999, 96.280, 145.4802
47.500000, 96.239, 145.0689
48.200001, 96.205, 144.6056
48.700001, 96.177, 144.2481
49.400002, 96.131, 143.7612
50.000000, 96.089, 143.3715
50.799999, 96.032, 142.8872
51.500000, 95.985, 142.4969
52.200001, 95.944, 142.0970
53.000000, 95.897, 141.5883
53.799999, 95.839, 141.0699
54.500000, 95.786, 140.6567
55.200001, 95.735, 140.2576
56.000000, 95.676, 139.8034
57.000000, 95.602, 139.2897
58.000000, 95.541, 138.8022
59.000000, 95.485, 138.2596
60.000000, 95.425, 137.7147
60.799999, 95.377, 137.3035
61.500000, 95.336, 136.9415
62.200001, 95.293, 136.5804
63.000000, 95.242, 136.1971
64.000000, 95.183, 135.7490
65.000000, 95.126, 135.2391
66.000000, 95.059, 134.7218
67.000000, 94.990, 134.2424
68.000000, 94.922, 133.7701
69.000000, 94.856, 133.3214
70.000000, 94.796, 132.8654
71.000000, 94.735, 132.4036
72.000000, 94.675, 131.9666
73.000000, 94.620, 131.5311
74.000000, 94.562, 131.0795
75.000000, 94.500, 130.6573
76.199997, 94.428, 130.1746
77.500000, 94.351, 129.6436
78.800003, 94.273, 129.1282
80.000000, 94.203, 128.6772
81.199997, 94.139, 128.2380
82.500000, 94.071, 127.7344
83.800003, 93.999, 127.2363
85.000000, 93.930, 126.7932
86.199997, 93.862, 126.3825
87.500000, 93.794, 125.9423
88.500000, 93.743, 125.5911
90.000000, 93.666, 125.0587
91.199997, 93.606, 124.6733
92.500000, 93.548, 124.2503
93.800003, 93.487, 123.8044
95.000000, 93.428, 123.4142
96.199997, 93.367, 123.0237
97.500000, 93.299, 122.6125
98.800003, 93.232, 122.2105
100.000000, 93.173, 121.8484
101.500000, 93.102, 121.3934
103.000000, 93.033, 120.9135
104.400002, 92.965, 120.4714
106.000000, 92.888, 120.0045
107.500000, 92.818, 119.5797
109.000000, 92.748, 119.1739
110.599998, 92.675, 118.7568
112.000000, 92.609, 118.3995
113.800003, 92.524, 117.9387
115.000000, 92.468, 117.6099
117.199997, 92.372, 116.9084
118.000000, 92.337, 116.6224
120.599998, 92.211, 115.9036
122.000000, 92.165, 115.6692
124.099998, 92.102, 115.2464
125.000000, 92.072, 115.0462
126.500000, 92.017, 114.6873
128.000000, 91.958, 114.3089
131.500000, 91.835, 113.4758
132.000000, 91.819, 113.3616
134.000000, 91.754, 112.9297
136.000000, 91.691, 112.5042
138.000000, 91.629, 112.0452
140.000000, 91.566, 111.5602
143.000000, 91.476, 110.8871
145.000000, 91.418, 110.4563
147.500000, 91.344, 109.9225
150.000000, 91.274, 109.3844
152.500000, 91.205, 108.8481
155.000000, 91.134, 108.3260
157.500000, 91.064, 107.8234
160.000000, 90.996, 107.2829
162.500000, 90.931, 106.7670
165.000000, 90.869, 106.2734
167.500000, 90.805, 105.7900
170.000000, 90.742, 105.3010
172.500000, 90.680, 104.7991
175.000000, 90.620, 104.3005
177.500000, 90.557, 103.8158
180.000000, 90.492, 103.3987
182.500000, 90.429, 102.9632
185.000000, 90.366, 102.5031
187.500000, 90.304, 102.0392
190.000000, 90.246, 101.5760
192.500000, 90.192, 101.1338
195.000000, 90.142, 100.6955
197.500000, 90.091, 100.2570
200.000000, 90.042, 99.8153
203.000000, 89.986, 99.2755
206.000000, 89.931, 98.7444
209.000000, 89.879, 98.2311
212.000000, 89.831, 97.7004
214.000000, 89.799, 97.3656
218.000000, 89.736, 96.6993
220.000000, 89.705, 96.3675
224.000000, 89.646, 95.6828
227.000000, 89.606, 95.1865
230.000000, 89.566, 94.7114
233.000000, 89.526, 94.2133
236.000000, 89.487, 93.6992
240.000000, 89.439, 93.0145
243.000000, 89.404, 92.5057
247.000000, 89.358, 91.8306
250.000000, 89.326, 91.3252
254.000000, 89.286, 90.6557
258.000000, 89.247, 89.9861
262.000000, 89.206, 89.3117
265.000000, 89.176, 88.8112
269.000000, 89.139, 88.1377
272.000000, 89.113, 87.6395
276.000000, 89.081, 86.9787
280.000000, 89.052, 86.3141
285.000000, 89.017, 85.4870
290.000000, 88.981, 84.6858
295.000000, 88.949, 83.8670
300.000000, 88.918, 83.0528
304.000000, 88.895, 82.4055
307.000000, 88.880, 81.9225
311.000000, 88.861, 81.2763
315.000000, 88.843, 80.6437
320.000000, 88.821, 79.8446
325.000000, 88.799, 79.0431
330.000000, 88.781, 78.2430
335.000000, 88.766, 77.4440
340.000000, 88.750, 76.6499
345.000000, 88.732, 75.8501
350.000000, 88.713, 75.0583
355.000000, 88.697, 74.2597
360.000000, 88.682, 73.4688
365.000000, 88.667, 72.6846
370.000000, 88.655, 71.9051
375.000000, 88.642, 71.1180
382.000000, 88.625, 70.0066
387.000000, 88.613, 69.2095
395.000000, 88.595, 67.9594
400.000000, 88.586, 67.1852
406.000000, 88.574, 66.2457
412.000000, 88.563, 65.2993
418.000000, 88.553, 64.3775
425.000000, 88.542, 63.2929
431.000000, 88.532, 62.3758
437.000000, 88.523, 61.4503
444.000000, 88.515, 60.3764
450.000000, 88.507, 59.4524
455.000000, 88.501, 58.6968
462.000000, 88.492, 57.6331
468.000000, 88.484, 56.7435
475.000000, 88.476, 55.6948
482.000000, 88.472, 54.6469
487.000000, 88.469, 53.9058
494.000000, 88.465, 52.8856
500.000000, 88.462, 52.0061
508.000000, 88.460, 50.8453
515.000000, 88.458, 49.8351
522.000000, 88.456, 48.8386
530.000000, 88.453, 47.7056
538.000000, 88.451, 46.5816
545.000000, 88.449, 45.6063
552.000000, 88.448, 44.6447
560.000000, 88.447, 43.5560
570.000000, 88.448, 42.2187
580.000000, 88.450, 40.8939
590.000000, 88.452, 39.5891
600.000000, 88.453, 38.3045
608.000000, 88.454, 37.2900
615.000000, 88.453, 36.4169
622.000000, 88.453, 35.5522
630.000000, 88.453, 34.5716
640.000000, 88.454, 33.3620
650.000000, 88.458, 32.1716
660.000000, 88.464, 30.9957
670.000000, 88.471, 29.8381
680.000000, 88.480, 28.6901
690.000000, 88.492, 27.5723
700.000000, 88.506, 26.4555
710.000000, 88.523, 25.3521
720.000000, 88.543, 24.2703
730.000000, 88.566, 23.1869
740.000000, 88.590, 22.1121
750.000000, 88.616, 21.0476
762.000000, 88.649, 19.7667
775.000000, 88.685, 18.3857
788.000000, 88.724, 17.0137
800.000000, 88.762, 15.7401
812.000000, 88.802, 14.4844
825.000000, 88.848, 13.1260
838.000000, 88.898, 11.7664
850.000000, 88.946, 10.5242
862.000000, 88.995, 9.2754
875.000000, 89.050, 7.9265
885.000000, 89.094, 6.8951
900.000000, 89.164, 5.3270
912.000000, 89.223, 4.0623
925.000000, 89.290, 2.6918
938.000000, 89.360, 1.3007
950.000000, 89.426, 0.0150
962.000000, 89.492, -1.3013
975.000000, 89.564, -2.7292
988.000000, 89.637, -4.1863
1000.000000, 89.706, -5.5464
1015.000000, 89.793, -7.2692
1030.000000, 89.880, -9.0300
1044.000000, 89.961, -10.7030
1060.000000, 90.054, -12.6353
1075.000000, 90.139, -14.4738
1090.000000, 90.226, -16.3481
1106.000000, 90.327, -18.3687
1120.000000, 90.416, -20.1559
1138.000000, 90.527, -22.4735
1150.000000, 90.600, -24.0289
1172.000000, 90.732, -26.9310
1180.000000, 90.776, -27.9954
1206.000000, 90.915, -31.3955
1220.000000, 90.992, -33.2531
1241.000000, 91.111, -36.0753
1250.000000, 91.159, -37.2700
1265.000000, 91.236, -39.2701
1280.000000, 91.308, -41.2773
1315.000000, 91.468, -45.9418
1320.000000, 91.489, -46.6076
1340.000000, 91.567, -49.2799
1360.000000, 91.623, -51.9292
1380.000000, 91.676, -54.5823
1400.000000, 91.743, -57.2228
1430.000000, 91.851, -61.1791
1450.000000, 91.922, -63.8212
1475.000000, 92.012, -67.1171
1500.000000, 92.102, -70.4301
1525.000000, 92.189, -73.7890
1550.000000, 92.272, -77.1499
1575.000000, 92.351, -80.5556
1600.000000, 92.429, -83.9860
1625.000000, 92.506, -87.4467
1650.000000, 92.581, -90.9427
1675.000000, 92.654, -94.4806
1700.000000, 92.723, -98.0494
1725.000000, 92.789, -101.6748
1750.000000, 92.850, -105.3149
1775.000000, 92.907, -109.0238
1800.000000, 92.959, -112.7633
1825.000000, 93.005, -116.5311
1850.000000, 93.044, -120.3444
1875.000000, 93.076, -124.1954
1900.000000, 93.100, -128.0717
1925.000000, 93.117, -131.9779
1950.000000, 93.124, -135.8979
1975.000000, 93.123, -139.8470
2000.000000, 93.114, -143.8070
2030.000000, 93.093, -148.5685
2060.000000, 93.059, -153.3262
2090.000000, 93.013, -158.0535
2120.000000, 92.956, -162.7805
2140.000000, 92.914, -165.9309
2180.000000, 92.817, -172.1359
2200.000000, 92.761, -175.2205
2240.000000, 92.639, 178.6799
2270.000000, 92.541, 174.1757
2300.000000, 92.441, 169.7186
2330.000000, 92.339, 165.3184
2360.000000, 92.238, 160.9825
2400.000000, 92.105, 155.2599
2430.000000, 92.010, 151.0353
2470.000000, 91.890, 145.4905
2500.000000, 91.808, 141.3721
2540.000000, 91.710, 135.9440
2580.000000, 91.628, 130.5682
2620.000000, 91.563, 125.2281
2650.000000, 91.526, 121.2318
2690.000000, 91.494, 115.9438
2720.000000, 91.484, 111.9347
2760.000000, 91.488, 106.5816
2800.000000, 91.513, 101.1833
2850.000000, 91.585, 94.3132
2900.000000, 91.695, 87.2822
2950.000000, 91.829, 80.0554
3000.000000, 91.985, 72.5532
3040.000000, 92.121, 66.3333
3070.000000, 92.226, 61.5233
3110.000000, 92.364, 54.9195
3150.000000, 92.494, 48.1048
3200.000000, 92.634, 39.2701
3250.000000, 92.733, 30.1130
3300.000000, 92.771, 20.7369
3350.000000, 92.734, 11.2185
3400.000000, 92.613, 1.7562
3450.000000, 92.414, -7.4954
3500.000000, 92.144, -16.3812
3550.000000, 91.819, -24.7561
3600.000000, 91.456, -32.6028
3650.000000, 91.075, -39.8376
3700.000000, 90.700, -46.5054
3750.000000, 90.347, -52.6508
3820.000000, 89.903, -60.4800
3870.000000, 89.630, -65.6094
3950.000000, 89.286, -73.1547
4000.000000, 89.137, -77.5341
4060.000000, 89.027, -82.5864
4120.000000, 88.994, -87.4803
4180.000000, 89.036, -92.3345
4250.000000, 89.171, -98.0954
4310.000000, 89.351, -103.1746
4370.000000, 89.575, -108.4886
4440.000000, 89.882, -115.0161
4500.000000, 90.173, -121.0098
4550.000000, 90.428, -126.2614
4620.000000, 90.785, -134.0977
4680.000000, 91.076, -141.2200
4750.000000, 91.377, -150.0051
4820.000000, 91.606, -159.2014
4870.000000, 91.711, -165.9382
4940.000000, 91.772, -175.4124
5000.000000, 91.745, 176.5472
5080.000000, 91.611, 166.1377
5150.000000, 91.422, 157.4222
5220.000000, 91.185, 149.1763
5300.000000, 90.879, 140.2756
5380.000000, 90.565, 131.9607
5450.000000, 90.298, 125.0851
5520.000000, 90.046, 118.5569
5600.000000, 89.780, 111.4869
5700.000000, 89.486, 103.1223
5800.000000, 89.244, 95.1929
5900.000000, 89.061, 87.6274
6000.000000, 88.943, 80.2456
6080.000000, 88.896, 74.4750
6150.000000, 88.888, 69.4585
6220.000000, 88.908, 64.3981
6300.000000, 88.964, 58.6183
6400.000000, 89.076, 51.2778
6500.000000, 89.231, 43.8098
6600.000000, 89.423, 36.1633
6700.000000, 89.647, 28.2963
6800.000000, 89.905, 20.1892
6900.000000, 90.204, 11.8096
7000.000000, 90.537, 3.1338
7100.000000, 90.882, -5.8654
7200.000000, 91.229, -15.2156
7300.000000, 91.565, -24.8416
7400.000000, 91.876, -34.8119
7500.000000, 92.154, -45.0602
7620.000000, 92.463, -57.6682
7750.000000, 92.773, -71.6653
7880.000000, 92.957, -86.0879
8000.000000, 93.017, -99.7350
8120.000000, 92.979, -113.6095
8250.000000, 92.822, -128.7777
8380.000000, 92.541, -143.8214
8500.000000, 92.178, -157.4827
8620.000000, 91.718, -170.7847
8750.000000, 91.090, 175.3279
8850.000000, 90.550, 165.4075
9000.000000, 89.768, 151.4448
9120.000000, 89.165, 140.7461
9250.000000, 88.525, 129.5746
9380.000000, 87.906, 118.8683
9500.000000, 87.363, 109.2800
9620.000000, 86.851, 99.9950
9750.000000, 86.337, 90.1938
9880.000000, 85.865, 80.5636
10000.000000, 85.462, 71.8802
10150.000000, 85.000, 61.2205
10300.000000, 84.592, 50.7806
10440.000000, 84.268, 41.2039
10600.000000, 83.968, 30.2777
10750.000000, 83.751, 20.0177
10900.000000, 83.593, 9.5995
11060.000000, 83.486, -1.6842
11200.000000, 83.436, -11.7439
11380.000000, 83.416, -25.0759
11500.000000, 83.422, -34.2006
11720.000000, 83.453, -51.4221
11800.000000, 83.465, -57.8027
12060.000000, 83.494, -79.0092
12200.000000, 83.504, -90.5854
12410.000000, 83.520, -108.2942
12500.000000, 83.524, -116.0583
12650.000000, 83.521, -129.1791
12800.000000, 83.501, -142.5398
13150.000000, 83.357, -174.4954
13200.000000, 83.321, -179.1199
13400.000000, 83.138, 162.2485
13600.000000, 82.896, 143.6360
13800.000000, 82.620, 125.1029
14000.000000, 82.337, 106.7285
14300.000000, 81.937, 79.2023
14500.000000, 81.703, 60.6471
14750.000000, 81.415, 36.7032
15000.000000, 81.042, 11.8646
15250.000000, 80.524, -13.1992
15500.000000, 79.962, -37.7676
15750.000000, 79.508, -62.1630
16000.000000, 79.113, -87.6426
