* Measurement data measured by REW V5.31.1
* Source: Headset (DS by VECLAN.COM), MICROPHONE (Master Volume), L, volume: 0.720. Timing signal peak level -21.3 dBFS, measurement signal peak level -15.0 dBFS
* Format: 2M Log Swept Sine, 1 sweep at -12.0 dBFS using an acoustic timing reference
* Dated: Jul 16, 2024 8:27:54 PM
* REW Settings:
*  C-weighting compensation: Off
*  Target level: 85.0 dB
* Note: ; Delay -0.0687 ms (-24 mm, -0.93 in) using estimated IR delay relative to Acoustic reference played from HEADPHONE R with no timing offset
* Measurement: AFUL Explorer white R
* Smoothing: 1/24 octave
* Frequency Step: 1/48 octave
* Start Frequency: 1.000 Hz
*
* Freq(Hz), SPL(dB), Phase(degrees)
1.000000, 83.847, -48.3411
1.015000, 84.167, -49.2612
1.030000, 84.483, -50.1828
1.044000, 84.775, -51.0471
1.060000, 85.102, -52.0431
1.075000, 85.404, -52.9873
1.090000, 85.701, -53.9420
1.106000, 86.013, -54.9608
1.120000, 86.286, -55.8306
1.138000, 86.639, -56.9030
1.150000, 86.874, -57.5880
1.172000, 87.306, -58.7903
1.180000, 87.463, -59.2157
1.206000, 87.971, -60.5344
1.220000, 88.243, -61.2073
1.241000, 88.645, -62.1732
1.250000, 88.816, -62.5725
1.265000, 89.097, -63.2205
1.280000, 89.375, -63.8486
1.315000, 90.001, -65.2497
1.320000, 90.088, -65.4437
1.340000, 90.428, -66.2074
1.360000, 90.754, -66.9539
1.380000, 91.067, -67.7266
1.400000, 91.363, -68.5065
1.430000, 91.774, -69.6705
1.450000, 92.024, -70.4471
1.475000, 92.307, -71.4129
1.500000, 92.554, -72.3475
1.525000, 92.767, -73.2379
1.550000, 92.950, -74.0841
1.575000, 93.106, -74.9107
1.600000, 93.241, -75.7385
1.625000, 93.357, -76.5328
1.650000, 93.459, -77.2981
1.675000, 93.550, -78.0389
1.700000, 93.634, -78.7601
1.725000, 93.715, -79.4661
1.750000, 93.797, -80.1612
1.775000, 93.885, -80.8669
1.800000, 93.981, -81.6033
1.825000, 94.088, -82.3389
1.850000, 94.203, -83.0711
1.875000, 94.320, -83.7911
1.900000, 94.435, -84.4942
1.925000, 94.549, -85.1791
1.950000, 94.661, -85.8447
1.975000, 94.772, -86.5084
2.000000, 94.881, -87.1867
2.030000, 95.010, -87.9773
2.060000, 95.137, -88.7464
2.090000, 95.261, -89.4972
2.120000, 95.384, -90.2330
2.140000, 95.464, -90.7170
2.180000, 95.622, -91.6948
2.200000, 95.699, -92.1998
2.240000, 95.851, -93.2024
2.270000, 95.962, -93.9443
2.300000, 96.071, -94.6741
2.330000, 96.178, -95.3897
2.360000, 96.282, -96.0901
2.400000, 96.418, -97.0472
2.430000, 96.518, -97.7529
2.470000, 96.648, -98.6701
2.500000, 96.744, -99.3415
2.540000, 96.868, -100.2179
2.580000, 96.990, -101.0979
2.620000, 97.108, -102.0088
2.650000, 97.195, -102.6860
2.690000, 97.308, -103.5775
2.720000, 97.390, -104.2348
2.760000, 97.497, -105.0916
2.800000, 97.601, -105.9654
2.850000, 97.726, -107.0298
2.900000, 97.848, -108.0567
2.950000, 97.964, -109.0550
3.000000, 98.075, -110.0748
3.040000, 98.161, -110.8953
3.070000, 98.223, -111.5037
3.110000, 98.303, -112.3019
3.150000, 98.381, -113.0821
3.200000, 98.475, -114.0584
3.250000, 98.565, -115.0134
3.300000, 98.652, -115.9348
3.350000, 98.736, -116.8371
3.400000, 98.816, -117.7636
3.450000, 98.892, -118.6901
3.500000, 98.965, -119.5955
3.550000, 99.035, -120.4730
3.600000, 99.102, -121.3447
3.650000, 99.166, -122.1944
3.700000, 99.227, -123.0197
3.750000, 99.285, -123.8329
3.820000, 99.360, -124.9861
3.870000, 99.411, -125.7959
3.950000, 99.488, -127.0403
4.000000, 99.534, -127.8025
4.060000, 99.587, -128.6953
4.120000, 99.637, -129.5665
4.180000, 99.684, -130.4264
4.250000, 99.736, -131.4333
4.310000, 99.778, -132.2630
4.370000, 99.818, -133.0628
4.440000, 99.862, -133.9922
4.500000, 99.897, -134.7684
4.550000, 99.924, -135.4008
4.620000, 99.961, -136.2892
4.680000, 99.990, -137.0306
4.750000, 100.024, -137.8607
4.820000, 100.056, -138.6819
4.870000, 100.077, -139.2585
4.940000, 100.106, -140.0452
5.000000, 100.130, -140.7145
5.080000, 100.160, -141.5879
5.150000, 100.185, -142.3217
5.220000, 100.208, -143.0551
5.300000, 100.232, -143.8773
5.380000, 100.255, -144.6751
5.450000, 100.273, -145.3684
5.520000, 100.291, -146.0373
5.600000, 100.310, -146.7896
5.700000, 100.332, -147.7171
5.800000, 100.352, -148.6145
5.900000, 100.370, -149.4926
6.000000, 100.386, -150.3467
6.080000, 100.397, -151.0245
6.150000, 100.406, -151.5966
6.220000, 100.414, -152.1657
6.300000, 100.422, -152.7991
6.400000, 100.431, -153.5719
6.500000, 100.438, -154.3309
6.600000, 100.444, -155.0618
6.700000, 100.448, -155.7771
6.800000, 100.452, -156.4696
6.900000, 100.454, -157.1469
7.000000, 100.456, -157.7980
7.100000, 100.458, -158.4333
7.200000, 100.459, -159.0479
7.300000, 100.460, -159.6496
7.400000, 100.461, -160.2319
7.500000, 100.461, -160.8058
7.620000, 100.462, -161.4723
7.750000, 100.462, -162.1701
7.880000, 100.462, -162.8515
8.000000, 100.463, -163.4588
8.120000, 100.463, -164.0543
8.250000, 100.463, -164.6852
8.380000, 100.463, -165.2988
8.500000, 100.462, -165.8564
8.620000, 100.461, -166.4011
8.750000, 100.459, -166.9775
8.850000, 100.457, -167.4120
9.000000, 100.454, -168.0445
9.120000, 100.450, -168.5392
9.250000, 100.446, -169.0645
9.380000, 100.442, -169.5748
9.500000, 100.437, -170.0373
9.620000, 100.432, -170.4847
9.750000, 100.425, -170.9560
9.880000, 100.412, -171.4185
10.000000, 100.390, -171.8291
10.150000, 100.352, -172.3602
10.300000, 100.307, -172.8650
10.440000, 100.260, -173.3131
10.600000, 100.205, -173.7995
10.750000, 100.155, -174.2321
10.900000, 100.106, -174.6433
11.060000, 100.058, -175.0870
11.200000, 100.017, -175.4968
11.380000, 99.966, -176.0011
11.500000, 99.931, -176.3240
11.720000, 99.868, -176.8893
11.800000, 99.846, -177.0866
12.060000, 99.779, -177.7226
12.200000, 99.746, -178.0894
12.410000, 99.701, -178.6160
12.500000, 99.681, -178.8329
12.650000, 99.647, -179.1829
12.800000, 99.613, -179.5187
13.150000, 99.536, 179.6982
13.200000, 99.526, 179.5820
13.400000, 99.486, 179.1315
13.600000, 99.448, 178.7024
13.800000, 99.411, 178.2935
14.000000, 99.376, 177.8980
14.300000, 99.325, 177.2561
14.500000, 99.292, 176.8457
14.750000, 99.249, 176.3561
15.000000, 99.209, 175.8892
15.250000, 99.176, 175.3904
15.500000, 99.145, 174.9128
15.750000, 99.114, 174.4576
16.000000, 99.084, 174.0213
16.250000, 99.054, 173.5569
16.500000, 99.026, 173.1086
16.750000, 98.997, 172.6774
17.000000, 98.970, 172.2605
17.250000, 98.944, 171.8313
17.500000, 98.919, 171.4178
17.750000, 98.894, 171.0235
18.000000, 98.869, 170.6445
18.250000, 98.845, 170.2583
18.500000, 98.822, 169.8833
18.750000, 98.799, 169.5204
19.000000, 98.778, 169.1673
19.250000, 98.758, 168.7983
19.500000, 98.738, 168.4386
19.750000, 98.718, 168.0894
20.000000, 98.697, 167.7513
20.299999, 98.672, 167.3304
20.600000, 98.646, 166.9263
20.900000, 98.619, 166.5385
21.200001, 98.592, 166.1465
21.400000, 98.574, 165.8864
21.799999, 98.536, 165.3845
22.000000, 98.517, 165.1406
22.400000, 98.479, 164.6367
22.700001, 98.450, 164.2731
23.000000, 98.421, 163.9200
23.299999, 98.393, 163.5574
23.600000, 98.365, 163.2029
24.000000, 98.329, 162.7422
24.299999, 98.303, 162.3863
24.700001, 98.269, 161.9220
25.000000, 98.243, 161.5845
25.400000, 98.208, 161.1287
25.799999, 98.173, 160.6926
26.200001, 98.140, 160.2630
26.500000, 98.115, 159.9412
26.900000, 98.083, 159.5217
27.200001, 98.058, 159.2088
27.600000, 98.025, 158.8024
28.000000, 97.993, 158.4156
28.500000, 97.954, 157.9343
29.000000, 97.918, 157.4514
29.500000, 97.879, 156.9464
30.000000, 97.835, 156.4550
30.400000, 97.797, 156.0785
30.700001, 97.769, 155.8144
31.100000, 97.734, 155.4697
31.500000, 97.702, 155.1051
32.000000, 97.660, 154.6309
32.500000, 97.612, 154.1491
33.000000, 97.559, 153.7176
33.500000, 97.511, 153.3306
34.000000, 97.472, 152.9590
34.500000, 97.441, 152.5498
35.000000, 97.407, 152.1060
35.500000, 97.368, 151.6531
36.000000, 97.325, 151.2279
36.500000, 97.281, 150.8310
37.000000, 97.238, 150.4553
37.500000, 97.196, 150.0867
38.200001, 97.138, 149.5960
38.700001, 97.098, 149.2541
39.500000, 97.038, 148.6888
40.000000, 96.999, 148.3207
40.599998, 96.949, 147.8781
41.200001, 96.897, 147.4628
41.799999, 96.848, 147.0562
42.500000, 96.791, 146.5637
43.099998, 96.738, 146.1579
43.700001, 96.685, 145.8116
44.400002, 96.635, 145.4588
45.000000, 96.603, 145.1140
45.500000, 96.576, 144.7667
46.200001, 96.528, 144.2448
46.799999, 96.478, 143.8254
47.500000, 96.421, 143.3798
48.200001, 96.366, 142.9515
48.700001, 96.326, 142.6555
49.400002, 96.272, 142.2676
50.000000, 96.230, 141.9485
50.799999, 96.177, 141.5056
51.500000, 96.131, 141.1052
52.200001, 96.082, 140.7133
53.000000, 96.026, 140.2971
53.799999, 95.973, 139.8989
54.500000, 95.930, 139.5296
55.200001, 95.881, 139.1337
56.000000, 95.817, 138.7165
57.000000, 95.743, 138.2550
58.000000, 95.669, 137.7462
59.000000, 95.585, 137.2856
60.000000, 95.513, 136.8851
60.799999, 95.460, 136.5283
61.500000, 95.412, 136.1996
62.200001, 95.363, 135.8802
63.000000, 95.308, 135.5246
64.000000, 95.240, 135.0877
65.000000, 95.172, 134.6592
66.000000, 95.105, 134.2520
67.000000, 95.040, 133.8515
68.000000, 94.975, 133.4493
69.000000, 94.909, 133.0580
70.000000, 94.842, 132.6747
71.000000, 94.775, 132.2988
72.000000, 94.709, 131.9347
73.000000, 94.644, 131.5893
74.000000, 94.582, 131.2407
75.000000, 94.519, 130.8879
76.199997, 94.441, 130.4785
77.500000, 94.359, 130.0490
78.800003, 94.277, 129.6227
80.000000, 94.203, 129.2340
81.199997, 94.131, 128.8522
82.500000, 94.054, 128.4473
83.800003, 93.979, 128.0620
85.000000, 93.910, 127.7075
86.199997, 93.840, 127.3690
87.500000, 93.766, 127.0120
88.500000, 93.712, 126.7494
90.000000, 93.634, 126.3266
91.199997, 93.571, 125.9761
92.500000, 93.503, 125.6117
93.800003, 93.435, 125.2723
95.000000, 93.374, 124.9746
96.199997, 93.312, 124.6663
97.500000, 93.242, 124.3409
98.800003, 93.171, 124.0311
100.000000, 93.110, 123.7526
101.500000, 93.036, 123.4077
103.000000, 92.964, 123.0648
104.400002, 92.895, 122.7617
106.000000, 92.818, 122.4232
107.500000, 92.746, 122.0768
109.000000, 92.674, 121.7161
110.599998, 92.598, 121.3450
112.000000, 92.533, 121.0697
113.800003, 92.450, 120.7392
115.000000, 92.394, 120.4926
117.199997, 92.287, 119.9570
118.000000, 92.248, 119.7347
120.599998, 92.114, 119.2401
122.000000, 92.076, 119.1346
124.099998, 92.019, 118.8266
125.000000, 91.985, 118.6977
126.500000, 91.924, 118.4922
128.000000, 91.861, 118.2608
131.500000, 91.743, 117.6656
132.000000, 91.730, 117.5695
134.000000, 91.673, 117.1393
136.000000, 91.602, 116.7193
138.000000, 91.527, 116.3684
140.000000, 91.458, 116.1016
143.000000, 91.367, 115.7310
145.000000, 91.306, 115.4659
147.500000, 91.233, 115.1008
150.000000, 91.164, 114.7419
152.500000, 91.095, 114.3908
155.000000, 91.018, 114.0475
157.500000, 90.944, 113.7517
160.000000, 90.879, 113.4124
162.500000, 90.820, 113.0428
165.000000, 90.757, 112.6795
167.500000, 90.688, 112.3725
170.000000, 90.619, 112.0548
172.500000, 90.551, 111.7390
175.000000, 90.488, 111.5189
177.500000, 90.431, 111.3158
180.000000, 90.362, 110.9950
182.500000, 90.293, 110.6869
185.000000, 90.239, 110.4303
187.500000, 90.184, 110.1782
190.000000, 90.121, 109.9089
192.500000, 90.063, 109.6649
195.000000, 90.024, 109.4605
197.500000, 89.991, 109.2342
200.000000, 89.950, 108.9587
203.000000, 89.897, 108.5942
206.000000, 89.850, 108.2397
209.000000, 89.805, 107.9147
212.000000, 89.762, 107.6055
214.000000, 89.736, 107.3616
218.000000, 89.678, 106.7969
220.000000, 89.650, 106.5506
224.000000, 89.594, 106.1685
227.000000, 89.551, 105.8730
230.000000, 89.507, 105.5300
233.000000, 89.465, 105.2036
236.000000, 89.428, 104.9264
240.000000, 89.380, 104.5202
243.000000, 89.343, 104.2171
247.000000, 89.296, 103.8181
250.000000, 89.263, 103.5111
254.000000, 89.220, 103.1029
258.000000, 89.180, 102.7115
262.000000, 89.142, 102.2970
265.000000, 89.115, 101.9923
269.000000, 89.079, 101.6270
272.000000, 89.052, 101.3674
276.000000, 89.022, 100.9984
280.000000, 88.996, 100.6022
285.000000, 88.962, 100.0942
290.000000, 88.929, 99.6392
295.000000, 88.902, 99.1806
300.000000, 88.874, 98.7272
304.000000, 88.853, 98.3602
307.000000, 88.840, 98.0863
311.000000, 88.823, 97.7220
315.000000, 88.806, 97.3522
320.000000, 88.786, 96.8742
325.000000, 88.767, 96.4224
330.000000, 88.753, 95.9662
335.000000, 88.737, 95.5208
340.000000, 88.722, 95.0834
345.000000, 88.704, 94.6364
350.000000, 88.686, 94.1941
355.000000, 88.670, 93.7396
360.000000, 88.655, 93.2924
365.000000, 88.640, 92.8459
370.000000, 88.625, 92.4095
375.000000, 88.610, 91.9887
382.000000, 88.592, 91.4052
387.000000, 88.579, 90.9828
395.000000, 88.556, 90.2995
400.000000, 88.542, 89.8944
406.000000, 88.527, 89.4133
412.000000, 88.512, 88.9279
418.000000, 88.497, 88.4715
425.000000, 88.481, 87.9381
431.000000, 88.467, 87.5090
437.000000, 88.455, 87.0838
444.000000, 88.444, 86.6126
450.000000, 88.438, 86.2211
455.000000, 88.435, 85.9171
462.000000, 88.432, 85.4711
468.000000, 88.433, 85.0961
475.000000, 88.439, 84.6483
482.000000, 88.451, 84.1777
487.000000, 88.461, 83.8214
494.000000, 88.475, 83.3065
500.000000, 88.485, 82.8409
508.000000, 88.491, 82.2172
515.000000, 88.493, 81.6767
522.000000, 88.492, 81.1607
530.000000, 88.489, 80.5926
538.000000, 88.486, 80.0365
545.000000, 88.483, 79.5639
552.000000, 88.479, 79.1091
560.000000, 88.475, 78.6063
570.000000, 88.470, 78.0186
580.000000, 88.466, 77.4586
590.000000, 88.461, 76.9290
600.000000, 88.456, 76.4222
608.000000, 88.452, 76.0358
615.000000, 88.447, 75.7138
622.000000, 88.443, 75.4040
630.000000, 88.438, 75.0612
640.000000, 88.433, 74.6558
650.000000, 88.430, 74.2761
660.000000, 88.428, 73.9085
670.000000, 88.427, 73.5703
680.000000, 88.429, 73.2492
690.000000, 88.433, 72.9571
700.000000, 88.439, 72.6674
710.000000, 88.448, 72.3949
720.000000, 88.459, 72.1451
730.000000, 88.472, 71.9045
740.000000, 88.486, 71.6868
750.000000, 88.503, 71.4886
762.000000, 88.524, 71.2570
775.000000, 88.549, 71.0261
788.000000, 88.578, 70.8125
800.000000, 88.608, 70.6167
812.000000, 88.642, 70.4507
825.000000, 88.682, 70.2719
838.000000, 88.726, 70.0949
850.000000, 88.769, 69.9460
862.000000, 88.815, 69.7951
875.000000, 88.868, 69.6328
885.000000, 88.911, 69.5149
900.000000, 88.981, 69.3208
912.000000, 89.040, 69.1592
925.000000, 89.108, 68.9816
938.000000, 89.178, 68.7792
950.000000, 89.246, 68.5898
962.000000, 89.314, 68.3708
975.000000, 89.389, 68.1344
988.000000, 89.463, 67.8693
1000.000000, 89.533, 67.6073
1015.000000, 89.622, 67.2597
1030.000000, 89.712, 66.8756
1044.000000, 89.796, 66.4903
1060.000000, 89.890, 66.0312
1075.000000, 89.978, 65.5763
1090.000000, 90.071, 65.0859
1106.000000, 90.176, 64.5414
1120.000000, 90.269, 64.0471
1138.000000, 90.385, 63.3928
1150.000000, 90.461, 62.9439
1172.000000, 90.595, 62.1050
1180.000000, 90.643, 61.7905
1206.000000, 90.798, 60.7513
1220.000000, 90.881, 60.1835
1241.000000, 90.998, 59.3551
1250.000000, 91.046, 59.0084
1265.000000, 91.127, 58.4015
1280.000000, 91.210, 57.7742
1315.000000, 91.395, 56.3602
1320.000000, 91.419, 56.1645
1340.000000, 91.505, 55.3687
1360.000000, 91.570, 54.5925
1380.000000, 91.632, 53.8137
1400.000000, 91.709, 53.0526
1430.000000, 91.830, 51.9229
1450.000000, 91.911, 51.1691
1475.000000, 92.015, 50.2315
1500.000000, 92.119, 49.2754
1525.000000, 92.222, 48.2791
1550.000000, 92.321, 47.2848
1575.000000, 92.419, 46.2407
1600.000000, 92.516, 45.1619
1625.000000, 92.610, 44.0523
1650.000000, 92.703, 42.9114
1675.000000, 92.793, 41.7299
1700.000000, 92.882, 40.5131
1725.000000, 92.966, 39.2318
1750.000000, 93.046, 37.9301
1775.000000, 93.121, 36.5552
1800.000000, 93.191, 35.1415
1825.000000, 93.254, 33.6905
1850.000000, 93.311, 32.1860
1875.000000, 93.359, 30.6383
1900.000000, 93.398, 29.0623
1925.000000, 93.428, 27.4491
1950.000000, 93.448, 25.8152
1975.000000, 93.458, 24.1476
2000.000000, 93.457, 22.4674
2030.000000, 93.442, 20.4420
2060.000000, 93.411, 18.4213
2090.000000, 93.365, 16.4360
2120.000000, 93.305, 14.4591
2140.000000, 93.258, 13.1478
2180.000000, 93.148, 10.6386
2200.000000, 93.085, 9.4109
2240.000000, 92.945, 7.0474
2270.000000, 92.832, 5.3664
2300.000000, 92.715, 3.7523
2330.000000, 92.595, 2.2134
2360.000000, 92.475, 0.7576
2400.000000, 92.318, -1.0984
2430.000000, 92.204, -2.4019
2470.000000, 92.061, -4.0269
2500.000000, 91.962, -5.1912
2540.000000, 91.844, -6.6655
2580.000000, 91.744, -8.0685
2620.000000, 91.666, -9.4252
2650.000000, 91.621, -10.4285
2690.000000, 91.582, -11.7205
2720.000000, 91.569, -12.7261
2760.000000, 91.574, -14.0807
2800.000000, 91.610, -15.4939
2850.000000, 91.696, -17.3928
2900.000000, 91.822, -19.4688
2950.000000, 91.989, -21.8080
3000.000000, 92.192, -24.4921
3040.000000, 92.374, -26.9385
3070.000000, 92.517, -28.9808
3110.000000, 92.708, -31.9912
3150.000000, 92.887, -35.3324
3200.000000, 93.074, -39.9762
3250.000000, 93.194, -45.0492
3300.000000, 93.229, -50.3824
3350.000000, 93.164, -55.8385
3400.000000, 92.997, -61.1677
3450.000000, 92.737, -66.1857
3500.000000, 92.401, -70.7253
3550.000000, 92.007, -74.6403
3600.000000, 91.578, -77.9273
3650.000000, 91.135, -80.5121
3700.000000, 90.699, -82.4279
3750.000000, 90.293, -83.7364
3820.000000, 89.798, -84.6625
3870.000000, 89.505, -84.7982
3950.000000, 89.161, -84.3129
4000.000000, 89.030, -83.6913
4060.000000, 88.956, -82.7900
4120.000000, 88.967, -81.7830
4180.000000, 89.056, -80.7782
4250.000000, 89.250, -79.7484
4310.000000, 89.483, -79.0416
4370.000000, 89.762, -78.6078
4440.000000, 90.132, -78.4794
4500.000000, 90.476, -78.8114
4550.000000, 90.767, -79.3697
4620.000000, 91.167, -80.6523
4680.000000, 91.482, -82.1485
4750.000000, 91.790, -84.2775
4820.000000, 92.014, -86.6926
4870.000000, 92.118, -88.5171
4940.000000, 92.184, -91.0319
5000.000000, 92.169, -93.0710
5080.000000, 92.060, -95.4589
5150.000000, 91.898, -97.1486
5220.000000, 91.693, -98.3582
5300.000000, 91.428, -99.1965
5380.000000, 91.151, -99.4080
5450.000000, 90.916, -99.1678
5520.000000, 90.705, -98.5791
5600.000000, 90.500, -97.5325
5700.000000, 90.299, -95.8380
5800.000000, 90.158, -93.8630
5900.000000, 90.069, -91.6844
6000.000000, 90.029, -89.4508
6080.000000, 90.028, -87.5831
6150.000000, 90.050, -85.9351
6220.000000, 90.090, -84.3414
6300.000000, 90.154, -82.5283
6400.000000, 90.256, -80.3824
6500.000000, 90.372, -78.3226
6600.000000, 90.497, -76.3411
6700.000000, 90.633, -74.4342
6800.000000, 90.785, -72.5895
6900.000000, 90.970, -70.8237
7000.000000, 91.189, -69.1589
7100.000000, 91.427, -67.6308
7200.000000, 91.671, -66.2675
7300.000000, 91.916, -65.0328
7400.000000, 92.160, -64.0430
7500.000000, 92.398, -63.2893
7620.000000, 92.681, -62.7614
7750.000000, 92.967, -62.5948
7880.000000, 93.128, -62.8533
8000.000000, 93.168, -63.3909
8120.000000, 93.115, -64.1172
8250.000000, 92.947, -65.0339
8380.000000, 92.647, -65.8955
8500.000000, 92.217, -66.3411
8620.000000, 91.690, -65.6979
8750.000000, 91.129, -64.2662
8850.000000, 90.695, -62.8755
9000.000000, 90.035, -60.2019
9120.000000, 89.522, -57.5236
9250.000000, 88.998, -54.2559
9380.000000, 88.508, -50.6810
9500.000000, 88.083, -47.2349
9620.000000, 87.678, -43.5947
9750.000000, 87.263, -39.4543
9880.000000, 86.874, -35.1376
10000.000000, 86.536, -30.8918
10150.000000, 86.154, -25.3154
10300.000000, 85.831, -19.4896
10440.000000, 85.589, -13.8722
10600.000000, 85.388, -7.4082
10750.000000, 85.272, -1.3669
10900.000000, 85.226, 4.4737
11060.000000, 85.248, 10.4413
11200.000000, 85.315, 15.3670
11380.000000, 85.445, 21.1050
11500.000000, 85.546, 24.5386
11720.000000, 85.716, 29.9319
11800.000000, 85.754, 31.6253
12060.000000, 85.670, 36.5760
12200.000000, 85.507, 39.8577
12410.000000, 85.338, 45.6595
12500.000000, 85.306, 48.0571
12650.000000, 85.269, 51.8398
12800.000000, 85.238, 55.4080
13150.000000, 85.185, 62.9933
13200.000000, 85.177, 63.9733
13400.000000, 85.124, 67.5196
13600.000000, 85.023, 70.6361
13800.000000, 84.865, 73.4089
14000.000000, 84.651, 76.0111
14300.000000, 84.222, 79.6172
14500.000000, 83.860, 81.8476
14750.000000, 83.289, 84.3882
15000.000000, 82.538, 87.0848
15250.000000, 81.640, 90.8290
15500.000000, 80.787, 96.1120
15750.000000, 80.176, 102.0817
16000.000000, 79.736, 107.0890
16250.000000, 79.208, 110.8128
