* Measurement data measured by REW V5.20.13
* Source: Headset (DS by VECLAN.COM), MICROPHONE (Master Volume), L, volume: 0.720. Timing signal peak level -19.3 dBFS, measurement signal peak level -15.8 dBFS
* Format: 4M Log Swept Sine, 1 sweep at -12.0 dBFS using an acoustic timing reference
* Dated: Dec 30, 2023 10:41:59 PM
* REW Settings:
*  C-weighting compensation: Off
*  Target level: 75.0 dB
* Note: ; Delay -0.0750 ms (-26 mm, -1.01 in) using estimated IR delay relative to Acoustic reference played from  R with no timing offset
* Measurement: AFUL MagicOne S2 Deep R
* Smoothing: 1/24 octave
* Frequency Step: 1/48 octave
* Start Frequency: 1.000 Hz
*
* Freq(Hz) SPL(dB) Phase(degrees)
1.000000 76.680 96.9011
1.015000 76.994 94.8959
1.030000 77.302 93.0281
1.044000 77.584 91.4177
1.060000 77.897 89.7451
1.075000 78.181 88.3502
1.090000 78.455 87.1332
1.106000 78.735 86.0502
1.120000 78.978 85.3286
1.138000 79.289 84.7000
1.150000 79.496 84.4536
1.172000 79.872 84.3250
1.180000 80.008 84.3726
1.206000 80.446 84.8304
1.220000 80.679 85.2442
1.241000 81.024 86.0436
1.250000 81.170 86.4409
1.265000 81.411 87.1616
1.280000 81.649 87.9389
1.315000 82.188 89.8701
1.320000 82.263 90.1494
1.340000 82.559 91.2473
1.360000 82.846 92.2821
1.380000 83.123 93.2098
1.400000 83.391 93.9868
1.430000 83.773 94.7736
1.450000 84.014 94.9818
1.475000 84.297 94.8312
1.500000 84.561 94.3777
1.525000 84.805 93.6955
1.550000 85.032 92.8193
1.575000 85.243 91.7837
1.600000 85.440 90.6233
1.625000 85.624 89.3727
1.650000 85.797 88.0667
1.675000 85.960 86.7398
1.700000 86.116 85.4266
1.725000 86.265 84.1618
1.750000 86.409 82.9800
1.775000 86.550 81.9159
1.800000 86.689 81.0040
1.825000 86.828 80.2790
1.850000 86.964 79.7460
1.875000 87.091 79.3432
1.900000 87.209 79.0519
1.925000 87.319 78.8559
1.950000 87.421 78.7389
1.975000 87.518 78.6848
2.000000 87.609 78.6773
2.030000 87.714 78.7071
2.060000 87.816 78.7526
2.090000 87.915 78.7859
2.120000 88.014 78.7790
2.140000 88.081 78.7382
2.180000 88.218 78.5324
2.200000 88.291 78.3511
2.240000 88.437 77.8927
2.270000 88.545 77.4960
2.300000 88.653 77.0616
2.330000 88.760 76.5963
2.360000 88.866 76.1071
2.400000 89.005 75.4293
2.430000 89.108 74.9109
2.470000 89.242 74.2192
2.500000 89.340 73.7090
2.540000 89.468 73.0532
2.580000 89.592 72.4341
2.620000 89.712 71.8101
2.650000 89.800 71.3354
2.690000 89.914 70.6996
2.720000 89.998 70.2246
2.760000 90.107 69.6001
2.800000 90.213 68.9924
2.850000 90.342 68.2678
2.900000 90.468 67.5960
2.950000 90.590 66.9940
3.000000 90.708 66.4829
3.040000 90.800 66.1256
3.070000 90.866 65.8783
3.110000 90.953 65.5641
3.150000 91.038 65.2544
3.200000 91.142 64.8513
3.250000 91.243 64.4038
3.300000 91.342 63.8833
3.350000 91.439 63.2719
3.400000 91.533 62.5907
3.450000 91.624 61.8693
3.500000 91.712 61.1375
3.550000 91.798 60.4250
3.600000 91.883 59.7617
3.650000 91.965 59.1773
3.700000 92.046 58.6945
3.750000 92.124 58.2981
3.820000 92.230 57.8392
3.870000 92.304 57.5455
3.950000 92.419 57.0634
4.000000 92.488 56.7149
4.060000 92.571 56.2118
4.120000 92.651 55.6348
4.180000 92.729 55.0152
4.250000 92.818 54.2780
4.310000 92.892 53.6674
4.370000 92.964 53.1074
4.440000 93.046 52.5482
4.500000 93.115 52.1335
4.550000 93.171 51.8175
4.620000 93.247 51.3974
4.680000 93.311 51.0365
4.750000 93.384 50.5868
4.820000 93.457 50.0918
4.870000 93.508 49.7231
4.940000 93.578 49.1965
5.000000 93.636 48.7448
5.080000 93.712 48.1577
5.150000 93.776 47.6716
5.220000 93.837 47.2061
5.300000 93.905 46.6912
5.380000 93.969 46.1902
5.450000 94.024 45.7592
5.520000 94.076 45.3323
5.600000 94.132 44.8504
5.700000 94.199 44.2612
5.800000 94.262 43.6905
5.900000 94.323 43.1424
6.000000 94.382 42.6147
6.080000 94.427 42.2073
6.150000 94.466 41.8620
6.220000 94.504 41.5274
6.300000 94.547 41.1619
6.400000 94.600 40.7292
6.500000 94.652 40.3112
6.600000 94.703 39.8945
6.700000 94.753 39.4760
6.800000 94.802 39.0622
6.900000 94.850 38.6572
7.000000 94.898 38.2657
7.100000 94.946 37.8910
7.200000 94.993 37.5245
7.300000 95.039 37.1559
7.400000 95.084 36.7789
7.500000 95.129 36.3987
7.620000 95.182 35.9405
7.750000 95.236 35.4436
7.880000 95.287 34.9449
8.000000 95.331 34.4849
8.120000 95.371 34.0258
8.250000 95.411 33.5260
8.380000 95.447 33.0361
8.500000 95.476 32.6016
8.620000 95.501 32.1794
8.750000 95.526 31.7415
8.850000 95.544 31.4228
9.000000 95.569 30.9725
9.120000 95.588 30.6307
9.250000 95.610 30.2767
9.380000 95.633 29.9415
9.500000 95.652 29.6404
9.620000 95.670 29.3434
9.750000 95.689 29.0294
9.880000 95.701 28.7181
10.000000 95.705 28.4283
10.150000 95.703 28.0684
10.300000 95.693 27.7250
10.440000 95.675 27.4194
10.600000 95.651 27.0887
10.750000 95.631 26.8011
10.900000 95.610 26.5323
11.060000 95.592 26.2588
11.200000 95.579 26.0317
11.380000 95.566 25.7531
11.500000 95.560 25.5777
11.720000 95.555 25.2625
11.800000 95.555 25.1464
12.060000 95.566 24.7589
12.200000 95.576 24.5236
12.410000 95.595 24.1403
12.500000 95.602 23.9656
12.650000 95.614 23.6581
12.800000 95.624 23.3406
13.150000 95.636 22.5817
13.200000 95.637 22.4761
13.400000 95.637 22.0599
13.600000 95.636 21.6710
13.800000 95.633 21.3176
14.000000 95.632 20.9941
14.300000 95.631 20.5592
14.500000 95.634 20.2906
14.750000 95.641 19.9605
15.000000 95.652 19.6273
15.250000 95.666 19.2773
15.500000 95.681 18.9227
15.750000 95.693 18.5712
16.000000 95.702 18.2381
16.250000 95.708 17.9258
16.500000 95.715 17.6339
16.750000 95.722 17.3594
17.000000 95.732 17.0935
17.250000 95.744 16.8319
17.500000 95.756 16.5701
17.750000 95.767 16.3063
18.000000 95.777 16.0419
18.250000 95.785 15.7778
18.500000 95.792 15.5215
18.750000 95.800 15.2736
19.000000 95.809 15.0350
19.250000 95.819 14.7988
19.500000 95.831 14.5620
19.750000 95.843 14.3221
20.000000 95.854 14.0793
20.299999 95.867 13.7872
20.600000 95.878 13.4979
20.900000 95.888 13.2155
21.200001 95.897 12.9419
21.400000 95.902 12.7647
21.799999 95.912 12.4215
22.000000 95.917 12.2541
22.400000 95.927 11.9237
22.700001 95.934 11.6783
23.000000 95.941 11.4341
23.299999 95.948 11.1912
23.600000 95.954 10.9508
24.000000 95.962 10.6382
24.299999 95.967 10.4128
24.700001 95.975 10.1255
25.000000 95.981 9.9172
25.400000 95.991 9.6429
25.799999 96.001 9.3672
26.200001 96.009 9.0908
26.500000 96.014 8.8880
26.900000 96.020 8.6307
27.200001 96.024 8.4490
27.600000 96.030 8.2173
28.000000 96.037 7.9868
28.500000 96.046 7.6910
29.000000 96.054 7.3994
29.500000 96.063 7.1267
30.000000 96.074 6.8596
30.400000 96.083 6.6265
30.700001 96.088 6.4326
31.100000 96.093 6.1551
31.500000 96.091 5.8766
32.000000 96.083 5.5664
32.500000 96.075 5.3168
33.000000 96.071 5.1024
33.500000 96.072 4.8826
34.000000 96.074 4.6364
34.500000 96.076 4.3750
35.000000 96.076 4.1196
35.500000 96.076 3.8795
36.000000 96.077 3.6518
36.500000 96.078 3.4298
37.000000 96.079 3.2045
37.500000 96.079 2.9733
38.200001 96.078 2.6532
38.700001 96.076 2.4335
39.500000 96.074 2.0891
40.000000 96.072 1.8779
40.599998 96.070 1.6326
41.200001 96.068 1.3926
41.799999 96.066 1.1510
42.500000 96.064 0.8693
43.099998 96.061 0.6389
43.700001 96.058 0.4235
44.400002 96.057 0.1794
45.000000 96.056 -0.0361
45.500000 96.054 -0.2188
46.200001 96.050 -0.4686
46.799999 96.045 -0.6756
47.500000 96.040 -0.9139
48.200001 96.035 -1.1458
48.700001 96.032 -1.3076
49.400002 96.028 -1.5387
50.000000 96.025 -1.7434
50.799999 96.020 -2.0128
51.500000 96.015 -2.2390
52.200001 96.011 -2.4595
53.000000 96.005 -2.7050
53.799999 95.998 -2.9393
54.500000 95.990 -3.1342
55.200001 95.980 -3.3256
56.000000 95.969 -3.5464
57.000000 95.954 -3.8184
58.000000 95.935 -4.1101
59.000000 95.907 -4.3864
60.000000 95.885 -4.5651
60.799999 95.883 -4.7394
61.500000 95.883 -4.9438
62.200001 95.877 -5.1476
63.000000 95.868 -5.3585
64.000000 95.856 -5.6172
65.000000 95.844 -5.8654
66.000000 95.831 -6.1083
67.000000 95.816 -6.3442
68.000000 95.800 -6.5648
69.000000 95.786 -6.7952
70.000000 95.770 -7.0450
71.000000 95.747 -7.2654
72.000000 95.729 -7.4446
73.000000 95.715 -7.6205
74.000000 95.699 -7.7969
75.000000 95.681 -7.9749
76.199997 95.659 -8.1935
77.500000 95.634 -8.4371
78.800003 95.610 -8.6848
80.000000 95.587 -8.9091
81.199997 95.563 -9.1161
82.500000 95.538 -9.3193
83.800003 95.513 -9.5203
85.000000 95.490 -9.6978
86.199997 95.469 -9.8773
87.500000 95.447 -10.0818
88.500000 95.429 -10.2350
90.000000 95.401 -10.4423
91.199997 95.379 -10.6014
92.500000 95.356 -10.7717
93.800003 95.333 -10.9380
95.000000 95.311 -11.0977
96.199997 95.287 -11.2568
97.500000 95.261 -11.4158
98.800003 95.236 -11.5625
100.000000 95.213 -11.6948
101.500000 95.184 -11.8683
103.000000 95.156 -12.0397
104.400002 95.128 -12.1898
106.000000 95.093 -12.3452
107.500000 95.062 -12.4861
109.000000 95.033 -12.6382
110.599998 95.000 -12.7990
112.000000 94.970 -12.9203
113.800003 94.935 -13.0614
115.000000 94.910 -13.1633
117.199997 94.863 -13.3851
118.000000 94.845 -13.4694
120.599998 94.791 -13.7085
122.000000 94.768 -13.8169
124.099998 94.737 -13.9640
125.000000 94.722 -14.0211
126.500000 94.695 -14.1099
128.000000 94.668 -14.1982
131.500000 94.606 -14.4158
132.000000 94.598 -14.4471
134.000000 94.566 -14.5673
136.000000 94.534 -14.6630
138.000000 94.503 -14.7559
140.000000 94.471 -14.8718
143.000000 94.427 -15.0271
145.000000 94.399 -15.1240
147.500000 94.363 -15.2355
150.000000 94.327 -15.3342
152.500000 94.291 -15.4408
155.000000 94.253 -15.5571
157.500000 94.215 -15.6619
160.000000 94.177 -15.7621
162.500000 94.140 -15.8527
165.000000 94.102 -15.9372
167.500000 94.064 -16.0232
170.000000 94.022 -16.1060
172.500000 93.979 -16.1897
175.000000 93.939 -16.2766
177.500000 93.896 -16.3521
180.000000 93.855 -16.4305
182.500000 93.813 -16.5249
185.000000 93.771 -16.6212
187.500000 93.728 -16.7126
190.000000 93.686 -16.7953
192.500000 93.644 -16.8746
195.000000 93.603 -16.9572
197.500000 93.561 -17.0374
200.000000 93.520 -17.1139
203.000000 93.473 -17.2143
206.000000 93.421 -17.3331
209.000000 93.363 -17.4532
212.000000 93.308 -17.5435
214.000000 93.273 -17.5932
218.000000 93.192 -17.7103
220.000000 93.149 -17.7632
224.000000 93.066 -17.8349
227.000000 92.998 -17.8870
230.000000 92.926 -17.9354
233.000000 92.855 -17.9365
236.000000 92.787 -17.8750
240.000000 92.689 -17.7772
243.000000 92.614 -17.7145
247.000000 92.519 -17.5565
250.000000 92.453 -17.3921
254.000000 92.364 -17.1603
258.000000 92.277 -16.8873
262.000000 92.199 -16.5701
265.000000 92.143 -16.3303
269.000000 92.072 -16.0058
272.000000 92.026 -15.7432
276.000000 91.971 -15.3707
280.000000 91.918 -15.0043
285.000000 91.862 -14.5625
290.000000 91.811 -14.1187
295.000000 91.765 -13.6891
300.000000 91.722 -13.2408
304.000000 91.690 -12.8975
307.000000 91.671 -12.6808
311.000000 91.647 -12.4053
315.000000 91.624 -12.1041
320.000000 91.599 -11.7276
325.000000 91.571 -11.4089
330.000000 91.545 -11.0988
335.000000 91.523 -10.7687
340.000000 91.496 -10.4584
345.000000 91.470 -10.1625
350.000000 91.445 -9.8646
355.000000 91.417 -9.5653
360.000000 91.390 -9.2679
365.000000 91.365 -8.9861
370.000000 91.339 -8.7125
375.000000 91.314 -8.4382
382.000000 91.278 -8.0558
387.000000 91.254 -7.7864
395.000000 91.213 -7.3766
400.000000 91.187 -7.1168
406.000000 91.157 -6.7745
412.000000 91.126 -6.4498
418.000000 91.097 -6.1312
425.000000 91.063 -5.7402
431.000000 91.032 -5.4081
437.000000 91.005 -5.0886
444.000000 90.974 -4.7167
450.000000 90.948 -4.3826
455.000000 90.927 -4.1028
462.000000 90.900 -3.7281
468.000000 90.877 -3.4022
475.000000 90.851 -3.0200
482.000000 90.826 -2.6499
487.000000 90.812 -2.3933
494.000000 90.793 -2.0558
500.000000 90.776 -1.7630
508.000000 90.751 -1.3455
515.000000 90.728 -0.9979
522.000000 90.706 -0.6564
530.000000 90.682 -0.2382
538.000000 90.658 0.1565
545.000000 90.637 0.4938
552.000000 90.617 0.8607
560.000000 90.592 1.2900
570.000000 90.561 1.8027
580.000000 90.530 2.3365
590.000000 90.501 2.8800
600.000000 90.473 3.4067
608.000000 90.446 3.8451
615.000000 90.424 4.2515
622.000000 90.404 4.6691
630.000000 90.383 5.1363
640.000000 90.357 5.7050
650.000000 90.330 6.2997
660.000000 90.303 6.9073
670.000000 90.277 7.5073
680.000000 90.255 8.1104
690.000000 90.235 8.7336
700.000000 90.217 9.3646
710.000000 90.205 9.9999
720.000000 90.194 10.6461
730.000000 90.182 11.2958
740.000000 90.173 11.9529
750.000000 90.168 12.6157
762.000000 90.164 13.4208
775.000000 90.161 14.3068
788.000000 90.161 15.1884
800.000000 90.166 15.9949
812.000000 90.174 16.8088
825.000000 90.188 17.6939
838.000000 90.205 18.5714
850.000000 90.226 19.3761
862.000000 90.250 20.1810
875.000000 90.278 21.0441
885.000000 90.301 21.6912
900.000000 90.343 22.6410
912.000000 90.382 23.4045
925.000000 90.428 24.2006
938.000000 90.476 24.9680
950.000000 90.521 25.6646
962.000000 90.567 26.3491
975.000000 90.625 27.0902
988.000000 90.692 27.7947
1000.000000 90.753 28.4196
1015.000000 90.813 29.1425
1030.000000 90.875 29.8123
1044.000000 90.939 30.4199
1060.000000 91.012 31.1028
1075.000000 91.078 31.7187
1090.000000 91.149 32.2897
1106.000000 91.233 32.8667
1120.000000 91.310 33.3520
1138.000000 91.407 33.9360
1150.000000 91.470 34.3160
1172.000000 91.581 34.9984
1180.000000 91.620 35.2416
1206.000000 91.745 36.0092
1220.000000 91.813 36.4054
1241.000000 91.916 37.0065
1250.000000 91.959 37.2720
1265.000000 92.031 37.7131
1280.000000 92.101 38.1609
1315.000000 92.260 39.2207
1320.000000 92.282 39.3702
1340.000000 92.363 39.9836
1360.000000 92.428 40.6227
1380.000000 92.493 41.2666
1400.000000 92.571 41.9200
1430.000000 92.701 42.9154
1450.000000 92.795 43.5832
1475.000000 92.914 44.4402
1500.000000 93.041 45.2951
1525.000000 93.174 46.1515
1550.000000 93.309 47.0021
1575.000000 93.448 47.8472
1600.000000 93.596 48.6707
1625.000000 93.752 49.4641
1650.000000 93.917 50.2363
1675.000000 94.094 50.9555
1700.000000 94.276 51.6195
1725.000000 94.464 52.2295
1750.000000 94.660 52.7666
1775.000000 94.862 53.2317
1800.000000 95.070 53.6089
1825.000000 95.283 53.8821
1850.000000 95.496 54.0548
1875.000000 95.711 54.1240
1900.000000 95.923 54.0880
1925.000000 96.129 53.9522
1950.000000 96.331 53.7073
1975.000000 96.528 53.3586
2000.000000 96.710 52.8958
2030.000000 96.901 52.1571
2060.000000 97.072 51.3053
2090.000000 97.227 50.4451
2120.000000 97.358 49.5741
2140.000000 97.431 48.9859
2180.000000 97.542 47.8250
2200.000000 97.582 47.2689
2240.000000 97.631 46.2580
2270.000000 97.652 45.5972
2300.000000 97.662 45.0193
2330.000000 97.665 44.5234
2360.000000 97.665 44.0921
2400.000000 97.662 43.5998
2430.000000 97.654 43.2848
2470.000000 97.636 42.9171
2500.000000 97.618 42.6953
2540.000000 97.589 42.4797
2580.000000 97.561 42.3636
2620.000000 97.537 42.3317
2650.000000 97.522 42.3515
2690.000000 97.508 42.4381
2720.000000 97.502 42.5373
2760.000000 97.500 42.6891
2800.000000 97.504 42.8541
2850.000000 97.523 43.0572
2900.000000 97.556 43.2412
2950.000000 97.594 43.3968
3000.000000 97.641 43.5105
3040.000000 97.683 43.5346
3070.000000 97.716 43.5198
3110.000000 97.760 43.4700
3150.000000 97.804 43.3764
3200.000000 97.856 43.1856
3250.000000 97.901 42.9154
3300.000000 97.940 42.5751
3350.000000 97.970 42.1713
3400.000000 97.989 41.7198
3450.000000 98.000 41.2405
3500.000000 98.001 40.7495
3550.000000 97.991 40.2602
3600.000000 97.970 39.7929
3650.000000 97.941 39.3516
3700.000000 97.906 38.9103
3750.000000 97.864 38.4566
3820.000000 97.786 37.8118
3870.000000 97.710 37.3659
3950.000000 97.552 36.7458
4000.000000 97.436 36.4360
4060.000000 97.288 36.1605
4120.000000 97.129 36.0121
4180.000000 96.964 35.9804
4250.000000 96.769 36.0767
4310.000000 96.600 36.2675
4370.000000 96.424 36.5581
4440.000000 96.221 37.0168
4500.000000 96.054 37.5002
4550.000000 95.921 37.9500
4620.000000 95.746 38.6263
4680.000000 95.607 39.2352
4750.000000 95.453 39.9692
4820.000000 95.307 40.7141
4870.000000 95.206 41.2534
4940.000000 95.068 42.0042
5000.000000 94.954 42.6418
5080.000000 94.806 43.5017
5150.000000 94.679 44.2351
5220.000000 94.556 44.9314
5300.000000 94.416 45.6845
5380.000000 94.268 46.4068
5450.000000 94.128 47.0328
5520.000000 93.980 47.6817
5600.000000 93.801 48.5148
5700.000000 93.563 49.8105
5800.000000 93.316 51.4267
5900.000000 93.105 53.2849
6000.000000 92.936 55.2704
6080.000000 92.817 56.8914
6150.000000 92.737 58.2825
6220.000000 92.683 59.6291
6300.000000 92.627 61.1249
6400.000000 92.556 62.9474
6500.000000 92.507 64.7123
6600.000000 92.475 66.4844
6700.000000 92.455 68.3110
6800.000000 92.454 70.1680
6900.000000 92.478 72.0260
7000.000000 92.526 73.8718
7100.000000 92.577 75.7065
7200.000000 92.642 77.4986
7300.000000 92.744 79.1847
7400.000000 92.873 80.7390
7500.000000 93.030 82.0786
7620.000000 93.271 83.2219
7750.000000 93.548 83.7597
7880.000000 93.724 83.5094
8000.000000 93.767 82.6576
8120.000000 93.684 81.4117
8250.000000 93.433 79.9427
8380.000000 92.978 78.8754
8500.000000 92.352 79.2572
8620.000000 91.658 82.7865
8750.000000 91.574 89.2353
8850.000000 91.993 91.0040
9000.000000 92.046 88.7469
9120.000000 91.635 88.3908
9250.000000 91.189 89.9715
9380.000000 90.883 92.2889
9500.000000 90.736 94.4239
9620.000000 90.688 96.2519
9750.000000 90.690 97.7314
9880.000000 90.721 98.6248
10000.000000 90.753 98.9048
10150.000000 90.740 98.5829
10300.000000 90.630 97.7115
10440.000000 90.437 96.6393
10600.000000 90.113 95.3791
10750.000000 89.721 94.3457
10900.000000 89.256 93.5302
11060.000000 88.685 92.9243
11200.000000 88.120 92.7401
11380.000000 87.324 93.4044
11500.000000 86.804 94.4945
11720.000000 85.986 97.0030
11800.000000 85.722 97.8514
12060.000000 84.857 100.2499
12200.000000 84.355 101.5134
12410.000000 83.545 103.6440
12500.000000 83.178 104.6899
12650.000000 82.549 106.6595
12800.000000 81.909 108.9434
13150.000000 80.452 115.5148
13200.000000 80.253 116.5874
13400.000000 79.491 121.1923
13600.000000 78.803 126.2596
13800.000000 78.221 131.6803
14000.000000 77.775 137.3041
14300.000000 77.351 145.8149
14500.000000 77.229 151.2664
14750.000000 77.268 157.4879
15000.000000 77.491 162.7770
15250.000000 77.897 166.8609
15500.000000 78.517 169.4236
15750.000000 79.335 170.1333
16000.000000 80.274 168.6685
16250.000000 81.288 164.5829
16500.000000 82.309 157.1992
16750.000000 83.191 145.5955
17000.000000 83.661 128.9841
17250.000000 83.326 108.2670
17500.000000 81.932 87.3832
17750.000000 79.569 70.8254
18000.000000 76.587 60.2085
18250.000000 73.339 54.6066
18500.000000 70.020 52.6861
18750.000000 66.641 54.0385
19000.000000 63.073 60.1519
19250.000000 59.140 75.7360
19500.000000 55.115 105.9757
19750.000000 53.372 144.2621
20000.000000 54.921 173.7785
20300.000000 57.235 -168.4394
20600.000000 58.907 -160.2847
20900.000000 60.137 -155.1013
21200.000000 61.084 -150.8360
21400.000000 61.650 -147.8507
21800.000000 62.894 -143.0628
22000.000000 63.529 -147.3721
22400.000000 63.896 18.5023
22700.000000 61.826 165.9156
23000.000000 56.722 142.1055
23300.000000 49.332 -12.3750
23600.000000 42.350 -115.9180
24000.000000 39.057 -118.4727
