* Measurement data measured by REW V5.31.3
* Source: Headset (DS by VECLAN.COM), MICROPHONE (Master Volume), L, volume: 0.720. Timing signal peak level -21.5 dBFS, measurement signal peak level -15.1 dBFS
* Format: 4M Log Swept Sine, 1 sweep at -11.3 dBFS using an acoustic timing reference
* Dated: Sep 9, 2024 12:18:53 PM
* REW Settings:
*  C-weighting compensation: Off
*  Target level: 85.0 dB
* Note: ; Fosi DS1 Delay -0.0682 ms (-23 mm, -0.92 in) using estimated IR delay relative to Acoustic reference played from SPEAKER L with no timing offset Clock adjustment: -26.1 ppm
* Measurement: white L
* Smoothing: 1/24 octave
* Frequency Step: 1/48 octave
* Start Frequency: 1.000 Hz
*
* Freq(Hz), SPL(dB), Phase(degrees)
1.000000, 80.459, -36.5027
1.015000, 80.898, -37.5868
1.030000, 81.325, -38.6710
1.044000, 81.713, -39.6873
1.060000, 82.141, -40.8582
1.075000, 82.526, -41.9682
1.090000, 82.894, -43.0903
1.106000, 83.270, -44.2857
1.120000, 83.589, -45.3016
1.138000, 83.990, -46.5458
1.150000, 84.251, -47.3358
1.172000, 84.718, -48.7101
1.180000, 84.884, -49.1906
1.206000, 85.409, -50.6721
1.220000, 85.684, -51.4238
1.241000, 86.084, -52.4981
1.250000, 86.251, -52.9409
1.265000, 86.525, -53.6582
1.280000, 86.791, -54.3521
1.315000, 87.387, -55.8972
1.320000, 87.469, -56.1110
1.340000, 87.791, -56.9527
1.360000, 88.101, -57.7758
1.380000, 88.399, -58.6241
1.400000, 88.686, -59.4793
1.430000, 89.095, -60.7582
1.450000, 89.354, -61.6128
1.475000, 89.658, -62.6760
1.500000, 89.936, -63.7025
1.525000, 90.185, -64.6776
1.550000, 90.408, -65.6028
1.575000, 90.608, -66.4994
1.600000, 90.789, -67.3862
1.625000, 90.954, -68.2378
1.650000, 91.106, -69.0599
1.675000, 91.247, -69.8580
1.700000, 91.381, -70.6375
1.725000, 91.512, -71.4035
1.750000, 91.642, -72.1608
1.775000, 91.774, -72.9282
1.800000, 91.911, -73.7231
1.825000, 92.056, -74.5198
1.850000, 92.206, -75.3136
1.875000, 92.354, -76.0931
1.900000, 92.500, -76.8533
1.925000, 92.642, -77.5931
1.950000, 92.782, -78.3122
1.975000, 92.918, -79.0226
2.000000, 93.052, -79.7359
2.030000, 93.209, -80.5689
2.060000, 93.363, -81.3812
2.090000, 93.514, -82.1765
2.120000, 93.662, -82.9586
2.140000, 93.759, -83.4748
2.180000, 93.950, -84.5195
2.200000, 94.044, -85.0582
2.240000, 94.228, -86.1280
2.270000, 94.363, -86.9186
2.300000, 94.494, -87.6956
2.330000, 94.622, -88.4575
2.360000, 94.747, -89.2035
2.400000, 94.909, -90.2110
2.430000, 95.028, -90.9537
2.470000, 95.184, -91.9216
2.500000, 95.297, -92.6327
2.540000, 95.446, -93.5649
2.580000, 95.592, -94.4999
2.620000, 95.734, -95.4590
2.650000, 95.837, -96.1720
2.690000, 95.971, -97.1105
2.720000, 96.069, -97.8026
2.760000, 96.197, -98.7058
2.800000, 96.320, -99.6229
2.850000, 96.470, -100.7422
2.900000, 96.616, -101.8267
2.950000, 96.756, -102.8858
3.000000, 96.891, -103.9632
3.040000, 96.995, -104.8284
3.070000, 97.070, -105.4702
3.110000, 97.168, -106.3129
3.150000, 97.263, -107.1375
3.200000, 97.378, -108.1687
3.250000, 97.489, -109.1790
3.300000, 97.596, -110.1576
3.350000, 97.698, -111.1192
3.400000, 97.796, -112.0983
3.450000, 97.889, -113.0745
3.500000, 97.978, -114.0298
3.550000, 98.064, -114.9570
3.600000, 98.147, -115.8782
3.650000, 98.227, -116.7774
3.700000, 98.303, -117.6529
3.750000, 98.377, -118.5175
3.820000, 98.474, -119.7361
3.870000, 98.539, -120.5908
3.950000, 98.639, -121.9055
4.000000, 98.698, -122.7127
4.060000, 98.766, -123.6600
4.120000, 98.830, -124.5863
4.180000, 98.891, -125.5008
4.250000, 98.957, -126.5659
4.310000, 99.011, -127.4441
4.370000, 99.063, -128.2898
4.440000, 99.120, -129.2657
4.500000, 99.166, -130.0811
4.550000, 99.203, -130.7459
4.620000, 99.252, -131.6741
4.680000, 99.291, -132.4467
4.750000, 99.336, -133.3108
4.820000, 99.378, -134.1626
4.870000, 99.407, -134.7601
4.940000, 99.446, -135.5747
5.000000, 99.477, -136.2659
5.080000, 99.518, -137.1655
5.150000, 99.552, -137.9199
5.220000, 99.584, -138.6699
5.300000, 99.620, -139.5085
5.380000, 99.653, -140.3214
5.450000, 99.681, -141.0279
5.520000, 99.707, -141.7090
5.600000, 99.735, -142.4738
5.700000, 99.768, -143.4149
5.800000, 99.798, -144.3240
5.900000, 99.826, -145.2113
6.000000, 99.853, -146.0715
6.080000, 99.873, -146.7495
6.150000, 99.889, -147.3217
6.220000, 99.905, -147.8929
6.300000, 99.921, -148.5294
6.400000, 99.939, -149.3062
6.500000, 99.955, -150.0689
6.600000, 99.970, -150.8058
6.700000, 99.985, -151.5324
6.800000, 99.998, -152.2375
6.900000, 100.010, -152.9293
7.000000, 100.019, -153.5958
7.100000, 100.027, -154.2490
7.200000, 100.033, -154.8815
7.300000, 100.038, -155.5007
7.400000, 100.044, -156.0980
7.500000, 100.050, -156.6824
7.620000, 100.056, -157.3623
7.750000, 100.062, -158.0750
7.880000, 100.066, -158.7741
8.000000, 100.069, -159.3973
8.120000, 100.072, -160.0094
8.250000, 100.075, -160.6577
8.380000, 100.078, -161.2867
8.500000, 100.079, -161.8565
8.620000, 100.079, -162.4116
8.750000, 100.078, -162.9973
8.850000, 100.077, -163.4389
9.000000, 100.075, -164.0802
9.120000, 100.074, -164.5823
9.250000, 100.072, -165.1137
9.380000, 100.070, -165.6288
9.500000, 100.067, -166.1007
9.620000, 100.065, -166.5598
9.750000, 100.062, -167.0478
9.880000, 100.051, -167.5247
10.000000, 100.032, -167.9487
10.150000, 99.999, -168.4946
10.300000, 99.959, -169.0163
10.440000, 99.917, -169.4823
10.600000, 99.866, -169.9917
10.750000, 99.820, -170.4480
10.900000, 99.776, -170.8844
11.060000, 99.731, -171.3601
11.200000, 99.694, -171.8048
11.380000, 99.646, -172.3521
11.500000, 99.613, -172.7019
11.720000, 99.554, -173.3122
11.800000, 99.533, -173.5241
12.060000, 99.470, -174.1987
12.200000, 99.441, -174.5774
12.410000, 99.400, -175.1192
12.500000, 99.383, -175.3422
12.650000, 99.354, -175.7025
12.800000, 99.325, -176.0493
13.150000, 99.260, -176.8605
13.200000, 99.251, -176.9807
13.400000, 99.219, -177.4498
13.600000, 99.187, -177.9001
13.800000, 99.157, -178.3319
14.000000, 99.127, -178.7491
14.300000, 99.082, -179.4076
14.500000, 99.052, -179.8242
14.750000, 99.013, 179.6835
15.000000, 98.977, 179.2191
15.250000, 98.948, 178.7307
15.500000, 98.922, 178.2639
15.750000, 98.897, 177.8176
16.000000, 98.871, 177.3873
16.250000, 98.847, 176.9263
16.500000, 98.822, 176.4791
16.750000, 98.797, 176.0482
17.000000, 98.773, 175.6309
17.250000, 98.751, 175.1984
17.500000, 98.728, 174.7817
17.750000, 98.706, 174.3847
18.000000, 98.683, 174.0026
18.250000, 98.661, 173.6053
18.500000, 98.640, 173.2198
18.750000, 98.619, 172.8481
19.000000, 98.599, 172.4887
19.250000, 98.581, 172.1120
19.500000, 98.563, 171.7466
19.750000, 98.545, 171.3930
20.000000, 98.528, 171.0507
20.299999, 98.506, 170.6213
20.600000, 98.485, 170.2081
20.900000, 98.463, 169.8111
21.200001, 98.441, 169.4105
21.400000, 98.426, 169.1454
21.799999, 98.395, 168.6348
22.000000, 98.380, 168.3867
22.400000, 98.350, 167.8757
22.700001, 98.327, 167.5029
23.000000, 98.304, 167.1379
23.299999, 98.280, 166.7676
23.600000, 98.256, 166.4072
24.000000, 98.225, 165.9448
24.299999, 98.202, 165.5934
24.700001, 98.173, 165.1389
25.000000, 98.152, 164.8078
25.400000, 98.123, 164.3586
25.799999, 98.093, 163.9240
26.200001, 98.063, 163.4918
26.500000, 98.041, 163.1682
26.900000, 98.012, 162.7516
27.200001, 97.991, 162.4407
27.600000, 97.963, 162.0300
28.000000, 97.935, 161.6271
28.500000, 97.900, 161.1102
29.000000, 97.863, 160.6134
29.500000, 97.825, 160.1364
30.000000, 97.787, 159.6767
30.400000, 97.756, 159.2990
30.700001, 97.732, 159.0211
31.100000, 97.701, 158.6567
31.500000, 97.670, 158.2945
32.000000, 97.631, 157.8547
32.500000, 97.592, 157.4162
33.000000, 97.553, 156.9838
33.500000, 97.514, 156.5359
34.000000, 97.475, 156.1006
34.500000, 97.437, 155.6856
35.000000, 97.401, 155.2856
35.500000, 97.366, 154.8829
36.000000, 97.331, 154.4847
36.500000, 97.296, 154.0867
37.000000, 97.260, 153.6973
37.500000, 97.223, 153.3064
38.200001, 97.171, 152.7767
38.700001, 97.133, 152.4081
39.500000, 97.073, 151.8360
40.000000, 97.037, 151.4883
40.599998, 96.993, 151.0545
41.200001, 96.948, 150.6300
41.799999, 96.903, 150.2163
42.500000, 96.850, 149.7445
43.099998, 96.808, 149.3481
43.700001, 96.768, 148.9648
44.400002, 96.721, 148.5067
45.000000, 96.680, 148.1141
45.500000, 96.646, 147.8065
46.200001, 96.599, 147.3810
46.799999, 96.559, 147.0039
47.500000, 96.511, 146.5762
48.200001, 96.463, 146.1607
48.700001, 96.428, 145.8707
49.400002, 96.380, 145.4682
50.000000, 96.340, 145.1226
50.799999, 96.285, 144.6613
51.500000, 96.235, 144.2560
52.200001, 96.187, 143.8672
53.000000, 96.134, 143.4568
53.799999, 96.082, 143.0274
54.500000, 96.036, 142.6601
55.200001, 95.988, 142.3071
56.000000, 95.933, 141.9377
57.000000, 95.869, 141.5197
58.000000, 95.799, 141.0802
59.000000, 95.735, 140.7427
60.000000, 95.687, 140.2997
60.799999, 95.633, 139.7925
61.500000, 95.574, 139.4176
62.200001, 95.516, 139.1064
63.000000, 95.456, 138.7545
64.000000, 95.388, 138.3668
65.000000, 95.326, 137.8973
66.000000, 95.265, 137.4330
67.000000, 95.206, 137.0409
68.000000, 95.150, 136.6236
69.000000, 95.095, 136.2233
70.000000, 95.037, 135.8107
71.000000, 94.968, 135.4131
72.000000, 94.902, 135.0784
73.000000, 94.841, 134.7556
74.000000, 94.780, 134.4001
75.000000, 94.719, 134.0336
76.199997, 94.645, 133.6012
77.500000, 94.567, 133.1783
78.800003, 94.493, 132.7841
80.000000, 94.427, 132.3942
81.199997, 94.361, 132.0037
82.500000, 94.285, 131.5718
83.800003, 94.205, 131.2016
85.000000, 94.136, 130.8891
86.199997, 94.071, 130.5423
87.500000, 94.002, 130.1973
88.500000, 93.951, 129.9190
90.000000, 93.877, 129.4614
91.199997, 93.814, 129.0731
92.500000, 93.745, 128.7482
93.800003, 93.679, 128.4416
95.000000, 93.619, 128.1292
96.199997, 93.559, 127.8435
97.500000, 93.494, 127.5710
98.800003, 93.430, 127.2774
100.000000, 93.370, 126.9816
101.500000, 93.295, 126.5972
103.000000, 93.221, 126.2355
104.400002, 93.154, 125.9185
106.000000, 93.083, 125.5766
107.500000, 93.016, 125.2746
109.000000, 92.948, 125.0232
110.599998, 92.875, 124.7086
112.000000, 92.807, 124.4018
113.800003, 92.717, 124.0409
115.000000, 92.662, 123.7815
117.199997, 92.567, 123.3347
118.000000, 92.536, 123.1959
120.599998, 92.433, 122.7260
122.000000, 92.376, 122.5115
124.099998, 92.298, 122.1573
125.000000, 92.266, 121.9956
126.500000, 92.215, 121.7801
128.000000, 92.165, 121.5135
131.500000, 92.036, 120.9404
132.000000, 92.018, 120.8665
134.000000, 91.943, 120.5808
136.000000, 91.868, 120.3493
138.000000, 91.806, 120.1475
140.000000, 91.746, 119.7739
143.000000, 91.646, 119.1978
145.000000, 91.588, 118.8696
147.500000, 91.518, 118.5051
150.000000, 91.442, 118.2040
152.500000, 91.371, 117.8846
155.000000, 91.305, 117.5227
157.500000, 91.238, 117.1956
160.000000, 91.169, 116.8657
162.500000, 91.100, 116.5447
165.000000, 91.035, 116.2531
167.500000, 90.975, 115.9707
170.000000, 90.915, 115.6987
172.500000, 90.853, 115.4062
175.000000, 90.789, 115.0953
177.500000, 90.726, 114.8143
180.000000, 90.663, 114.5073
182.500000, 90.601, 114.2374
185.000000, 90.541, 113.9517
187.500000, 90.483, 113.7064
190.000000, 90.424, 113.4229
192.500000, 90.367, 113.1287
195.000000, 90.314, 112.9253
197.500000, 90.266, 112.7256
200.000000, 90.217, 112.4943
203.000000, 90.159, 112.1734
206.000000, 90.101, 111.8896
209.000000, 90.044, 111.6407
212.000000, 89.991, 111.3557
214.000000, 89.959, 111.1721
218.000000, 89.898, 110.8810
220.000000, 89.867, 110.7438
224.000000, 89.811, 110.4861
227.000000, 89.780, 110.2781
230.000000, 89.754, 110.0505
233.000000, 89.732, 109.8047
236.000000, 89.709, 109.5309
240.000000, 89.675, 109.1141
243.000000, 89.646, 108.7375
247.000000, 89.604, 108.2609
250.000000, 89.570, 107.9385
254.000000, 89.524, 107.5297
258.000000, 89.479, 107.1384
262.000000, 89.435, 106.7556
265.000000, 89.404, 106.4844
269.000000, 89.366, 106.1272
272.000000, 89.339, 105.8625
276.000000, 89.306, 105.5080
280.000000, 89.275, 105.1633
285.000000, 89.239, 104.7375
290.000000, 89.205, 104.3054
295.000000, 89.175, 103.8786
300.000000, 89.146, 103.4648
304.000000, 89.123, 103.1271
307.000000, 89.108, 102.8908
311.000000, 89.089, 102.5786
315.000000, 89.072, 102.2566
320.000000, 89.051, 101.8454
325.000000, 89.032, 101.4556
330.000000, 89.014, 101.0489
335.000000, 88.997, 100.6536
340.000000, 88.980, 100.2531
345.000000, 88.962, 99.8699
350.000000, 88.946, 99.4805
355.000000, 88.932, 99.0791
360.000000, 88.917, 98.6982
365.000000, 88.903, 98.3189
370.000000, 88.890, 97.9272
375.000000, 88.878, 97.5266
382.000000, 88.863, 96.9937
387.000000, 88.853, 96.6252
395.000000, 88.837, 96.0263
400.000000, 88.827, 95.6505
406.000000, 88.816, 95.2029
412.000000, 88.807, 94.7568
418.000000, 88.798, 94.3192
425.000000, 88.788, 93.8118
431.000000, 88.779, 93.3919
437.000000, 88.770, 92.9589
444.000000, 88.762, 92.4684
450.000000, 88.756, 92.0457
455.000000, 88.751, 91.7064
462.000000, 88.745, 91.2269
468.000000, 88.741, 90.8089
475.000000, 88.736, 90.3415
482.000000, 88.732, 89.8896
487.000000, 88.732, 89.5653
494.000000, 88.732, 89.1216
500.000000, 88.731, 88.7390
508.000000, 88.730, 88.2497
515.000000, 88.728, 87.8274
522.000000, 88.727, 87.4042
530.000000, 88.727, 86.9443
538.000000, 88.728, 86.4951
545.000000, 88.727, 86.1022
552.000000, 88.728, 85.7278
560.000000, 88.729, 85.3201
570.000000, 88.731, 84.8218
580.000000, 88.734, 84.3476
590.000000, 88.738, 83.8932
600.000000, 88.742, 83.4310
608.000000, 88.743, 83.1061
615.000000, 88.743, 82.8337
622.000000, 88.743, 82.5753
630.000000, 88.743, 82.2717
640.000000, 88.745, 81.9266
650.000000, 88.750, 81.6020
660.000000, 88.756, 81.2872
670.000000, 88.764, 81.0079
680.000000, 88.774, 80.7394
690.000000, 88.787, 80.4951
700.000000, 88.805, 80.2644
710.000000, 88.827, 80.0538
720.000000, 88.851, 79.8352
730.000000, 88.878, 79.6307
740.000000, 88.906, 79.4259
750.000000, 88.937, 79.2286
762.000000, 88.975, 78.9941
775.000000, 89.017, 78.7260
788.000000, 89.059, 78.4580
800.000000, 89.099, 78.2255
812.000000, 89.140, 77.9988
825.000000, 89.187, 77.7719
838.000000, 89.235, 77.5500
850.000000, 89.281, 77.3464
862.000000, 89.330, 77.1566
875.000000, 89.385, 76.9503
885.000000, 89.429, 76.7895
900.000000, 89.497, 76.5588
912.000000, 89.555, 76.3724
925.000000, 89.621, 76.1489
938.000000, 89.690, 75.9256
950.000000, 89.755, 75.7188
962.000000, 89.820, 75.4863
975.000000, 89.890, 75.2182
988.000000, 89.960, 74.9504
1000.000000, 90.026, 74.6877
1015.000000, 90.109, 74.3287
1030.000000, 90.193, 73.9489
1044.000000, 90.271, 73.5714
1060.000000, 90.358, 73.1149
1075.000000, 90.440, 72.6702
1090.000000, 90.527, 72.2003
1106.000000, 90.627, 71.6798
1120.000000, 90.716, 71.2088
1138.000000, 90.829, 70.5810
1150.000000, 90.905, 70.1400
1172.000000, 91.039, 69.3328
1180.000000, 91.084, 69.0358
1206.000000, 91.225, 68.0497
1220.000000, 91.300, 67.5220
1241.000000, 91.411, 66.7140
1250.000000, 91.457, 66.3677
1265.000000, 91.531, 65.8032
1280.000000, 91.604, 65.2238
1315.000000, 91.765, 63.8913
1320.000000, 91.787, 63.7021
1340.000000, 91.865, 62.9470
1360.000000, 91.923, 62.2062
1380.000000, 91.977, 61.4714
1400.000000, 92.044, 60.7514
1430.000000, 92.150, 59.6793
1450.000000, 92.220, 58.9758
1475.000000, 92.309, 58.0806
1500.000000, 92.399, 57.1761
1525.000000, 92.486, 56.2621
1550.000000, 92.567, 55.3268
1575.000000, 92.646, 54.3700
1600.000000, 92.724, 53.4007
1625.000000, 92.801, 52.3879
1650.000000, 92.875, 51.3472
1675.000000, 92.946, 50.2758
1700.000000, 93.015, 49.1761
1725.000000, 93.080, 48.0397
1750.000000, 93.140, 46.8713
1775.000000, 93.197, 45.6591
1800.000000, 93.248, 44.4150
1825.000000, 93.293, 43.1414
1850.000000, 93.333, 41.8321
1875.000000, 93.366, 40.4998
1900.000000, 93.391, 39.1383
1925.000000, 93.408, 37.7574
1950.000000, 93.416, 36.3557
1975.000000, 93.415, 34.9425
2000.000000, 93.406, 33.5174
2030.000000, 93.385, 31.8113
2060.000000, 93.353, 30.1047
2090.000000, 93.310, 28.4145
2120.000000, 93.256, 26.7512
2140.000000, 93.215, 25.6598
2180.000000, 93.122, 23.5302
2200.000000, 93.069, 22.4896
2240.000000, 92.954, 20.4758
2270.000000, 92.862, 19.0339
2300.000000, 92.767, 17.6516
2330.000000, 92.669, 16.3306
2360.000000, 92.572, 15.0620
2400.000000, 92.445, 13.4561
2430.000000, 92.354, 12.3181
2470.000000, 92.241, 10.8760
2500.000000, 92.163, 9.8480
2540.000000, 92.070, 8.5364
2580.000000, 91.992, 7.2814
2620.000000, 91.932, 6.0624
2650.000000, 91.900, 5.1655
2690.000000, 91.875, 3.9733
2720.000000, 91.870, 3.0725
2760.000000, 91.882, 1.8538
2800.000000, 91.916, 0.5889
2850.000000, 91.990, -1.0941
2900.000000, 92.098, -2.9390
2950.000000, 92.236, -4.9960
3000.000000, 92.400, -7.3148
3040.000000, 92.541, -9.3925
3070.000000, 92.651, -11.0907
3110.000000, 92.795, -13.5593
3150.000000, 92.930, -16.2598
3200.000000, 93.070, -19.9440
3250.000000, 93.159, -23.9182
3300.000000, 93.182, -28.0776
3350.000000, 93.127, -32.2927
3400.000000, 92.992, -36.3890
3450.000000, 92.786, -40.2175
3500.000000, 92.523, -43.6521
3550.000000, 92.217, -46.6117
3600.000000, 91.882, -49.0745
3650.000000, 91.528, -51.0243
3700.000000, 91.166, -52.4327
3750.000000, 90.817, -53.3143
3820.000000, 90.376, -53.7163
3870.000000, 90.107, -53.4791
3950.000000, 89.777, -52.3851
4000.000000, 89.641, -51.3701
4060.000000, 89.553, -49.9352
4120.000000, 89.547, -48.3774
4180.000000, 89.619, -46.8162
4250.000000, 89.791, -45.1256
4310.000000, 90.000, -43.8802
4370.000000, 90.250, -42.9098
4440.000000, 90.578, -42.2000
4500.000000, 90.878, -41.9993
4550.000000, 91.130, -42.1390
4620.000000, 91.467, -42.8007
4680.000000, 91.719, -43.7551
4750.000000, 91.941, -45.2095
4820.000000, 92.074, -46.8878
4870.000000, 92.110, -48.1300
4940.000000, 92.080, -49.7706
5000.000000, 91.986, -50.9817
5080.000000, 91.780, -52.1844
5150.000000, 91.540, -52.7653
5220.000000, 91.266, -52.8836
5300.000000, 90.941, -52.4669
5380.000000, 90.619, -51.5045
5450.000000, 90.350, -50.2584
5520.000000, 90.099, -48.6831
5600.000000, 89.841, -46.5427
5700.000000, 89.565, -43.4324
5800.000000, 89.345, -39.9500
5900.000000, 89.181, -36.1822
6000.000000, 89.072, -32.2155
6080.000000, 89.025, -28.9369
6150.000000, 89.015, -26.0215
6220.000000, 89.032, -23.0921
6300.000000, 89.085, -19.7522
6400.000000, 89.196, -15.6482
6500.000000, 89.353, -11.6585
6600.000000, 89.549, -7.8560
6700.000000, 89.779, -4.2819
6800.000000, 90.039, -0.9552
6900.000000, 90.338, 2.0864
7000.000000, 90.668, 4.8268
7100.000000, 91.004, 7.2593
7200.000000, 91.335, 9.3929
7300.000000, 91.654, 11.2247
7400.000000, 91.942, 12.7832
7500.000000, 92.195, 14.1364
7620.000000, 92.477, 15.5366
7750.000000, 92.754, 16.7641
7880.000000, 92.908, 17.6874
8000.000000, 92.949, 18.2789
8120.000000, 92.904, 18.7063
8250.000000, 92.750, 19.1105
8380.000000, 92.485, 19.6274
8500.000000, 92.148, 20.3678
8620.000000, 91.726, 21.3916
8750.000000, 91.155, 22.9385
8850.000000, 90.650, 24.8004
9000.000000, 89.911, 28.6034
9120.000000, 89.345, 32.1019
9250.000000, 88.745, 36.2957
9380.000000, 88.162, 40.9221
9500.000000, 87.648, 45.5337
9620.000000, 87.161, 50.4168
9750.000000, 86.670, 55.9664
9880.000000, 86.217, 61.7467
10000.000000, 85.829, 67.2637
10150.000000, 85.382, 74.3974
10300.000000, 84.984, 81.7880
10440.000000, 84.665, 88.8492
10600.000000, 84.364, 97.0049
10750.000000, 84.143, 104.6506
10900.000000, 83.980, 112.2418
11060.000000, 83.866, 120.1813
11200.000000, 83.810, 126.9485
11380.000000, 83.785, 135.3349
11500.000000, 83.788, 140.7036
11720.000000, 83.817, 150.0797
11800.000000, 83.830, 153.3518
12060.000000, 83.861, 163.5976
12200.000000, 83.875, 168.9325
12410.000000, 83.889, 176.5708
12500.000000, 83.889, 179.6912
12650.000000, 83.874, -175.2850
12800.000000, 83.840, -170.4608
13150.000000, 83.659, -159.8769
13200.000000, 83.619, -158.4194
13400.000000, 83.413, -152.6293
13600.000000, 83.150, -146.7603
13800.000000, 82.856, -140.7261
14000.000000, 82.558, -134.4860
14300.000000, 82.138, -124.9161
14500.000000, 81.894, -118.6564
14750.000000, 81.611, -111.4296
15000.000000, 81.263, -105.0378
15250.000000, 80.773, -98.9430
15500.000000, 80.213, -92.3723
15750.000000, 79.731, -85.3535
16000.000000, 79.324, -79.0279
16250.000000, 78.788, -74.1075
