* Measurement data measured by REW V5.20.13
* Source: Headset (DS by VECLAN.COM), MICROPHONE (Master Volume), L, volume: 0.970. Timing signal peak level -8.6 dBFS, measurement signal peak level -8.8 dBFS
* Format: 2M Log Swept Sine, 1 sweep at -12.0 dBFS using an acoustic timing reference
* Dated: Oct 14, 2023 3:45:58 PM
* REW Settings:
*  C-weighting compensation: Off
*  Target level: 75.0 dB
* Note: ; Delay -0.0714 ms (-24 mm, -0.96 in) using estimated IR delay relative to Acoustic reference played from HEADPHONE L with no timing offset
* Measurement: AKG N5005 L
* Smoothing: 1/24 octave
* Frequency Step: 1/48 octave
* Start Frequency: 1.000 Hz
*
* Freq(Hz) SPL(dB) Phase(degrees)
1.000000 70.032 -5.6957
1.015000 70.338 -8.8678
1.030000 70.640 -11.9039
1.044000 70.917 -14.6010
1.060000 71.227 -17.5051
1.075000 71.509 -20.0390
1.090000 71.782 -22.3740
1.106000 72.062 -24.6348
1.120000 72.309 -26.4504
1.138000 72.627 -28.5838
1.150000 72.841 -29.8877
1.172000 73.234 -32.0499
1.180000 73.378 -32.7676
1.206000 73.844 -34.8697
1.220000 74.094 -35.8681
1.241000 74.468 -37.2107
1.250000 74.627 -37.7346
1.265000 74.891 -38.5465
1.280000 75.153 -39.2898
1.315000 75.752 -40.8094
1.320000 75.836 -41.0069
1.340000 76.167 -41.7618
1.360000 76.491 -42.4768
1.380000 76.805 -43.1738
1.400000 77.110 -43.8746
1.430000 77.545 -44.9808
1.450000 77.820 -45.7869
1.475000 78.144 -46.8890
1.500000 78.449 -47.9376
1.525000 78.735 -48.8984
1.550000 79.006 -49.7801
1.575000 79.261 -50.5914
1.600000 79.504 -51.3408
1.625000 79.734 -52.0372
1.650000 79.953 -52.6892
1.675000 80.164 -53.3055
1.700000 80.367 -53.8948
1.725000 80.564 -54.4657
1.750000 80.756 -55.0270
1.775000 80.945 -55.5874
1.800000 81.132 -56.1555
1.825000 81.319 -56.7401
1.850000 81.503 -57.3352
1.875000 81.679 -57.9112
1.900000 81.848 -58.4680
1.925000 82.008 -59.0068
1.950000 82.163 -59.5290
1.975000 82.311 -60.0358
2.000000 82.455 -60.5286
2.030000 82.622 -61.1031
2.060000 82.784 -61.6615
2.090000 82.943 -62.2059
2.120000 83.100 -62.7386
2.140000 83.204 -63.0883
2.180000 83.413 -63.7777
2.200000 83.519 -64.1187
2.240000 83.728 -64.7791
2.270000 83.882 -65.2528
2.300000 84.032 -65.7104
2.330000 84.180 -66.1539
2.360000 84.326 -66.5852
2.400000 84.516 -67.1451
2.430000 84.655 -67.5562
2.470000 84.837 -68.0965
2.500000 84.972 -68.4985
2.540000 85.147 -69.0340
2.580000 85.318 -69.5726
2.620000 85.484 -70.1092
2.650000 85.606 -70.5083
2.690000 85.763 -71.0347
2.720000 85.879 -71.4242
2.760000 86.029 -71.9351
2.800000 86.177 -72.4349
2.850000 86.358 -73.0411
2.900000 86.535 -73.6238
2.950000 86.711 -74.1789
3.000000 86.882 -74.6998
3.040000 87.015 -75.0955
3.070000 87.113 -75.3827
3.110000 87.242 -75.7558
3.150000 87.369 -76.1213
3.200000 87.525 -76.5737
3.250000 87.679 -77.0281
3.300000 87.832 -77.4922
3.350000 87.982 -77.9640
3.400000 88.129 -78.4369
3.450000 88.274 -78.9086
3.500000 88.417 -79.3769
3.550000 88.557 -79.8395
3.600000 88.696 -80.2943
3.650000 88.833 -80.7389
3.700000 88.969 -81.1692
3.750000 89.102 -81.5824
3.820000 89.287 -82.1431
3.870000 89.416 -82.5387
3.950000 89.619 -83.1794
4.000000 89.744 -83.5938
4.060000 89.892 -84.1128
4.120000 90.038 -84.6487
4.180000 90.181 -85.1963
4.250000 90.345 -85.8447
4.310000 90.482 -86.4043
4.370000 90.616 -86.9631
4.440000 90.769 -87.6110
4.500000 90.896 -88.1664
4.550000 91.000 -88.6304
4.620000 91.142 -89.2827
4.680000 91.260 -89.8454
4.750000 91.393 -90.5073
4.820000 91.521 -91.1793
4.870000 91.610 -91.6668
4.940000 91.730 -92.3541
5.000000 91.829 -92.9425
5.080000 91.957 -93.7172
5.150000 92.064 -94.3788
5.220000 92.166 -95.0326
5.300000 92.277 -95.7711
5.380000 92.383 -96.4956
5.450000 92.473 -97.1141
5.520000 92.560 -97.7153
5.600000 92.654 -98.3849
5.700000 92.766 -99.1963
5.800000 92.874 -99.9771
5.900000 92.981 -100.7243
6.000000 93.084 -101.4345
6.080000 93.165 -101.9808
6.150000 93.235 -102.4468
6.220000 93.306 -102.9049
6.300000 93.387 -103.4139
6.400000 93.489 -104.0251
6.500000 93.592 -104.6255
6.600000 93.695 -105.2336
6.700000 93.800 -105.8464
6.800000 93.906 -106.4601
6.900000 94.011 -107.0841
7.000000 94.114 -107.7269
7.100000 94.216 -108.3862
7.200000 94.317 -109.0589
7.300000 94.414 -109.7431
7.400000 94.506 -110.4419
7.500000 94.594 -111.1585
7.620000 94.694 -112.0215
7.750000 94.792 -112.9382
7.880000 94.880 -113.8507
8.000000 94.954 -114.6667
8.120000 95.022 -115.4346
8.250000 95.088 -116.2243
8.380000 95.150 -116.9600
8.500000 95.207 -117.5785
8.620000 95.262 -118.1403
8.750000 95.323 -118.7036
8.850000 95.375 -119.1113
9.000000 95.457 -119.6658
9.120000 95.528 -120.0968
9.250000 95.612 -120.5738
9.380000 95.704 -121.0473
9.500000 95.789 -121.5114
9.620000 95.873 -122.0186
9.750000 95.965 -122.6041
9.880000 96.046 -123.2278
10.000000 96.109 -123.8480
10.150000 96.173 -124.6691
10.300000 96.218 -125.4886
10.440000 96.241 -126.2632
10.600000 96.251 -127.1136
10.750000 96.248 -127.8407
10.900000 96.234 -128.5079
11.060000 96.216 -129.1132
11.200000 96.197 -129.5544
11.380000 96.176 -130.0091
11.500000 96.167 -130.2303
11.720000 96.163 -130.5311
11.800000 96.170 -130.6211
12.060000 96.215 -130.8593
12.200000 96.255 -131.0252
12.410000 96.331 -131.3225
12.500000 96.364 -131.4860
12.650000 96.424 -131.8050
12.800000 96.483 -132.1710
13.150000 96.602 -133.1941
13.200000 96.616 -133.3481
13.400000 96.669 -133.9873
13.600000 96.714 -134.6198
13.800000 96.753 -135.2277
14.000000 96.789 -135.8112
14.300000 96.840 -136.6460
14.500000 96.876 -137.1949
14.750000 96.920 -137.8967
15.000000 96.965 -138.6260
15.250000 97.006 -139.3886
15.500000 97.041 -140.1549
15.750000 97.069 -140.9070
16.000000 97.091 -141.6162
16.250000 97.111 -142.2829
16.500000 97.131 -142.9125
16.750000 97.154 -143.5185
17.000000 97.178 -144.1147
17.250000 97.202 -144.6977
17.500000 97.224 -145.2606
17.750000 97.243 -145.7699
18.000000 97.261 -146.2113
18.250000 97.284 -146.5691
18.500000 97.318 -146.8585
18.750000 97.368 -147.1192
19.000000 97.435 -147.3887
19.250000 97.516 -147.7380
19.500000 97.601 -148.1866
19.750000 97.684 -148.7467
20.000000 97.753 -149.3932
20.299999 97.814 -150.2080
20.600000 97.849 -150.9857
20.900000 97.867 -151.6543
21.200001 97.879 -152.1855
21.400000 97.890 -152.4856
21.799999 97.924 -153.0405
22.000000 97.945 -153.3383
22.400000 97.986 -154.0378
22.700001 98.002 -154.6358
23.000000 97.998 -155.2317
23.299999 97.978 -155.7512
23.600000 97.950 -156.1530
24.000000 97.919 -156.5012
24.299999 97.912 -156.6785
24.700001 97.929 -156.9144
25.000000 97.956 -157.1539
25.400000 97.999 -157.5836
25.799999 98.043 -158.1087
26.200001 98.085 -158.6887
26.500000 98.117 -159.1536
26.900000 98.159 -159.8235
27.200001 98.188 -160.3664
27.600000 98.217 -161.1259
28.000000 98.231 -161.8748
28.500000 98.232 -162.7129
29.000000 98.224 -163.4026
29.500000 98.218 -163.9672
30.000000 98.218 -164.4558
30.400000 98.221 -164.8299
30.700001 98.225 -165.1225
31.100000 98.229 -165.5516
31.500000 98.225 -166.0229
32.000000 98.203 -166.6090
32.500000 98.170 -167.0981
33.000000 98.149 -167.4943
33.500000 98.152 -167.9388
34.000000 98.165 -168.5665
34.500000 98.162 -169.3281
35.000000 98.138 -170.0405
35.500000 98.112 -170.5798
36.000000 98.107 -171.0042
36.500000 98.121 -171.4317
37.000000 98.137 -171.8813
37.500000 98.148 -172.2746
38.200001 98.169 -172.6570
38.700001 98.195 -172.8674
39.500000 98.246 -173.2188
40.000000 98.282 -173.4958
40.599998 98.324 -173.9776
41.200001 98.348 -174.6708
41.799999 98.340 -175.5115
42.500000 98.291 -176.5153
43.099998 98.235 -177.2169
43.700001 98.218 -177.7727
44.400002 98.271 -178.7723
45.000000 98.286 179.7476
45.500000 98.202 178.5990
46.200001 98.036 178.2906
46.799999 98.069 178.9308
47.500000 98.293 178.6006
48.200001 98.345 176.9420
48.700001 98.213 176.3120
49.400002 98.052 177.1635
50.000000 98.120 178.1414
50.799999 98.274 177.7260
51.500000 98.213 176.5766
52.200001 98.027 176.0298
53.000000 97.837 176.0558
53.799999 97.714 176.2417
54.500000 97.681 176.4308
55.200001 97.736 176.3438
56.000000 97.842 175.5132
57.000000 97.873 173.7753
58.000000 97.742 172.6179
59.000000 97.588 172.8845
60.000000 97.587 173.7890
60.799999 97.645 173.9009
61.500000 97.635 173.5809
62.200001 97.564 173.3669
63.000000 97.491 173.3137
64.000000 97.431 172.9333
65.000000 97.354 172.4073
66.000000 97.327 171.8403
67.000000 97.302 170.8860
68.000000 97.229 170.1052
69.000000 97.158 169.7177
70.000000 97.116 169.6902
71.000000 97.146 169.6309
72.000000 97.173 169.0607
73.000000 97.142 168.3304
74.000000 97.064 167.6708
75.000000 96.949 167.3948
76.199997 96.881 167.6536
77.500000 96.898 167.5923
78.800003 96.877 167.2860
80.000000 96.848 167.0457
81.199997 96.796 166.6095
82.500000 96.683 166.2653
83.800003 96.611 166.2250
85.000000 96.595 165.8460
86.199997 96.553 165.2507
87.500000 96.500 164.7672
88.500000 96.465 164.4595
90.000000 96.406 164.1686
91.199997 96.366 164.1057
92.500000 96.333 164.0242
93.800003 96.299 163.7773
95.000000 96.244 163.3802
96.199997 96.176 163.0186
97.500000 96.127 162.5648
98.800003 96.088 162.0067
100.000000 96.057 161.5599
101.500000 96.020 161.1458
103.000000 95.962 161.1168
104.400002 95.922 161.3304
106.000000 95.854 161.5430
107.500000 95.780 161.7208
109.000000 95.717 161.6988
110.599998 95.650 161.4050
112.000000 95.586 161.1152
113.800003 95.513 160.9296
115.000000 95.487 160.8810
117.199997 95.444 160.6129
118.000000 95.424 160.5193
120.599998 95.360 160.0113
122.000000 95.293 159.7985
124.099998 95.204 159.7717
125.000000 95.173 159.8029
126.500000 95.139 159.8877
128.000000 95.127 159.8069
131.500000 95.052 159.4835
132.000000 95.042 159.4723
134.000000 94.993 159.4558
136.000000 94.930 159.5561
138.000000 94.873 159.6368
140.000000 94.824 159.5229
143.000000 94.743 159.0355
145.000000 94.669 158.7578
147.500000 94.578 158.6721
150.000000 94.497 158.7860
152.500000 94.422 158.7747
155.000000 94.342 158.6101
157.500000 94.318 158.4409
160.000000 94.346 158.3683
162.500000 94.334 158.6151
165.000000 94.248 159.0042
167.500000 94.122 159.0647
170.000000 94.032 158.7391
172.500000 94.002 158.3323
175.000000 93.972 158.1458
177.500000 93.905 158.2003
180.000000 93.815 158.2663
182.500000 93.741 158.3394
185.000000 93.692 158.4340
187.500000 93.642 158.5297
190.000000 93.581 158.5209
192.500000 93.523 158.5658
195.000000 93.484 158.7893
197.500000 93.440 158.9858
200.000000 93.360 159.0153
203.000000 93.288 159.0918
206.000000 93.298 159.1562
209.000000 93.303 159.2093
212.000000 93.295 159.3303
214.000000 93.273 159.2964
218.000000 93.155 159.2405
220.000000 93.102 159.3591
224.000000 93.046 159.6247
227.000000 92.984 159.5708
230.000000 92.915 159.3132
233.000000 92.867 159.2675
236.000000 92.828 159.7881
240.000000 92.773 160.7194
243.000000 92.713 161.0283
247.000000 92.608 161.0388
250.000000 92.592 160.5844
254.000000 92.668 160.1264
258.000000 92.685 161.0598
262.000000 92.556 161.8249
265.000000 92.473 161.5797
269.000000 92.361 161.2402
272.000000 92.265 161.3726
276.000000 92.186 161.7733
280.000000 92.138 162.1838
285.000000 92.056 162.1454
290.000000 91.981 162.3436
295.000000 91.910 162.6376
300.000000 91.894 162.4409
304.000000 91.901 162.4960
307.000000 91.897 162.6643
311.000000 91.855 162.6920
315.000000 91.789 162.8978
320.000000 91.751 163.6207
325.000000 91.683 164.1938
330.000000 91.596 164.4067
335.000000 91.534 164.6197
340.000000 91.491 165.0307
345.000000 91.451 165.1848
350.000000 91.443 165.1423
355.000000 91.437 165.3656
360.000000 91.428 165.6655
365.000000 91.397 165.8316
370.000000 91.338 165.9172
375.000000 91.279 166.1310
382.000000 91.219 166.6389
387.000000 91.173 166.8972
395.000000 91.079 167.1198
400.000000 91.030 167.3815
406.000000 90.995 167.8327
412.000000 90.970 168.3511
418.000000 90.942 168.7358
425.000000 90.907 169.0197
431.000000 90.851 169.4714
437.000000 90.790 170.0068
444.000000 90.759 170.2452
450.000000 90.731 170.3042
455.000000 90.700 170.4868
462.000000 90.675 170.9428
468.000000 90.651 171.3040
475.000000 90.605 171.6691
482.000000 90.561 172.3071
487.000000 90.511 172.7430
494.000000 90.433 172.9785
500.000000 90.411 173.0223
508.000000 90.346 173.4058
515.000000 90.257 174.1323
522.000000 90.246 174.9178
530.000000 90.280 175.6085
538.000000 90.250 176.0892
545.000000 90.219 176.3059
552.000000 90.210 176.5417
560.000000 90.175 176.5935
570.000000 90.148 176.8156
580.000000 90.145 177.7850
590.000000 90.124 178.8246
600.000000 90.074 179.4097
608.000000 90.018 -179.9357
615.000000 89.967 -179.3941
622.000000 89.934 -178.8281
630.000000 89.960 -178.4582
640.000000 90.042 -178.7579
650.000000 90.018 -177.9624
660.000000 89.933 -176.8804
670.000000 89.907 -176.2018
680.000000 89.892 -175.4009
690.000000 89.854 -174.6962
700.000000 89.841 -174.0859
710.000000 89.839 -173.5053
720.000000 89.832 -173.0389
730.000000 89.829 -172.4770
740.000000 89.845 -171.7127
750.000000 89.861 -170.8635
762.000000 89.855 -169.8997
775.000000 89.867 -168.9363
788.000000 89.893 -168.0428
800.000000 89.927 -167.2842
812.000000 89.960 -166.6220
825.000000 89.969 -165.7845
838.000000 89.988 -164.8580
850.000000 90.016 -164.0889
862.000000 90.045 -163.4577
875.000000 90.089 -162.6305
885.000000 90.125 -161.9217
900.000000 90.162 -160.9763
912.000000 90.194 -160.2815
925.000000 90.248 -159.5703
938.000000 90.303 -158.8377
950.000000 90.349 -158.1810
962.000000 90.389 -157.5488
975.000000 90.437 -156.8616
988.000000 90.489 -156.0592
1000.000000 90.542 -155.2913
1015.000000 90.622 -154.4611
1030.000000 90.706 -153.7067
1044.000000 90.779 -152.9652
1060.000000 90.871 -152.1864
1075.000000 90.970 -151.4808
1090.000000 91.084 -150.7495
1106.000000 91.225 -150.0458
1120.000000 91.357 -149.5584
1138.000000 91.540 -149.0482
1150.000000 91.664 -148.7464
1172.000000 91.878 -148.3639
1180.000000 91.950 -148.2752
1206.000000 92.168 -148.0508
1220.000000 92.279 -148.0025
1241.000000 92.431 -147.9234
1250.000000 92.489 -147.8726
1265.000000 92.583 -147.7551
1280.000000 92.676 -147.6252
1315.000000 92.884 -147.4267
1320.000000 92.912 -147.3954
1340.000000 93.018 -147.2543
1360.000000 93.105 -147.0991
1380.000000 93.191 -146.9744
1400.000000 93.297 -146.8254
1430.000000 93.455 -146.5663
1450.000000 93.557 -146.3666
1475.000000 93.687 -146.2017
1500.000000 93.833 -146.1416
1525.000000 93.974 -146.0660
1550.000000 94.103 -146.0034
1575.000000 94.238 -145.9242
1600.000000 94.372 -145.8729
1625.000000 94.502 -145.8705
1650.000000 94.635 -145.9445
1675.000000 94.766 -146.0861
1700.000000 94.894 -146.2611
1725.000000 95.024 -146.4964
1750.000000 95.153 -146.7751
1775.000000 95.273 -147.0903
1800.000000 95.385 -147.4662
1825.000000 95.496 -147.9004
1850.000000 95.603 -148.4031
1875.000000 95.699 -148.9382
1900.000000 95.788 -149.4955
1925.000000 95.871 -150.1305
1950.000000 95.947 -150.8290
1975.000000 96.009 -151.5343
2000.000000 96.058 -152.2698
2030.000000 96.106 -153.2049
2060.000000 96.134 -154.1517
2090.000000 96.136 -155.0989
2120.000000 96.116 -156.0331
2140.000000 96.091 -156.6414
2180.000000 96.025 -157.8052
2200.000000 95.983 -158.3557
2240.000000 95.880 -159.3826
2270.000000 95.787 -160.0645
2300.000000 95.679 -160.6404
2330.000000 95.557 -161.1080
2360.000000 95.420 -161.4704
2400.000000 95.222 -161.7743
2430.000000 95.066 -161.8607
2470.000000 94.859 -161.7883
2500.000000 94.709 -161.6010
2540.000000 94.515 -161.1384
2580.000000 94.332 -160.4453
2620.000000 94.167 -159.5897
2650.000000 94.057 -158.8644
2690.000000 93.926 -157.8228
2720.000000 93.839 -156.9891
2760.000000 93.740 -155.8083
2800.000000 93.666 -154.5507
2850.000000 93.618 -152.8896
2900.000000 93.624 -151.2205
2950.000000 93.677 -149.6527
3000.000000 93.772 -148.3167
3040.000000 93.871 -147.4863
3070.000000 93.953 -147.0172
3110.000000 94.064 -146.6201
3150.000000 94.164 -146.4680
3200.000000 94.255 -146.5535
3250.000000 94.292 -146.8281
3300.000000 94.270 -147.1165
3350.000000 94.200 -147.2878
3400.000000 94.099 -147.2463
3450.000000 93.980 -146.9330
3500.000000 93.864 -146.3685
3550.000000 93.759 -145.5844
3600.000000 93.665 -144.6064
3650.000000 93.583 -143.4679
3700.000000 93.517 -142.2024
3750.000000 93.477 -140.8458
3820.000000 93.456 -138.8392
3870.000000 93.464 -137.3483
3950.000000 93.526 -134.8957
4000.000000 93.596 -133.3212
4060.000000 93.720 -131.4377
4120.000000 93.896 -129.6654
4180.000000 94.114 -128.0962
4250.000000 94.397 -126.5767
4310.000000 94.656 -125.5538
4370.000000 94.929 -124.7792
4440.000000 95.259 -124.1846
4500.000000 95.551 -123.9664
4550.000000 95.796 -124.0099
4620.000000 96.140 -124.4640
4680.000000 96.425 -125.2477
4750.000000 96.732 -126.6424
4820.000000 96.993 -128.5479
4870.000000 97.142 -130.2052
4940.000000 97.279 -132.8562
5000.000000 97.317 -135.3306
5080.000000 97.248 -138.7177
5150.000000 97.077 -141.5573
5220.000000 96.812 -144.0955
5300.000000 96.407 -146.4584
5380.000000 95.932 -148.1539
5450.000000 95.484 -149.0536
5520.000000 95.024 -149.4130
5600.000000 94.507 -149.2310
5700.000000 93.897 -148.2545
5800.000000 93.333 -146.5908
5900.000000 92.828 -144.3692
6000.000000 92.401 -141.7139
6080.000000 92.118 -139.4004
6150.000000 91.904 -137.3127
6220.000000 91.716 -135.1823
6300.000000 91.528 -132.6689
6400.000000 91.335 -129.3432
6500.000000 91.187 -125.7454
6600.000000 91.107 -121.8808
6700.000000 91.126 -117.8566
6800.000000 91.254 -113.8047
6900.000000 91.506 -109.8542
7000.000000 91.885 -106.1132
7100.000000 92.371 -102.6557
7200.000000 92.966 -99.5956
7300.000000 93.681 -97.0581
7400.000000 94.521 -95.2110
7500.000000 95.492 -94.3386
7620.000000 96.825 -95.1965
7750.000000 98.328 -99.6100
7880.000000 99.508 -108.8506
8000.000000 99.955 -121.1519
8120.000000 99.601 -134.1345
8250.000000 98.442 -145.2337
8380.000000 96.845 -151.6334
8500.000000 95.291 -153.8677
8620.000000 93.829 -153.6107
8750.000000 92.423 -151.5023
8850.000000 91.475 -149.0232
9000.000000 90.263 -144.3835
9120.000000 89.457 -140.1277
9250.000000 88.728 -135.1810
9380.000000 88.140 -130.0306
9500.000000 87.711 -125.1828
9620.000000 87.390 -120.3309
9750.000000 87.162 -115.1534
9880.000000 87.044 -110.1201
10000.000000 87.027 -105.6718
10150.000000 87.135 -100.5074
10300.000000 87.380 -95.9406
10440.000000 87.721 -92.4020
10600.000000 88.232 -89.5292
10750.000000 88.791 -88.3594
10900.000000 89.347 -89.0341
11060.000000 89.799 -91.9800
11200.000000 89.951 -96.1769
11380.000000 89.673 -102.4820
11500.000000 89.181 -106.2374
11720.000000 87.809 -110.3412
11800.000000 87.224 -110.7541
12060.000000 85.289 -108.4766
12200.000000 84.323 -105.4259
12410.000000 83.037 -99.2121
12500.000000 82.556 -96.1096
12650.000000 81.858 -90.5241
12800.000000 81.284 -84.5528
13150.000000 80.388 -69.7525
13200.000000 80.308 -67.5840
13400.000000 80.107 -58.8718
13600.000000 80.103 -50.1890
13800.000000 80.320 -41.6718
14000.000000 80.765 -33.4620
14300.000000 81.879 -22.0860
14500.000000 82.973 -15.6163
14750.000000 84.753 -10.0802
15000.000000 86.819 -9.2922
15250.000000 88.804 -14.8276
15500.000000 90.293 -26.8882
15750.000000 90.856 -43.5678
16000.000000 90.346 -60.0855
16250.000000 89.107 -73.1401
16500.000000 87.527 -83.5072
16750.000000 85.642 -92.1629
17000.000000 83.374 -98.3414
17250.000000 80.774 -100.8419
17500.000000 78.030 -99.3550
17750.000000 75.356 -94.4697
18000.000000 72.885 -86.9396
18250.000000 70.688 -77.4389
18500.000000 68.869 -66.5740
18750.000000 67.568 -54.7726
19000.000000 66.781 -42.3174
19250.000000 66.237 -29.4503
19500.000000 65.617 -16.4385
19750.000000 64.799 -3.3650
20000.000000 63.738 9.7631
20300.000000 62.156 25.5784
20600.000000 60.312 41.3564
20900.000000 58.118 55.8664
21200.000000 55.414 64.8225
21400.000000 53.215 54.7046
21800.000000 47.480 20.4929
22000.000000 43.783 82.6000
22400.000000 34.611 -5.5029
22700.000000 26.437 -129.1582
23000.000000 17.945 70.9883
23300.000000 11.873 81.9453
23600.000000 10.078 31.3789
24000.000000 9.406 145.3984
