* Measurement data measured by REW V5.20.13
* Source: Trace Arithmetic result A / B
* Format: Trace Arithmetic result A / B
* Dated: Feb 24, 2024 9:14:28 PM
* REW Settings:
*  C-weighting compensation: Off
*  Target level: 75.0 dB
* Note: Trace Arithmetic A over B A = Astell&Kern AKR02 L B = iPhone calib
* Measurement: A over B
* Smoothing: 1/24 octave
* Frequency Step: 1/48 octave
* Start Frequency: 20.000 Hz
*
* Freq(Hz) SPL(dB)
20.000000 72.682
20.299999 72.743
20.600000 72.730
20.900000 72.713
21.200001 72.687
21.400000 72.670
21.799999 72.643
22.000000 72.635
22.400000 72.639
22.700001 72.648
23.000000 72.651
23.299999 72.656
23.600000 72.675
24.000000 72.703
24.299999 72.709
24.700001 72.704
25.000000 72.696
25.400000 72.687
25.799999 72.671
26.200001 72.645
26.500000 72.637
26.900000 72.660
27.200001 72.683
27.600000 72.700
28.000000 72.709
28.500000 72.712
29.000000 72.684
29.500000 72.645
30.000000 72.617
30.400000 72.600
30.700001 72.582
31.100000 72.545
31.500000 72.506
32.000000 72.486
32.500000 72.492
33.000000 72.492
33.500000 72.494
34.000000 72.505
34.500000 72.515
35.000000 72.537
35.500000 72.560
36.000000 72.576
36.500000 72.597
37.000000 72.609
37.500000 72.615
38.200001 72.625
38.700001 72.640
39.500000 72.647
40.000000 72.632
40.599998 72.601
41.200001 72.554
41.799999 72.510
42.500000 72.487
43.099998 72.478
43.700001 72.461
44.400002 72.436
45.000000 72.431
45.500000 72.439
46.200001 72.470
46.799999 72.519
47.500000 72.578
48.200001 72.600
48.700001 72.601
49.400002 72.599
50.000000 72.595
50.799999 72.589
51.500000 72.577
52.200001 72.560
53.000000 72.535
53.799999 72.480
54.500000 72.417
55.200001 72.373
56.000000 72.353
57.000000 72.327
58.000000 72.265
59.000000 72.155
60.000000 72.075
60.799999 72.053
61.500000 72.050
62.200001 72.055
63.000000 72.102
64.000000 72.216
65.000000 72.290
66.000000 72.319
67.000000 72.347
68.000000 72.411
69.000000 72.480
70.000000 72.488
71.000000 72.453
72.000000 72.416
73.000000 72.376
74.000000 72.322
75.000000 72.264
76.199997 72.226
77.500000 72.228
78.800003 72.171
80.000000 72.081
81.199997 72.024
82.500000 72.012
83.800003 72.043
85.000000 72.079
86.199997 72.109
87.500000 72.099
88.500000 72.067
90.000000 72.027
91.199997 72.025
92.500000 72.064
93.800003 72.103
95.000000 72.085
96.199997 72.039
97.500000 72.027
98.800003 72.073
100.000000 72.116
101.500000 72.112
103.000000 72.069
104.400002 72.022
106.000000 71.979
107.500000 71.967
109.000000 71.951
110.599998 71.929
112.000000 71.951
113.800003 72.024
115.000000 72.053
117.199997 72.026
118.000000 72.000
120.599998 71.914
122.000000 71.868
124.099998 71.768
125.000000 71.724
126.500000 71.669
128.000000 71.626
131.500000 71.518
132.000000 71.517
134.000000 71.566
136.000000 71.610
138.000000 71.585
140.000000 71.540
143.000000 71.470
145.000000 71.425
147.500000 71.413
150.000000 71.427
152.500000 71.412
155.000000 71.383
157.500000 71.351
160.000000 71.308
162.500000 71.277
165.000000 71.287
167.500000 71.278
170.000000 71.226
172.500000 71.164
175.000000 71.139
177.500000 71.142
180.000000 71.111
182.500000 71.053
185.000000 71.021
187.500000 70.985
190.000000 70.976
192.500000 70.997
195.000000 70.985
197.500000 70.950
200.000000 70.916
203.000000 70.860
206.000000 70.792
209.000000 70.734
212.000000 70.696
214.000000 70.662
218.000000 70.572
220.000000 70.548
224.000000 70.526
227.000000 70.486
230.000000 70.432
233.000000 70.383
236.000000 70.362
240.000000 70.401
243.000000 70.466
247.000000 70.540
250.000000 70.528
254.000000 70.440
258.000000 70.341
262.000000 70.293
265.000000 70.273
269.000000 70.232
272.000000 70.187
276.000000 70.122
280.000000 70.086
285.000000 70.067
290.000000 69.988
295.000000 69.878
300.000000 69.769
304.000000 69.716
307.000000 69.694
311.000000 69.669
315.000000 69.630
320.000000 69.567
325.000000 69.529
330.000000 69.497
335.000000 69.402
340.000000 69.290
345.000000 69.272
350.000000 69.305
355.000000 69.296
360.000000 69.232
365.000000 69.140
370.000000 69.072
375.000000 69.017
382.000000 68.966
387.000000 68.963
395.000000 68.922
400.000000 68.872
406.000000 68.792
412.000000 68.694
418.000000 68.621
425.000000 68.566
431.000000 68.495
437.000000 68.400
444.000000 68.323
450.000000 68.290
455.000000 68.251
462.000000 68.163
468.000000 68.086
475.000000 68.030
482.000000 67.999
487.000000 67.963
494.000000 67.874
500.000000 67.787
508.000000 67.717
515.000000 67.687
522.000000 67.631
530.000000 67.554
538.000000 67.500
545.000000 67.438
552.000000 67.356
560.000000 67.252
570.000000 67.154
580.000000 67.103
590.000000 67.083
600.000000 67.052
608.000000 67.003
615.000000 66.936
622.000000 66.866
630.000000 66.797
640.000000 66.730
650.000000 66.666
660.000000 66.612
670.000000 66.535
680.000000 66.442
690.000000 66.386
700.000000 66.359
710.000000 66.350
720.000000 66.308
730.000000 66.227
740.000000 66.144
750.000000 66.066
762.000000 66.012
775.000000 65.969
788.000000 65.947
800.000000 65.963
812.000000 65.979
825.000000 65.970
838.000000 65.934
850.000000 65.905
862.000000 65.885
875.000000 65.876
885.000000 65.885
900.000000 65.937
912.000000 65.966
925.000000 65.958
938.000000 65.947
950.000000 65.931
962.000000 65.898
975.000000 65.879
988.000000 65.910
1000.000000 65.940
1015.000000 65.947
1030.000000 65.989
1044.000000 66.042
1060.000000 66.097
1075.000000 66.144
1090.000000 66.180
1106.000000 66.216
1120.000000 66.266
1138.000000 66.327
1150.000000 66.347
1172.000000 66.379
1180.000000 66.390
1206.000000 66.439
1220.000000 66.476
1241.000000 66.513
1250.000000 66.534
1265.000000 66.592
1280.000000 66.655
1315.000000 66.695
1320.000000 66.696
1340.000000 66.713
1360.000000 66.741
1380.000000 66.749
1400.000000 66.723
1430.000000 66.743
1450.000000 66.755
1475.000000 66.753
1500.000000 66.736
1525.000000 66.763
1550.000000 66.854
1575.000000 66.955
1600.000000 66.966
1625.000000 66.961
1650.000000 66.971
1675.000000 66.986
1700.000000 67.025
1725.000000 67.066
1750.000000 67.086
1775.000000 67.116
1800.000000 67.167
1825.000000 67.220
1850.000000 67.274
1875.000000 67.337
1900.000000 67.401
1925.000000 67.501
1950.000000 67.613
1975.000000 67.698
2000.000000 67.785
2030.000000 67.888
2060.000000 67.987
2090.000000 68.125
2120.000000 68.274
2140.000000 68.377
2180.000000 68.600
2200.000000 68.715
2240.000000 68.921
2270.000000 69.066
2300.000000 69.262
2330.000000 69.479
2360.000000 69.682
2400.000000 69.955
2430.000000 70.179
2470.000000 70.505
2500.000000 70.757
2540.000000 71.106
2580.000000 71.410
2620.000000 71.741
2650.000000 72.035
2690.000000 72.461
2720.000000 72.799
2760.000000 73.261
2800.000000 73.773
2850.000000 74.311
2900.000000 74.822
2950.000000 75.320
3000.000000 75.792
3040.000000 76.148
3070.000000 76.378
3110.000000 76.608
3150.000000 76.714
3200.000000 76.709
3250.000000 76.600
3300.000000 76.378
3350.000000 76.043
3400.000000 75.612
3450.000000 75.149
3500.000000 74.651
3550.000000 74.085
3600.000000 73.584
3650.000000 73.105
3700.000000 72.618
3750.000000 72.133
3820.000000 71.420
3870.000000 70.943
3950.000000 70.209
4000.000000 69.853
4060.000000 69.514
4120.000000 69.222
4180.000000 68.896
4250.000000 68.520
4310.000000 68.242
4370.000000 68.007
4440.000000 67.777
4500.000000 67.590
4550.000000 67.456
4620.000000 67.291
4680.000000 67.180
4750.000000 67.078
4820.000000 67.004
4870.000000 66.978
4940.000000 66.946
5000.000000 66.935
5080.000000 66.974
5150.000000 66.984
5220.000000 67.015
5300.000000 67.150
5380.000000 67.387
5450.000000 67.685
5520.000000 67.988
5600.000000 68.361
5700.000000 68.873
5800.000000 69.376
5900.000000 69.911
6000.000000 70.788
6080.000000 71.596
6150.000000 72.294
6220.000000 73.011
6300.000000 73.887
6400.000000 75.030
6500.000000 76.064
6600.000000 77.155
6700.000000 78.183
6800.000000 78.787
6900.000000 78.970
7000.000000 78.811
7100.000000 78.449
7200.000000 78.027
7300.000000 77.665
7400.000000 77.443
7500.000000 77.367
7620.000000 77.485
7750.000000 77.746
7880.000000 77.788
8000.000000 77.370
8120.000000 76.513
8250.000000 75.188
8380.000000 72.933
8500.000000 70.408
8620.000000 68.197
8750.000000 66.178
8850.000000 64.792
9000.000000 62.839
9120.000000 61.381
9250.000000 59.890
9380.000000 58.475
9500.000000 57.319
9620.000000 56.277
9750.000000 55.216
9880.000000 54.259
10000.000000 53.477
10150.000000 52.673
10300.000000 51.997
10440.000000 51.443
10600.000000 50.887
10750.000000 50.409
10900.000000 49.951
11060.000000 49.496
11200.000000 49.186
11380.000000 48.940
11500.000000 48.824
11720.000000 48.626
11800.000000 48.591
12060.000000 48.657
12200.000000 48.766
12410.000000 49.070
12500.000000 49.270
12650.000000 49.709
12800.000000 50.311
13150.000000 52.425
13200.000000 52.783
13400.000000 54.587
13600.000000 57.204
13800.000000 60.302
14000.000000 63.094
14300.000000 64.547
14500.000000 63.282
14750.000000 60.798
15000.000000 58.652
15250.000000 57.381
15500.000000 57.143
15750.000000 57.079
16000.000000 55.966
16250.000000 53.597
16500.000000 50.034
16750.000000 46.403
17000.000000 43.576
17250.000000 40.892
17500.000000 38.581
17750.000000 36.928
18000.000000 35.928
18250.000000 35.457
18500.000000 35.172
18750.000000 34.483
19000.000000 32.994
19250.000000 30.701
19500.000000 28.016
19750.000000 25.638
