* Measurement data measured by REW V5.20.13
* Source: Trace Arithmetic result A / B
* Format: Trace Arithmetic result A / B
* Dated: Feb 24, 2024 9:11:53 PM
* REW Settings:
*  C-weighting compensation: Off
*  Target level: 75.0 dB
* Note: Trace Arithmetic A over B A = Astell&Kern AKR02 R B = iPhone calib
* Measurement: A over B
* Smoothing: 1/24 octave
* Frequency Step: 1/48 octave
* Start Frequency: 20.000 Hz
*
* Freq(Hz) SPL(dB)
20.000000 73.299
20.299999 73.372
20.600000 73.359
20.900000 73.351
21.200001 73.357
21.400000 73.367
21.799999 73.374
22.000000 73.365
22.400000 73.333
22.700001 73.313
23.000000 73.302
23.299999 73.292
23.600000 73.281
24.000000 73.267
24.299999 73.259
24.700001 73.252
25.000000 73.253
25.400000 73.267
25.799999 73.268
26.200001 73.245
26.500000 73.237
26.900000 73.260
27.200001 73.283
27.600000 73.300
28.000000 73.309
28.500000 73.312
29.000000 73.287
29.500000 73.269
30.000000 73.289
30.400000 73.315
30.700001 73.332
31.100000 73.349
31.500000 73.371
32.000000 73.401
32.500000 73.415
33.000000 73.424
33.500000 73.411
34.000000 73.375
34.500000 73.348
35.000000 73.318
35.500000 73.283
36.000000 73.262
36.500000 73.246
37.000000 73.227
37.500000 73.227
38.200001 73.260
38.700001 73.275
39.500000 73.250
40.000000 73.213
40.599998 73.165
41.200001 73.146
41.799999 73.150
42.500000 73.173
43.099998 73.229
43.700001 73.276
44.400002 73.300
45.000000 73.295
45.500000 73.275
46.200001 73.251
46.799999 73.243
47.500000 73.246
48.200001 73.249
48.700001 73.240
49.400002 73.216
50.000000 73.208
50.799999 73.233
51.500000 73.257
52.200001 73.257
53.000000 73.247
53.799999 73.236
54.500000 73.234
55.200001 73.243
56.000000 73.256
57.000000 73.271
58.000000 73.267
59.000000 73.234
60.000000 73.238
60.799999 73.272
61.500000 73.315
62.200001 73.347
63.000000 73.347
64.000000 73.323
65.000000 73.299
66.000000 73.265
67.000000 73.210
68.000000 73.135
69.000000 73.080
70.000000 73.076
71.000000 73.108
72.000000 73.153
73.000000 73.175
74.000000 73.180
75.000000 73.179
76.199997 73.150
77.500000 73.102
78.800003 73.065
80.000000 73.059
81.199997 73.073
82.500000 73.053
83.800003 72.997
85.000000 72.961
86.199997 72.952
87.500000 72.971
88.500000 73.015
90.000000 73.057
91.199997 73.047
92.500000 73.046
93.800003 73.039
95.000000 72.992
96.199997 72.923
97.500000 72.863
98.800003 72.843
100.000000 72.847
101.500000 72.850
103.000000 72.842
104.400002 72.811
106.000000 72.753
107.500000 72.742
109.000000 72.799
110.599998 72.868
112.000000 72.895
113.800003 72.889
115.000000 72.859
117.199997 72.767
118.000000 72.740
120.599998 72.712
122.000000 72.717
124.099998 72.726
125.000000 72.729
126.500000 72.749
128.000000 72.786
131.500000 72.776
132.000000 72.752
134.000000 72.642
136.000000 72.567
138.000000 72.541
140.000000 72.541
143.000000 72.562
145.000000 72.552
147.500000 72.493
150.000000 72.457
152.500000 72.464
155.000000 72.470
157.500000 72.450
160.000000 72.406
162.500000 72.354
165.000000 72.319
167.500000 72.283
170.000000 72.226
172.500000 72.169
175.000000 72.171
177.500000 72.216
180.000000 72.209
182.500000 72.166
185.000000 72.127
187.500000 72.026
190.000000 71.937
192.500000 71.923
195.000000 71.917
197.500000 71.882
200.000000 71.831
203.000000 71.771
206.000000 71.724
209.000000 71.676
212.000000 71.634
214.000000 71.626
218.000000 71.623
220.000000 71.612
224.000000 71.581
227.000000 71.559
230.000000 71.528
233.000000 71.498
236.000000 71.489
240.000000 71.466
243.000000 71.427
247.000000 71.392
250.000000 71.373
254.000000 71.356
258.000000 71.296
262.000000 71.216
265.000000 71.162
269.000000 71.074
272.000000 71.013
276.000000 70.971
280.000000 70.960
285.000000 70.928
290.000000 70.869
295.000000 70.814
300.000000 70.752
304.000000 70.703
307.000000 70.662
311.000000 70.583
315.000000 70.481
320.000000 70.376
325.000000 70.333
330.000000 70.330
335.000000 70.300
340.000000 70.245
345.000000 70.207
350.000000 70.158
355.000000 70.083
360.000000 69.993
365.000000 69.922
370.000000 69.912
375.000000 69.937
382.000000 69.927
387.000000 69.890
395.000000 69.780
400.000000 69.701
406.000000 69.637
412.000000 69.574
418.000000 69.500
425.000000 69.399
431.000000 69.349
437.000000 69.355
444.000000 69.331
450.000000 69.255
455.000000 69.177
462.000000 69.074
468.000000 69.013
475.000000 68.961
482.000000 68.859
487.000000 68.767
494.000000 68.677
500.000000 68.634
508.000000 68.587
515.000000 68.528
522.000000 68.458
530.000000 68.399
538.000000 68.352
545.000000 68.307
552.000000 68.262
560.000000 68.205
570.000000 68.124
580.000000 68.004
590.000000 67.908
600.000000 67.853
608.000000 67.803
615.000000 67.742
622.000000 67.687
630.000000 67.641
640.000000 67.577
650.000000 67.513
660.000000 67.440
670.000000 67.366
680.000000 67.309
690.000000 67.249
700.000000 67.160
710.000000 67.095
720.000000 67.069
730.000000 67.063
740.000000 67.030
750.000000 66.962
762.000000 66.890
775.000000 66.823
788.000000 66.792
800.000000 66.780
812.000000 66.772
825.000000 66.725
838.000000 66.661
850.000000 66.656
862.000000 66.661
875.000000 66.627
885.000000 66.605
900.000000 66.628
912.000000 66.632
925.000000 66.617
938.000000 66.631
950.000000 66.635
962.000000 66.630
975.000000 66.651
988.000000 66.705
1000.000000 66.737
1015.000000 66.730
1030.000000 66.746
1044.000000 66.792
1060.000000 66.828
1075.000000 66.852
1090.000000 66.879
1106.000000 66.900
1120.000000 66.928
1138.000000 66.995
1150.000000 67.035
1172.000000 67.095
1180.000000 67.119
1206.000000 67.173
1220.000000 67.200
1241.000000 67.269
1250.000000 67.305
1265.000000 67.358
1280.000000 67.393
1315.000000 67.451
1320.000000 67.461
1340.000000 67.480
1360.000000 67.473
1380.000000 67.483
1400.000000 67.496
1430.000000 67.543
1450.000000 67.568
1475.000000 67.626
1500.000000 67.690
1525.000000 67.724
1550.000000 67.726
1575.000000 67.778
1600.000000 67.863
1625.000000 67.898
1650.000000 67.895
1675.000000 67.924
1700.000000 67.974
1725.000000 68.028
1750.000000 68.087
1775.000000 68.163
1800.000000 68.252
1825.000000 68.310
1850.000000 68.349
1875.000000 68.434
1900.000000 68.554
1925.000000 68.668
1950.000000 68.765
1975.000000 68.850
2000.000000 68.940
2030.000000 69.076
2060.000000 69.226
2090.000000 69.376
2120.000000 69.543
2140.000000 69.664
2180.000000 69.902
2200.000000 70.025
2240.000000 70.277
2270.000000 70.468
2300.000000 70.709
2330.000000 70.972
2360.000000 71.218
2400.000000 71.550
2430.000000 71.817
2470.000000 72.201
2500.000000 72.500
2540.000000 72.940
2580.000000 73.339
2620.000000 73.727
2650.000000 74.033
2690.000000 74.461
2720.000000 74.793
2760.000000 75.222
2800.000000 75.664
2850.000000 76.104
2900.000000 76.476
2950.000000 76.809
3000.000000 76.988
3040.000000 77.001
3070.000000 76.912
3110.000000 76.703
3150.000000 76.447
3200.000000 76.066
3250.000000 75.656
3300.000000 75.180
3350.000000 74.641
3400.000000 74.079
3450.000000 73.521
3500.000000 72.969
3550.000000 72.396
3600.000000 71.927
3650.000000 71.488
3700.000000 71.030
3750.000000 70.609
3820.000000 70.052
3870.000000 69.676
3950.000000 69.063
4000.000000 68.741
4060.000000 68.399
4120.000000 68.101
4180.000000 67.842
4250.000000 67.575
4310.000000 67.336
4370.000000 67.109
4440.000000 66.902
4500.000000 66.755
4550.000000 66.646
4620.000000 66.493
4680.000000 66.394
4750.000000 66.332
4820.000000 66.297
4870.000000 66.295
4940.000000 66.331
5000.000000 66.392
5080.000000 66.471
5150.000000 66.491
5220.000000 66.551
5300.000000 66.731
5380.000000 66.986
5450.000000 67.292
5520.000000 67.615
5600.000000 68.015
5700.000000 68.573
5800.000000 69.156
5900.000000 69.734
6000.000000 70.687
6080.000000 71.561
6150.000000 72.305
6220.000000 73.071
6300.000000 74.007
6400.000000 75.180
6500.000000 76.224
6600.000000 77.328
6700.000000 78.302
6800.000000 78.795
6900.000000 78.884
7000.000000 78.667
7100.000000 78.274
7200.000000 77.874
7300.000000 77.567
7400.000000 77.432
7500.000000 77.459
7620.000000 77.609
7750.000000 77.748
7880.000000 77.473
8000.000000 76.587
8120.000000 75.261
8250.000000 73.626
8380.000000 71.271
8500.000000 68.773
8620.000000 66.649
8750.000000 64.736
8850.000000 63.421
9000.000000 61.543
9120.000000 60.145
9250.000000 58.740
9380.000000 57.411
9500.000000 56.302
9620.000000 55.282
9750.000000 54.254
9880.000000 53.330
10000.000000 52.534
10150.000000 51.623
10300.000000 50.760
10440.000000 50.053
10600.000000 49.403
10750.000000 48.829
10900.000000 48.315
11060.000000 47.864
11200.000000 47.524
11380.000000 47.158
11500.000000 46.970
11720.000000 46.688
11800.000000 46.621
12060.000000 46.617
12200.000000 46.742
12410.000000 47.061
12500.000000 47.251
12650.000000 47.651
12800.000000 48.189
13150.000000 49.990
13200.000000 50.288
13400.000000 51.751
13600.000000 53.815
13800.000000 56.420
14000.000000 59.619
14300.000000 64.582
14500.000000 66.500
14750.000000 66.204
15000.000000 64.172
15250.000000 62.299
15500.000000 60.942
15750.000000 59.065
16000.000000 55.659
16250.000000 51.348
16500.000000 47.202
16750.000000 43.838
17000.000000 41.411
17250.000000 39.075
17500.000000 36.949
17750.000000 35.214
18000.000000 33.841
18250.000000 32.846
18500.000000 32.342
18750.000000 31.973
19000.000000 31.146
19250.000000 29.558
19500.000000 27.392
19750.000000 25.252
