* Measurement data measured by REW V5.20.13
* Source: Headset (DS by VECLAN.COM), MICROPHONE (Master Volume), L, volume: 0.720. Timing signal peak level -16.3 dBFS, measurement signal peak level -11.5 dBFS
* Format: 2M Log Swept Sine, 1 sweep at -12.0 dBFS using an acoustic timing reference
* Dated: Nov 24, 2023 3:37:46 PM
* REW Settings:
*  C-weighting compensation: Off
*  Target level: 75.0 dB
* Note: ; Delay -0.0577 ms (-20 mm, -0.78 in) using estimated IR delay relative to Acoustic reference played from HEADPHONE R with no timing offset Clock adjustment: 45.6 ppm
* Measurement: Audeze iSine 20 S2 R
* Smoothing: 1/24 octave
* Frequency Step: 1/48 octave
* Start Frequency: 1.000 Hz
*
* Freq(Hz) SPL(dB) Phase(degrees)
1.000000 61.929 -146.4821
1.015000 62.097 -146.6379
1.030000 62.263 -146.8017
1.044000 62.417 -146.9618
1.060000 62.591 -147.1535
1.075000 62.752 -147.3418
1.090000 62.911 -147.5382
1.106000 63.078 -147.7580
1.120000 63.222 -147.9636
1.138000 63.406 -148.2466
1.150000 63.526 -148.4460
1.172000 63.745 -148.8321
1.180000 63.824 -148.9786
1.206000 64.077 -149.4745
1.220000 64.212 -149.7528
1.241000 64.412 -150.1828
1.250000 64.497 -150.3711
1.265000 64.639 -150.6895
1.280000 64.779 -151.0127
1.315000 65.105 -151.7798
1.320000 65.151 -151.8903
1.340000 65.336 -152.3332
1.360000 65.521 -152.7756
1.380000 65.705 -153.2152
1.400000 65.890 -153.6496
1.430000 66.168 -154.2860
1.450000 66.354 -154.6967
1.475000 66.588 -155.1917
1.500000 66.823 -155.6733
1.525000 67.057 -156.1456
1.550000 67.291 -156.6110
1.575000 67.525 -157.0718
1.600000 67.759 -157.5302
1.625000 67.992 -157.9886
1.650000 68.224 -158.4493
1.675000 68.455 -158.9146
1.700000 68.685 -159.3868
1.725000 68.915 -159.8681
1.750000 69.143 -160.3610
1.775000 69.369 -160.8677
1.800000 69.594 -161.3905
1.825000 69.818 -161.9318
1.850000 70.040 -162.4919
1.875000 70.261 -163.0668
1.900000 70.481 -163.6554
1.925000 70.700 -164.2563
1.950000 70.919 -164.8686
1.975000 71.136 -165.4911
2.000000 71.352 -166.1226
2.030000 71.609 -166.8907
2.060000 71.864 -167.6682
2.090000 72.117 -168.4533
2.120000 72.368 -169.2438
2.140000 72.533 -169.7729
2.180000 72.861 -170.8335
2.200000 73.023 -171.3639
2.240000 73.345 -172.4330
2.270000 73.583 -173.2443
2.300000 73.820 -174.0630
2.330000 74.054 -174.8886
2.360000 74.286 -175.7204
2.400000 74.592 -176.8383
2.430000 74.818 -177.6824
2.470000 75.115 -178.8145
2.500000 75.335 -179.6677
2.540000 75.623 179.1903
2.580000 75.906 178.0436
2.620000 76.184 176.8853
2.650000 76.389 176.0091
2.690000 76.658 174.8328
2.720000 76.857 173.9460
2.760000 77.117 172.7592
2.800000 77.373 171.5697
2.850000 77.685 170.0827
2.900000 77.990 168.6000
2.950000 78.287 167.1241
3.000000 78.575 165.6404
3.040000 78.800 164.4486
3.070000 78.965 163.5541
3.110000 79.181 162.3631
3.150000 79.393 161.1770
3.200000 79.651 159.7062
3.250000 79.901 158.2545
3.300000 80.146 156.8281
3.350000 80.383 155.4213
3.400000 80.612 154.0281
3.450000 80.834 152.6501
3.500000 81.049 151.2888
3.550000 81.258 149.9458
3.600000 81.462 148.6228
3.650000 81.661 147.3212
3.700000 81.854 146.0399
3.750000 82.041 144.7743
3.820000 82.292 143.0330
3.870000 82.466 141.8145
3.950000 82.734 139.9156
4.000000 82.898 138.7646
4.060000 83.090 137.4234
4.120000 83.276 136.1254
4.180000 83.455 134.8666
4.250000 83.659 133.4419
4.310000 83.829 132.2539
4.370000 83.996 131.0921
4.440000 84.189 129.7693
4.500000 84.351 128.6716
4.550000 84.483 127.7799
4.620000 84.664 126.5617
4.680000 84.817 125.5411
4.750000 84.993 124.3718
4.820000 85.168 123.2284
4.870000 85.291 122.4335
4.940000 85.462 121.3447
5.000000 85.605 120.4279
5.080000 85.794 119.2194
5.150000 85.955 118.1667
5.220000 86.115 117.1257
5.300000 86.294 115.9521
5.380000 86.469 114.7923
5.450000 86.617 113.7863
5.520000 86.762 112.7859
5.600000 86.922 111.6488
5.700000 87.115 110.2420
5.800000 87.299 108.8592
5.900000 87.473 107.5064
6.000000 87.637 106.1749
6.080000 87.762 105.1302
6.150000 87.866 104.2367
6.220000 87.967 103.3670
6.300000 88.078 102.4013
6.400000 88.208 101.2310
6.500000 88.331 100.1055
6.600000 88.451 99.0292
6.700000 88.566 98.0086
6.800000 88.676 97.0376
6.900000 88.785 96.1036
7.000000 88.894 95.1976
7.100000 89.001 94.3333
7.200000 89.108 93.4975
7.300000 89.215 92.6698
7.400000 89.322 91.8421
7.500000 89.429 91.0270
7.620000 89.555 90.0485
7.750000 89.686 88.9655
7.880000 89.813 87.8618
8.000000 89.924 86.8352
8.120000 90.025 85.8052
8.250000 90.125 84.6751
8.380000 90.215 83.5626
8.500000 90.287 82.5728
8.620000 90.349 81.6052
8.750000 90.409 80.6068
8.850000 90.452 79.8904
9.000000 90.507 78.8892
9.120000 90.551 78.1437
9.250000 90.603 77.3952
9.380000 90.657 76.7097
9.500000 90.709 76.0943
9.620000 90.766 75.4828
9.750000 90.831 74.8368
9.880000 90.892 74.1644
10.000000 90.943 73.5021
10.150000 91.002 72.6359
10.300000 91.046 71.7212
10.440000 91.075 70.8078
10.600000 91.095 69.7523
10.750000 91.099 68.7788
10.900000 91.091 67.8261
11.060000 91.074 66.9249
11.200000 91.049 66.2248
11.380000 91.023 65.4708
11.500000 91.008 65.0842
11.720000 91.004 64.5184
11.800000 91.016 64.3437
12.060000 91.095 63.8429
12.200000 91.165 63.4878
12.410000 91.302 62.8326
12.500000 91.361 62.4580
12.650000 91.469 61.7139
12.800000 91.570 60.8455
13.150000 91.744 58.3594
13.200000 91.759 57.9899
13.400000 91.796 56.4545
13.600000 91.799 55.0201
13.800000 91.767 53.7527
14.000000 91.721 52.7343
14.300000 91.646 51.6828
14.500000 91.617 51.2597
14.750000 91.616 50.8556
15.000000 91.657 50.4910
15.250000 91.726 49.9834
15.500000 91.798 49.3322
15.750000 91.858 48.5596
16.000000 91.893 47.7692
16.250000 91.910 47.0726
16.500000 91.916 46.5041
16.750000 91.927 46.0879
17.000000 91.955 45.7336
17.250000 91.997 45.3816
17.500000 92.051 44.9514
17.750000 92.100 44.4174
18.000000 92.137 43.8152
18.250000 92.155 43.1884
18.500000 92.157 42.6339
18.750000 92.151 42.1753
19.000000 92.148 41.8326
19.250000 92.158 41.5554
19.500000 92.182 41.2763
19.750000 92.220 40.9438
20.000000 92.260 40.4986
20.299999 92.297 39.8436
20.600000 92.314 39.1200
20.900000 92.306 38.4295
21.200001 92.283 37.8714
21.400000 92.268 37.5912
21.799999 92.254 37.1934
22.000000 92.260 37.0284
22.400000 92.298 36.6399
22.700001 92.339 36.2316
23.000000 92.375 35.7173
23.299999 92.398 35.1530
23.600000 92.408 34.6020
24.000000 92.408 33.9716
24.299999 92.408 33.5988
24.700001 92.419 33.1948
25.000000 92.437 32.9035
25.400000 92.469 32.4647
25.799999 92.496 31.9546
26.200001 92.507 31.4329
26.500000 92.505 31.0889
26.900000 92.498 30.7388
27.200001 92.496 30.5546
27.600000 92.508 30.3642
28.000000 92.533 30.1546
28.500000 92.573 29.7892
29.000000 92.605 29.3443
29.500000 92.628 28.9105
30.000000 92.657 28.4958
30.400000 92.687 28.1094
30.700001 92.708 27.7528
31.100000 92.725 27.1916
31.500000 92.719 26.5959
32.000000 92.679 25.9633
32.500000 92.622 25.6013
33.000000 92.579 25.5231
33.500000 92.575 25.5974
34.000000 92.613 25.6193
34.500000 92.674 25.4202
35.000000 92.723 24.9765
35.500000 92.736 24.4513
36.000000 92.720 24.0758
36.500000 92.708 23.9236
37.000000 92.726 23.8161
37.500000 92.761 23.5273
38.200001 92.770 22.8680
38.700001 92.741 22.5195
39.500000 92.721 22.3031
40.000000 92.736 22.0774
40.599998 92.736 21.6339
41.200001 92.704 21.3296
41.799999 92.689 21.2861
42.500000 92.728 21.1642
43.099998 92.762 20.7625
43.700001 92.760 20.3163
44.400002 92.736 20.0457
45.000000 92.736 19.9896
45.500000 92.757 19.9343
46.200001 92.804 19.7113
46.799999 92.840 19.3492
47.500000 92.852 18.8370
48.200001 92.829 18.4697
48.700001 92.809 18.3911
49.400002 92.810 18.4725
50.000000 92.848 18.5078
50.799999 92.912 18.2024
51.500000 92.923 17.6910
52.200001 92.881 17.3239
53.000000 92.824 17.2842
53.799999 92.802 17.3824
54.500000 92.795 17.4003
55.200001 92.790 17.4136
56.000000 92.803 17.4631
57.000000 92.855 17.3475
58.000000 92.901 16.9784
59.000000 92.920 16.6091
60.000000 92.915 16.4664
60.799999 92.933 16.5900
61.500000 92.978 16.5807
62.200001 93.007 16.2440
63.000000 92.962 15.7260
64.000000 92.813 15.5648
65.000000 92.690 16.1069
66.000000 92.691 16.6055
67.000000 92.732 16.3011
68.000000 92.731 15.7529
69.000000 92.756 15.2090
70.000000 92.779 14.4789
71.000000 92.780 14.0057
72.000000 92.824 13.9182
73.000000 92.918 13.7015
74.000000 92.955 13.2422
75.000000 92.928 13.3320
76.199997 92.989 13.8655
77.500000 93.052 13.5900
78.800003 92.976 13.4778
80.000000 92.944 14.0415
81.199997 93.034 14.1455
82.500000 93.058 13.2188
83.800003 92.942 12.7529
85.000000 92.880 13.1381
86.199997 92.919 13.5922
87.500000 92.998 13.7071
88.500000 93.044 13.5641
90.000000 93.058 13.1281
91.199997 93.026 12.7542
92.500000 92.982 12.5728
93.800003 92.991 12.5172
95.000000 93.018 12.4747
96.199997 93.050 12.6130
97.500000 93.062 12.9423
98.800003 93.025 13.5361
100.000000 92.986 14.2212
101.500000 92.955 14.1875
103.000000 92.835 13.1013
104.400002 92.730 11.5938
106.000000 92.682 9.9276
107.500000 92.712 8.3866
109.000000 92.651 8.2704
110.599998 92.751 10.3489
112.000000 93.009 11.9189
113.800003 93.198 12.4020
115.000000 93.213 12.6030
117.199997 93.233 12.3854
118.000000 93.204 12.0973
120.599998 93.097 11.9155
122.000000 93.068 11.8803
124.099998 93.039 11.9805
125.000000 93.043 12.0142
126.500000 93.078 11.9435
128.000000 93.118 11.6253
131.500000 93.107 11.3148
132.000000 93.104 11.4112
134.000000 93.142 11.8605
136.000000 93.201 11.7917
138.000000 93.205 11.4594
140.000000 93.181 11.2394
143.000000 93.138 11.1059
145.000000 93.105 11.1316
147.500000 93.085 11.2856
150.000000 93.096 11.3243
152.500000 93.131 11.1895
155.000000 93.195 10.9976
157.500000 93.262 11.1763
160.000000 93.304 11.5866
162.500000 93.302 11.7927
165.000000 93.316 11.8378
167.500000 93.371 11.9583
170.000000 93.376 12.2612
172.500000 93.320 12.5571
175.000000 93.283 12.5115
177.500000 93.292 12.2753
180.000000 93.311 12.2129
182.500000 93.337 12.2392
185.000000 93.376 12.2157
187.500000 93.414 12.2689
190.000000 93.419 12.3004
192.500000 93.390 12.2008
195.000000 93.381 12.1154
197.500000 93.396 12.2130
200.000000 93.405 12.5201
203.000000 93.404 12.7386
206.000000 93.413 12.6771
209.000000 93.418 12.7758
212.000000 93.458 12.9619
214.000000 93.497 12.8513
218.000000 93.523 12.7139
220.000000 93.518 12.9733
224.000000 93.517 13.5053
227.000000 93.533 13.5962
230.000000 93.573 13.5990
233.000000 93.612 13.5425
236.000000 93.628 13.4880
240.000000 93.623 13.5582
243.000000 93.616 13.7100
247.000000 93.628 13.7747
250.000000 93.645 13.6935
254.000000 93.674 13.5555
258.000000 93.698 13.7098
262.000000 93.706 14.0081
265.000000 93.711 14.1499
269.000000 93.740 14.2861
272.000000 93.759 14.4178
276.000000 93.784 14.4886
280.000000 93.799 14.4446
285.000000 93.814 14.2975
290.000000 93.865 14.5706
295.000000 93.901 15.0235
300.000000 93.933 14.8854
304.000000 93.992 14.8923
307.000000 94.023 14.9644
311.000000 94.047 15.1733
315.000000 94.069 15.4165
320.000000 94.093 15.5608
325.000000 94.111 15.8083
330.000000 94.152 16.5326
335.000000 94.237 16.7366
340.000000 94.231 16.4677
345.000000 94.217 16.3369
350.000000 94.267 16.4700
355.000000 94.323 16.5925
360.000000 94.346 16.7842
365.000000 94.362 17.0510
370.000000 94.381 17.2191
375.000000 94.415 17.3485
382.000000 94.473 17.5336
387.000000 94.492 17.7040
395.000000 94.522 18.0820
400.000000 94.577 18.2341
406.000000 94.654 18.2966
412.000000 94.721 18.4171
418.000000 94.779 18.6716
425.000000 94.829 18.8447
431.000000 94.860 18.9548
437.000000 94.900 19.1893
444.000000 94.963 19.3334
450.000000 95.008 19.4058
455.000000 95.035 19.4537
462.000000 95.085 19.5134
468.000000 95.140 19.6292
475.000000 95.214 19.7395
482.000000 95.278 19.8190
487.000000 95.311 19.9426
494.000000 95.356 20.1501
500.000000 95.407 20.3444
508.000000 95.492 20.6146
515.000000 95.562 20.7574
522.000000 95.628 20.8298
530.000000 95.715 20.9825
538.000000 95.802 21.1642
545.000000 95.882 21.2927
552.000000 95.975 21.3869
560.000000 96.092 21.4246
570.000000 96.210 21.4486
580.000000 96.300 21.5203
590.000000 96.411 21.7001
600.000000 96.522 21.7334
608.000000 96.604 21.6885
615.000000 96.674 21.5851
622.000000 96.750 21.4243
630.000000 96.837 21.2622
640.000000 96.945 21.1952
650.000000 97.033 21.1130
660.000000 97.115 20.9856
670.000000 97.214 20.8591
680.000000 97.298 20.7363
690.000000 97.368 20.6383
700.000000 97.451 20.6709
710.000000 97.553 20.8005
720.000000 97.677 20.9109
730.000000 97.810 21.0071
740.000000 97.947 20.9945
750.000000 98.091 20.8529
762.000000 98.274 20.5532
775.000000 98.453 20.0594
788.000000 98.622 19.4311
800.000000 98.772 18.8201
812.000000 98.902 18.1801
825.000000 99.032 17.4060
838.000000 99.172 16.6132
850.000000 99.276 15.8885
862.000000 99.354 15.2404
875.000000 99.428 14.6006
885.000000 99.476 14.1194
900.000000 99.560 13.5073
912.000000 99.645 13.1293
925.000000 99.759 12.7689
938.000000 99.887 12.3029
950.000000 100.004 11.7543
962.000000 100.110 11.1031
975.000000 100.210 10.2775
988.000000 100.314 9.4147
1000.000000 100.419 8.6683
1015.000000 100.549 7.7959
1030.000000 100.670 6.8375
1044.000000 100.786 5.8414
1060.000000 100.924 4.6508
1075.000000 101.050 3.4286
1090.000000 101.182 2.1305
1106.000000 101.312 0.6540
1120.000000 101.423 -0.7280
1138.000000 101.559 -2.6296
1150.000000 101.634 -3.9696
1172.000000 101.750 -6.5296
1180.000000 101.785 -7.5081
1206.000000 101.857 -10.9354
1220.000000 101.861 -12.8898
1241.000000 101.816 -15.8904
1250.000000 101.779 -17.1965
1265.000000 101.686 -19.3558
1280.000000 101.545 -21.4753
1315.000000 101.003 -25.6400
1320.000000 100.903 -26.0522
1340.000000 100.464 -27.1053
1360.000000 100.000 -27.0345
1380.000000 99.611 -25.8773
1400.000000 99.409 -24.0587
1430.000000 99.503 -21.3354
1450.000000 99.769 -20.1960
1475.000000 100.175 -20.7594
1500.000000 100.495 -23.0743
1525.000000 100.744 -25.6343
1550.000000 100.811 -28.4480
1575.000000 100.707 -31.5175
1600.000000 100.484 -34.1169
1625.000000 100.291 -36.4609
1650.000000 100.072 -38.6051
1675.000000 99.831 -40.3615
1700.000000 99.574 -41.8463
1725.000000 99.299 -43.2066
1750.000000 99.025 -44.3007
1775.000000 98.745 -45.2090
1800.000000 98.468 -45.9095
1825.000000 98.211 -46.4094
1850.000000 97.962 -46.7941
1875.000000 97.718 -47.1328
1900.000000 97.483 -47.3652
1925.000000 97.263 -47.5056
1950.000000 97.062 -47.5995
1975.000000 96.868 -47.6354
2000.000000 96.682 -47.6177
2030.000000 96.468 -47.5465
2060.000000 96.274 -47.4735
2090.000000 96.107 -47.4633
2120.000000 95.970 -47.5151
2140.000000 95.890 -47.5830
2180.000000 95.737 -47.8148
2200.000000 95.660 -48.0083
2240.000000 95.507 -48.6188
2270.000000 95.396 -49.3160
2300.000000 95.280 -50.2841
2330.000000 95.142 -51.5273
2360.000000 94.956 -53.0517
2400.000000 94.577 -55.3989
2430.000000 94.158 -57.1238
2470.000000 93.404 -58.6173
2500.000000 92.736 -58.5008
2540.000000 91.878 -56.3522
2580.000000 91.256 -52.7427
2620.000000 90.911 -49.1897
2650.000000 90.743 -47.1248
2690.000000 90.501 -44.9600
2720.000000 90.280 -43.2698
2760.000000 89.993 -40.4626
2800.000000 89.813 -37.1042
2850.000000 89.772 -32.9382
2900.000000 89.841 -29.4291
2950.000000 89.974 -26.5059
3000.000000 90.172 -23.9757
3040.000000 90.384 -22.2532
3070.000000 90.564 -21.2382
3110.000000 90.807 -20.3802
3150.000000 91.039 -20.0213
3200.000000 91.302 -20.1061
3250.000000 91.502 -20.6791
3300.000000 91.647 -21.5952
3350.000000 91.747 -22.7750
3400.000000 91.763 -24.1093
3450.000000 91.721 -25.3405
3500.000000 91.650 -26.5601
3550.000000 91.549 -27.9637
3600.000000 91.401 -29.5018
3650.000000 91.145 -31.0374
3700.000000 90.728 -32.0851
3750.000000 90.215 -31.8042
3820.000000 89.675 -29.1663
3870.000000 89.565 -27.1728
3950.000000 89.546 -25.2843
4000.000000 89.487 -24.9147
4060.000000 89.403 -24.9071
4120.000000 89.288 -25.2515
4180.000000 89.101 -25.8060
4250.000000 88.775 -26.4313
4310.000000 88.419 -26.7717
4370.000000 87.994 -26.8210
4440.000000 87.441 -26.4038
4500.000000 86.944 -25.6783
4550.000000 86.521 -24.8206
4620.000000 85.906 -23.2631
4680.000000 85.332 -21.5565
4750.000000 84.587 -18.8417
4820.000000 83.786 -14.8278
4870.000000 83.240 -10.9199
4940.000000 82.646 -4.2393
5000.000000 82.353 1.7605
5080.000000 82.111 9.2114
5150.000000 81.884 16.0958
5220.000000 81.777 24.4330
5300.000000 82.128 34.8209
5380.000000 82.947 43.7708
5450.000000 83.817 49.7194
5520.000000 84.721 54.2296
5600.000000 85.724 58.0317
5700.000000 86.912 61.2033
5800.000000 88.033 62.9881
5900.000000 89.042 63.8848
6000.000000 89.992 64.2808
6080.000000 90.739 64.3120
6150.000000 91.386 64.1982
6220.000000 92.044 63.9742
6300.000000 92.846 63.3748
6400.000000 93.900 61.5478
6500.000000 94.899 58.0574
6600.000000 95.743 53.0998
6700.000000 96.369 47.1345
6800.000000 96.768 40.7805
6900.000000 96.981 34.5000
7000.000000 97.044 28.5648
7100.000000 96.981 23.1348
7200.000000 96.818 18.1194
7300.000000 96.551 13.4236
7400.000000 96.150 9.0868
7500.000000 95.574 5.4080
7620.000000 94.653 2.8249
7750.000000 93.510 3.5326
7880.000000 92.431 8.6616
8000.000000 91.934 16.6071
8120.000000 92.214 24.7390
8250.000000 93.136 30.7748
8380.000000 94.269 33.0874
8500.000000 95.303 32.3576
8620.000000 96.208 28.9592
8750.000000 96.809 22.4280
8850.000000 96.863 16.6307
9000.000000 96.373 10.1150
9120.000000 95.820 7.9503
9250.000000 95.383 7.5872
9380.000000 95.170 7.7446
9500.000000 95.106 7.8491
9620.000000 95.143 7.7648
9750.000000 95.301 7.2385
9880.000000 95.574 5.6285
10000.000000 95.795 2.5958
10150.000000 95.775 -2.4481
10300.000000 95.424 -6.5403
10440.000000 95.060 -8.7463
10600.000000 94.780 -10.7430
10750.000000 94.561 -12.9948
10900.000000 94.301 -15.5394
11060.000000 93.937 -18.4600
11200.000000 93.491 -20.5682
11380.000000 92.877 -21.7509
11500.000000 92.555 -22.1761
11720.000000 91.970 -23.8138
11800.000000 91.679 -24.4299
12060.000000 90.460 -24.0995
12200.000000 89.768 -22.0614
12410.000000 88.874 -16.7920
12500.000000 88.593 -13.8405
12650.000000 88.339 -8.4347
12800.000000 88.370 -3.1376
13150.000000 89.296 6.2609
13200.000000 89.514 7.0660
13400.000000 90.503 8.0288
13600.000000 91.452 4.5393
13800.000000 91.996 -3.6327
14000.000000 91.761 -14.5276
14300.000000 89.804 -26.1483
14500.000000 87.985 -27.4417
14750.000000 85.857 -23.8710
15000.000000 84.126 -16.6948
15250.000000 82.948 -6.9526
15500.000000 82.528 3.5402
15750.000000 82.844 13.2686
16000.000000 83.861 21.2849
16250.000000 85.555 25.5168
16500.000000 87.494 22.6713
16750.000000 88.932 10.7598
17000.000000 89.181 -7.7136
17250.000000 88.051 -24.9540
17500.000000 86.031 -35.5186
17750.000000 83.816 -40.3224
18000.000000 81.792 -42.0576
18250.000000 80.059 -42.5251
18500.000000 78.657 -42.8346
18750.000000 77.630 -43.6226
19000.000000 76.923 -45.3336
19250.000000 76.256 -48.7164
19500.000000 75.217 -53.9854
19750.000000 73.574 -59.7036
20000.000000 71.273 -63.1416
20300.000000 67.901 -61.0696
20600.000000 64.833 -53.9695
20900.000000 62.841 -48.0471
21200.000000 61.537 -47.0458
21400.000000 60.728 -49.6890
21800.000000 58.803 -77.1919
22000.000000 57.537 -149.8196
22400.000000 53.995 -89.2683
22700.000000 50.207 135.5522
23000.000000 45.433 -46.2266
23300.000000 40.400 128.1406
23600.000000 37.419 114.9570
24000.000000 37.028 116.9141
