* Measurement data measured by REW V5.20.13
* Source: Headset (DS by VECLAN.COM), MICROPHONE (Master Volume), L, volume: 0.720. Timing signal peak level -16.0 dBFS, measurement signal peak level -14.9 dBFS
* Format: 2M Log Swept Sine, 1 sweep at -12.0 dBFS using an acoustic timing reference
* Dated: Dec 30, 2023 7:59:00 PM
* REW Settings:
*  C-weighting compensation: Off
*  Target level: 75.0 dB
* Note: ; Delay -0.1393 ms (-48 mm, -1.88 in) using estimated IR delay relative to Acoustic reference played from HEADPHONE R with no timing offset Clock adjustment: -17.2 ppm
* Measurement: Balanced R
* Smoothing: 1/24 octave
* Frequency Step: 1/48 octave
* Start Frequency: 1.000 Hz
*
* Freq(Hz) SPL(dB) Phase(degrees)
1.000000 59.768 116.6969
1.015000 60.110 114.5670
1.030000 60.448 112.5100
1.044000 60.759 110.6631
1.060000 61.110 108.6476
1.075000 61.433 106.8588
1.090000 61.750 105.1760
1.106000 62.082 103.5053
1.120000 62.368 102.1418
1.138000 62.733 100.5122
1.150000 62.973 99.4978
1.172000 63.409 97.7745
1.180000 63.566 97.1883
1.206000 64.071 95.4155
1.220000 64.339 94.5356
1.241000 64.736 93.2991
1.250000 64.905 92.7957
1.265000 65.184 91.9868
1.280000 65.460 91.2095
1.315000 66.095 89.4808
1.320000 66.184 89.2398
1.340000 66.539 88.2811
1.360000 66.891 87.3184
1.380000 67.238 86.3355
1.400000 67.580 85.3165
1.430000 68.087 83.6850
1.450000 68.421 82.5053
1.475000 68.832 80.9082
1.500000 69.236 79.2431
1.525000 69.631 77.5367
1.550000 70.020 75.7981
1.575000 70.401 74.0364
1.600000 70.775 72.2607
1.625000 71.143 70.4798
1.650000 71.505 68.7031
1.675000 71.861 66.9393
1.700000 72.211 65.1977
1.725000 72.556 63.4872
1.750000 72.896 61.8170
1.775000 73.232 60.1960
1.800000 73.563 58.6334
1.825000 73.891 57.1381
1.850000 74.214 55.7144
1.875000 74.531 54.3524
1.900000 74.842 53.0451
1.925000 75.147 51.7860
1.950000 75.448 50.5687
1.975000 75.742 49.3866
2.000000 76.033 48.2332
2.030000 76.375 46.8779
2.060000 76.710 45.5433
2.090000 77.040 44.2183
2.120000 77.365 42.8915
2.140000 77.579 42.0005
2.180000 78.000 40.1880
2.200000 78.208 39.2599
2.240000 78.616 37.3903
2.270000 78.914 35.9887
2.300000 79.207 34.5891
2.330000 79.493 33.1925
2.360000 79.775 31.8002
2.400000 80.142 29.9524
2.430000 80.411 28.5745
2.470000 80.764 26.7504
2.500000 81.023 25.3934
2.540000 81.364 23.6015
2.580000 81.698 21.8306
2.620000 82.023 20.0724
2.650000 82.261 18.7617
2.690000 82.572 17.0262
2.720000 82.800 15.7347
2.760000 83.097 14.0278
2.800000 83.388 12.3396
2.850000 83.742 10.2587
2.900000 84.088 8.2139
2.950000 84.424 6.2100
3.000000 84.751 4.2581
3.040000 85.004 2.7292
3.070000 85.190 1.5978
3.110000 85.432 0.1050
3.150000 85.668 -1.3752
3.200000 85.956 -3.2164
3.250000 86.237 -5.0582
3.300000 86.510 -6.9119
3.350000 86.775 -8.7833
3.400000 87.032 -10.6643
3.450000 87.280 -12.5439
3.500000 87.520 -14.4110
3.550000 87.753 -16.2549
3.600000 87.980 -18.0646
3.650000 88.200 -19.8292
3.700000 88.415 -21.5407
3.750000 88.622 -23.2054
3.820000 88.900 -25.4739
3.870000 89.091 -27.0621
3.950000 89.385 -29.5715
4.000000 89.562 -31.1337
4.060000 89.769 -33.0148
4.120000 89.967 -34.8967
4.180000 90.156 -36.7686
4.250000 90.368 -38.9259
4.310000 90.543 -40.7407
4.370000 90.713 -42.5129
4.440000 90.903 -44.5162
4.500000 91.059 -46.1832
4.550000 91.184 -47.5430
4.620000 91.353 -49.4103
4.680000 91.492 -50.9850
4.750000 91.650 -52.8025
4.820000 91.801 -54.6028
4.870000 91.905 -55.8727
4.940000 92.045 -57.6262
5.000000 92.160 -59.1049
5.080000 92.308 -61.0385
5.150000 92.434 -62.6921
5.220000 92.554 -64.3071
5.300000 92.685 -66.1102
5.380000 92.811 -67.8747
5.450000 92.916 -69.3927
5.520000 93.019 -70.8907
5.600000 93.131 -72.5713
5.700000 93.264 -74.6263
5.800000 93.390 -76.6375
5.900000 93.510 -78.6111
6.000000 93.623 -80.5438
6.080000 93.708 -82.0605
6.150000 93.779 -83.3669
6.220000 93.848 -84.6547
6.300000 93.922 -86.1024
6.400000 94.009 -87.8757
6.500000 94.090 -89.6118
6.600000 94.165 -91.3143
6.700000 94.235 -92.9857
6.800000 94.298 -94.6230
6.900000 94.356 -96.2225
7.000000 94.409 -97.7808
7.100000 94.456 -99.2986
7.200000 94.498 -100.7775
7.300000 94.537 -102.2190
7.400000 94.572 -103.6237
7.500000 94.602 -104.9906
7.620000 94.634 -106.5820
7.750000 94.664 -108.2462
7.880000 94.690 -109.8451
8.000000 94.711 -111.2710
8.120000 94.729 -112.6554
8.250000 94.746 -114.1032
8.380000 94.761 -115.5059
8.500000 94.773 -116.7669
8.620000 94.783 -117.9917
8.750000 94.792 -119.2844
8.850000 94.797 -120.2584
9.000000 94.802 -121.6828
9.120000 94.804 -122.7925
9.250000 94.804 -123.9670
9.380000 94.802 -125.1120
9.500000 94.796 -126.1397
9.620000 94.786 -127.1385
9.750000 94.770 -128.1888
9.880000 94.746 -129.2028
10.000000 94.714 -130.1050
10.150000 94.664 -131.1887
10.300000 94.607 -132.2223
10.440000 94.547 -133.1398
10.600000 94.475 -134.1396
10.750000 94.412 -135.0326
10.900000 94.349 -135.8839
11.060000 94.286 -136.7587
11.200000 94.233 -137.4933
11.380000 94.167 -138.4087
11.500000 94.124 -139.0028
11.720000 94.049 -140.0602
11.800000 94.023 -140.4365
12.060000 93.941 -141.6262
12.200000 93.898 -142.2447
12.410000 93.835 -143.1418
12.500000 93.808 -143.5125
12.650000 93.763 -144.1132
12.800000 93.718 -144.6905
13.150000 93.612 -145.9424
13.200000 93.598 -146.1112
13.400000 93.542 -146.7599
13.600000 93.489 -147.3739
13.800000 93.440 -147.9550
14.000000 93.393 -148.5090
14.300000 93.325 -149.2919
14.500000 93.282 -149.7844
14.750000 93.231 -150.3671
15.000000 93.184 -150.9143
15.250000 93.143 -151.4272
15.500000 93.107 -151.9111
15.750000 93.075 -152.3696
16.000000 93.046 -152.8100
16.250000 93.020 -153.2367
16.500000 92.997 -153.6522
16.750000 92.976 -154.0585
17.000000 92.958 -154.4559
17.250000 92.942 -154.8448
17.500000 92.928 -155.2256
17.750000 92.915 -155.5995
18.000000 92.902 -155.9654
18.250000 92.890 -156.3226
18.500000 92.877 -156.6653
18.750000 92.865 -156.9890
19.000000 92.854 -157.2899
19.250000 92.846 -157.5655
19.500000 92.843 -157.8223
19.750000 92.844 -158.0658
20.000000 92.850 -158.3112
20.299999 92.861 -158.6234
20.600000 92.875 -158.9645
20.900000 92.888 -159.3348
21.200001 92.896 -159.7198
21.400000 92.899 -159.9710
21.799999 92.899 -160.4396
22.000000 92.898 -160.6506
22.400000 92.901 -161.0283
22.700001 92.908 -161.2923
23.000000 92.919 -161.5637
23.299999 92.933 -161.8563
23.600000 92.946 -162.1713
24.000000 92.960 -162.6135
24.299999 92.967 -162.9443
24.700001 92.974 -163.3655
25.000000 92.977 -163.6630
25.400000 92.983 -164.0427
25.799999 92.991 -164.4180
26.200001 92.998 -164.7988
26.500000 93.003 -165.0886
26.900000 93.009 -165.4768
27.200001 93.013 -165.7653
27.600000 93.017 -166.1411
28.000000 93.021 -166.5028
28.500000 93.030 -166.9394
29.000000 93.044 -167.3875
29.500000 93.061 -167.8856
30.000000 93.071 -168.4385
30.400000 93.068 -168.8814
30.700001 93.061 -169.1851
31.100000 93.049 -169.5278
31.500000 93.041 -169.8054
32.000000 93.045 -170.1202
32.500000 93.059 -170.4758
33.000000 93.072 -170.8948
33.500000 93.077 -171.3350
34.000000 93.078 -171.7513
34.500000 93.080 -172.1406
35.000000 93.082 -172.5217
35.500000 93.084 -172.9034
36.000000 93.083 -173.2786
36.500000 93.081 -173.6434
37.000000 93.079 -174.0027
37.500000 93.076 -174.3590
38.200001 93.070 -174.8469
38.700001 93.067 -175.1880
39.500000 93.064 -175.7356
40.000000 93.062 -176.0786
40.599998 93.060 -176.4875
41.200001 93.058 -176.8993
41.799999 93.056 -177.3160
42.500000 93.050 -177.7913
43.099998 93.046 -178.1777
43.700001 93.043 -178.5544
44.400002 93.039 -178.9954
45.000000 93.034 -179.3696
45.500000 93.029 -179.6705
46.200001 93.022 179.9221
46.799999 93.018 179.5728
47.500000 93.011 179.1649
48.200001 93.002 178.7814
48.700001 92.997 178.5264
49.400002 92.994 178.1671
50.000000 92.991 177.8373
50.799999 92.981 177.3930
51.500000 92.969 177.0319
52.200001 92.956 176.6863
53.000000 92.942 176.2935
53.799999 92.929 175.8908
54.500000 92.916 175.5095
55.200001 92.898 175.1202
56.000000 92.875 174.7162
57.000000 92.857 174.2506
58.000000 92.854 173.7709
59.000000 92.862 173.1644
60.000000 92.839 172.4467
60.799999 92.801 172.0389
61.500000 92.778 171.8007
62.200001 92.767 171.5356
63.000000 92.750 171.1714
64.000000 92.720 170.7369
65.000000 92.690 170.3092
66.000000 92.659 169.8558
67.000000 92.628 169.3892
68.000000 92.596 168.9012
69.000000 92.562 168.4229
70.000000 92.530 167.9772
71.000000 92.503 167.5268
72.000000 92.475 167.0560
73.000000 92.442 166.5911
74.000000 92.405 166.1288
75.000000 92.363 165.6814
76.199997 92.311 165.1763
77.500000 92.256 164.6213
78.800003 92.198 164.0637
80.000000 92.145 163.5509
81.199997 92.090 163.0312
82.500000 92.026 162.4858
83.800003 91.960 161.9583
85.000000 91.896 161.4860
86.199997 91.833 161.0333
87.500000 91.766 160.5405
88.500000 91.713 160.1561
90.000000 91.631 159.5878
91.199997 91.563 159.1459
92.500000 91.483 158.6838
93.800003 91.397 158.2521
95.000000 91.311 157.8990
96.199997 91.228 157.5802
97.500000 91.142 157.1855
98.800003 91.051 156.7560
100.000000 90.965 156.3629
101.500000 90.855 155.8979
103.000000 90.745 155.4926
104.400002 90.643 155.1725
106.000000 90.525 154.8574
107.500000 90.414 154.5660
109.000000 90.295 154.2463
110.599998 90.153 153.9123
112.000000 90.020 153.6868
113.800003 89.857 153.4780
115.000000 89.752 153.3620
117.199997 89.569 153.1877
118.000000 89.503 153.1355
120.599998 89.272 153.0291
122.000000 89.140 153.1077
124.099998 88.951 153.2847
125.000000 88.873 153.3550
126.500000 88.742 153.4687
128.000000 88.612 153.5989
131.500000 88.314 154.0250
132.000000 88.272 154.1049
134.000000 88.105 154.4675
136.000000 87.941 154.8842
138.000000 87.782 155.3772
140.000000 87.627 155.9358
143.000000 87.401 156.8694
145.000000 87.257 157.5524
147.500000 87.086 158.4572
150.000000 86.918 159.3878
152.500000 86.760 160.3900
155.000000 86.630 161.4291
157.500000 86.512 162.5115
160.000000 86.391 163.7037
162.500000 86.280 164.8950
165.000000 86.182 165.9875
167.500000 86.100 167.1006
170.000000 86.030 168.2468
172.500000 85.963 169.4067
175.000000 85.913 170.5142
177.500000 85.882 171.5690
180.000000 85.860 172.6635
182.500000 85.843 173.8065
185.000000 85.835 174.8928
187.500000 85.832 175.9147
190.000000 85.837 176.9279
192.500000 85.849 177.8999
195.000000 85.865 178.7694
197.500000 85.887 179.5842
200.000000 85.918 -179.5994
203.000000 85.959 -178.6703
206.000000 85.999 -177.8152
209.000000 86.045 -177.0051
212.000000 86.097 -176.2463
214.000000 86.132 -175.7554
218.000000 86.202 -174.8010
220.000000 86.234 -174.3721
224.000000 86.301 -173.6089
227.000000 86.359 -173.0908
230.000000 86.410 -172.5848
233.000000 86.452 -172.0804
236.000000 86.492 -171.6301
240.000000 86.552 -171.0876
243.000000 86.602 -170.7222
247.000000 86.667 -170.2784
250.000000 86.711 -169.9463
254.000000 86.765 -169.5083
258.000000 86.816 -169.0858
262.000000 86.865 -168.6953
265.000000 86.902 -168.4374
269.000000 86.950 -168.1283
272.000000 86.981 -167.9178
276.000000 87.019 -167.6451
280.000000 87.057 -167.3094
285.000000 87.105 -166.8762
290.000000 87.152 -166.4827
295.000000 87.195 -166.1131
300.000000 87.233 -165.7569
304.000000 87.258 -165.5056
307.000000 87.276 -165.3220
311.000000 87.302 -165.0723
315.000000 87.327 -164.8190
320.000000 87.357 -164.5118
325.000000 87.385 -164.1897
330.000000 87.412 -163.8334
335.000000 87.443 -163.4907
340.000000 87.470 -163.1894
345.000000 87.494 -162.8956
350.000000 87.515 -162.5799
355.000000 87.534 -162.2386
360.000000 87.551 -161.9102
365.000000 87.568 -161.6008
370.000000 87.588 -161.2864
375.000000 87.609 -160.9678
382.000000 87.638 -160.5519
387.000000 87.658 -160.2585
395.000000 87.687 -159.7930
400.000000 87.704 -159.5043
406.000000 87.725 -159.1643
412.000000 87.746 -158.8331
418.000000 87.765 -158.5101
425.000000 87.784 -158.1171
431.000000 87.801 -157.7853
437.000000 87.820 -157.4611
444.000000 87.841 -157.1024
450.000000 87.860 -156.8033
455.000000 87.875 -156.5513
462.000000 87.894 -156.2039
468.000000 87.910 -155.9162
475.000000 87.928 -155.5807
482.000000 87.946 -155.2581
487.000000 87.958 -155.0371
494.000000 87.977 -154.7263
500.000000 87.996 -154.4736
508.000000 88.019 -154.2029
515.000000 88.035 -154.0289
522.000000 88.047 -153.9070
530.000000 88.060 -153.8141
538.000000 88.075 -153.7410
545.000000 88.084 -153.6901
552.000000 88.092 -153.6483
560.000000 88.100 -153.5925
570.000000 88.111 -153.5266
580.000000 88.118 -153.4835
590.000000 88.119 -153.4553
600.000000 88.114 -153.4235
608.000000 88.104 -153.3857
615.000000 88.091 -153.3470
622.000000 88.076 -153.3059
630.000000 88.056 -153.2495
640.000000 88.028 -153.1499
650.000000 87.997 -153.0085
660.000000 87.966 -152.8163
670.000000 87.937 -152.5671
680.000000 87.914 -152.2458
690.000000 87.903 -151.8568
700.000000 87.900 -151.4080
710.000000 87.898 -150.9196
720.000000 87.893 -150.4341
730.000000 87.886 -149.9662
740.000000 87.880 -149.5114
750.000000 87.870 -149.0571
762.000000 87.854 -148.4996
775.000000 87.834 -147.8897
788.000000 87.812 -147.2670
800.000000 87.792 -146.6755
812.000000 87.772 -146.0677
825.000000 87.748 -145.3955
838.000000 87.727 -144.7124
850.000000 87.708 -144.0753
862.000000 87.690 -143.4340
875.000000 87.670 -142.7261
885.000000 87.655 -142.1780
900.000000 87.635 -141.3553
912.000000 87.621 -140.6951
925.000000 87.607 -139.9803
938.000000 87.593 -139.2650
950.000000 87.579 -138.6080
962.000000 87.564 -137.9562
975.000000 87.549 -137.2584
988.000000 87.535 -136.5731
1000.000000 87.523 -135.9507
1015.000000 87.505 -135.1775
1030.000000 87.486 -134.4130
1044.000000 87.467 -133.7146
1060.000000 87.443 -132.9288
1075.000000 87.418 -132.2039
1090.000000 87.394 -131.4838
1106.000000 87.372 -130.7103
1120.000000 87.353 -130.0313
1138.000000 87.321 -129.1576
1150.000000 87.295 -128.5677
1172.000000 87.241 -127.4519
1180.000000 87.217 -127.0316
1206.000000 87.133 -125.5969
1220.000000 87.083 -124.7720
1241.000000 87.004 -123.4479
1250.000000 86.968 -122.8444
1265.000000 86.905 -121.7869
1280.000000 86.839 -120.6559
1315.000000 86.684 -117.6997
1320.000000 86.662 -117.2423
1340.000000 86.570 -115.3060
1360.000000 86.467 -113.1902
1380.000000 86.377 -110.9135
1400.000000 86.322 -108.4744
1430.000000 86.296 -104.5571
1450.000000 86.318 -101.8197
1475.000000 86.394 -98.3174
1500.000000 86.525 -94.7912
1525.000000 86.707 -91.3179
1550.000000 86.936 -87.9739
1575.000000 87.207 -84.8159
1600.000000 87.512 -81.8883
1625.000000 87.844 -79.2108
1650.000000 88.196 -76.7889
1675.000000 88.559 -74.6241
1700.000000 88.925 -72.7048
1725.000000 89.290 -71.0076
1750.000000 89.649 -69.5082
1775.000000 90.001 -68.1876
1800.000000 90.345 -67.0216
1825.000000 90.679 -65.9845
1850.000000 91.003 -65.0588
1875.000000 91.320 -64.2375
1900.000000 91.629 -63.5127
1925.000000 91.927 -62.8558
1950.000000 92.212 -62.2551
1975.000000 92.484 -61.7130
2000.000000 92.747 -61.2208
2030.000000 93.051 -60.6855
2060.000000 93.344 -60.2040
2090.000000 93.628 -59.7684
2120.000000 93.903 -59.3720
2140.000000 94.082 -59.1292
2180.000000 94.432 -58.6878
2200.000000 94.601 -58.4886
2240.000000 94.931 -58.1363
2270.000000 95.171 -57.9159
2300.000000 95.406 -57.7339
2330.000000 95.636 -57.5883
2360.000000 95.861 -57.4783
2400.000000 96.153 -57.3861
2430.000000 96.367 -57.3608
2470.000000 96.644 -57.3854
2500.000000 96.847 -57.4475
2540.000000 97.108 -57.5902
2580.000000 97.360 -57.8027
2620.000000 97.602 -58.0854
2650.000000 97.775 -58.3447
2690.000000 97.996 -58.7535
2720.000000 98.151 -59.1061
2760.000000 98.344 -59.6355
2800.000000 98.521 -60.2310
2850.000000 98.717 -61.0549
2900.000000 98.883 -61.9500
2950.000000 99.017 -62.8936
3000.000000 99.118 -63.8538
3040.000000 99.174 -64.6077
3070.000000 99.203 -65.1520
3110.000000 99.223 -65.8341
3150.000000 99.225 -66.4455
3200.000000 99.205 -67.0798
3250.000000 99.169 -67.5582
3300.000000 99.123 -67.8849
3350.000000 99.074 -68.0898
3400.000000 99.023 -68.2056
3450.000000 98.971 -68.2425
3500.000000 98.917 -68.1912
3550.000000 98.863 -68.0494
3600.000000 98.808 -67.8284
3650.000000 98.752 -67.5432
3700.000000 98.697 -67.1945
3750.000000 98.645 -66.7856
3820.000000 98.576 -66.1573
3870.000000 98.525 -65.6937
3950.000000 98.431 -64.9036
4000.000000 98.367 -64.3428
4060.000000 98.291 -63.5808
4120.000000 98.220 -62.7261
4180.000000 98.158 -61.7981
4250.000000 98.100 -60.6525
4310.000000 98.059 -59.6459
4370.000000 98.024 -58.6440
4440.000000 97.992 -57.5129
4500.000000 97.971 -56.6030
4550.000000 97.956 -55.8928
4620.000000 97.931 -54.9395
4680.000000 97.905 -54.0903
4750.000000 97.889 -53.0094
4820.000000 97.910 -51.9334
4870.000000 97.949 -51.2867
4940.000000 98.024 -50.6774
5000.000000 98.090 -50.4627
5080.000000 98.159 -50.5969
5150.000000 98.186 -51.0646
5220.000000 98.169 -51.8073
5300.000000 98.080 -52.9023
5380.000000 97.904 -54.0909
5450.000000 97.683 -55.0526
5520.000000 97.410 -55.8647
5600.000000 97.045 -56.6052
5700.000000 96.509 -57.2380
5800.000000 95.883 -57.4163
5900.000000 95.178 -56.9384
6000.000000 94.421 -55.6481
6080.000000 93.800 -53.9733
6150.000000 93.262 -52.0425
6220.000000 92.741 -49.7108
6300.000000 92.175 -46.6156
6400.000000 91.520 -42.1974
6500.000000 90.925 -37.2556
6600.000000 90.387 -31.7998
6700.000000 89.920 -25.6597
6800.000000 89.615 -18.6858
6900.000000 89.572 -11.8220
7000.000000 89.594 -5.5035
7100.000000 89.751 2.4354
7200.000000 90.565 10.5804
7300.000000 91.492 14.4416
7400.000000 92.184 16.7252
7500.000000 92.924 18.8824
7620.000000 93.989 20.1407
7750.000000 95.245 18.3815
7880.000000 96.234 12.0537
8000.000000 96.570 2.4377
8120.000000 96.140 -8.2056
8250.000000 94.882 -17.1235
8380.000000 93.139 -21.4801
8500.000000 91.417 -21.8607
8620.000000 89.768 -19.7469
8750.000000 88.145 -15.6194
8850.000000 87.024 -11.5935
9000.000000 85.535 -4.6804
9120.000000 84.487 1.3328
9250.000000 83.468 8.1456
9380.000000 82.553 15.1597
9500.000000 81.789 21.7538
9620.000000 81.094 28.4155
9750.000000 80.415 35.6060
9880.000000 79.810 42.3771
10000.000000 79.303 47.5718
10150.000000 78.715 52.4742
10300.000000 78.182 56.5906
10440.000000 77.725 60.2368
10600.000000 77.249 64.2539
10750.000000 76.839 67.8423
10900.000000 76.440 71.3175
11060.000000 76.026 75.1583
11200.000000 75.696 78.5914
11380.000000 75.313 83.0315
11500.000000 75.085 86.0352
11720.000000 74.742 91.6230
11800.000000 74.642 93.6643
12060.000000 74.401 100.2623
12200.000000 74.325 103.7617
12410.000000 74.278 108.9110
12500.000000 74.286 111.0731
12650.000000 74.339 114.6070
12800.000000 74.444 118.0460
13150.000000 74.889 125.8326
13200.000000 74.977 127.0156
13400.000000 75.403 132.7673
13600.000000 75.980 140.6648
13800.000000 76.720 149.5124
14000.000000 77.655 158.2325
14300.000000 79.595 170.3184
14500.000000 81.401 176.7041
14750.000000 84.296 -179.5914
15000.000000 87.376 173.8929
15250.000000 89.036 151.8302
15500.000000 88.142 126.5321
15750.000000 85.400 115.3336
16000.000000 82.455 116.7665
16250.000000 80.271 123.6957
16500.000000 78.883 132.3299
16750.000000 78.084 141.0909
17000.000000 77.755 149.0514
17250.000000 77.832 155.1886
17500.000000 78.184 157.9853
17750.000000 78.458 155.8150
18000.000000 78.129 149.1193
18250.000000 76.846 142.1355
18500.000000 74.742 139.0394
18750.000000 72.143 140.6093
19000.000000 69.229 147.1784
19250.000000 66.271 157.6647
19500.000000 63.394 170.6888
19750.000000 60.590 -174.4733
20000.000000 57.766 -158.0804
20300.000000 54.201 -136.4916
20600.000000 50.424 -113.0058
20900.000000 46.368 -90.4059
21200.000000 41.930 -105.4808
21400.000000 38.792 111.6808
21800.000000 32.827 -162.0991
22000.000000 30.694 76.0989
22400.000000 29.405 -138.9790
22700.000000 29.326 -57.6660
23000.000000 28.931 112.9971
23300.000000 27.917 -36.8750
23600.000000 27.603 -10.5801
24000.000000 28.825 -159.8750
