* Measurement data measured by REW V5.20.13
* Source: Headset (DS by VECLAN.COM), MICROPHONE (Master Volume), L, volume: 0.720. Timing signal peak level -15.7 dBFS, measurement signal peak level -14.3 dBFS
* Format: 2M Log Swept Sine, 1 sweep at -12.0 dBFS using an acoustic timing reference
* Dated: Dec 30, 2023 7:31:40 PM
* REW Settings:
*  C-weighting compensation: Off
*  Target level: 75.0 dB
* Note: ; Delay -0.0666 ms (-23 mm, -0.9 in) using estimated IR delay relative to Acoustic reference played from HEADPHONE L with no timing offset Clock adjustment: -19.5 ppm
* Measurement: Bass Boost L
* Smoothing: 1/24 octave
* Frequency Step: 1/48 octave
* Start Frequency: 1.000 Hz
*
* Freq(Hz) SPL(dB) Phase(degrees)
1.000000 59.766 116.8477
1.015000 60.087 115.1981
1.030000 60.405 113.5957
1.044000 60.698 112.1481
1.060000 61.029 110.5569
1.075000 61.333 109.1325
1.090000 61.633 107.7797
1.106000 61.946 106.4198
1.120000 62.218 105.2886
1.138000 62.565 103.9064
1.150000 62.795 103.0271
1.172000 63.214 101.4954
1.180000 63.365 100.9623
1.206000 63.854 99.3091
1.220000 64.115 98.4641
1.241000 64.504 97.2477
1.250000 64.669 96.7429
1.265000 64.943 95.9208
1.280000 65.215 95.1194
1.315000 65.842 93.3088
1.320000 65.931 93.0549
1.340000 66.284 92.0459
1.360000 66.633 91.0406
1.380000 66.978 90.0301
1.400000 67.320 89.0056
1.430000 67.826 87.4235
1.450000 68.158 86.3256
1.475000 68.567 84.8948
1.500000 68.970 83.4401
1.525000 69.367 81.9762
1.550000 69.758 80.5069
1.575000 70.143 79.0358
1.600000 70.522 77.5668
1.625000 70.895 76.1037
1.650000 71.263 74.6500
1.675000 71.626 73.2098
1.700000 71.984 71.7866
1.725000 72.336 70.3842
1.750000 72.685 69.0065
1.775000 73.029 67.6571
1.800000 73.368 66.3399
1.825000 73.703 65.0585
1.850000 74.034 63.8162
1.875000 74.360 62.6117
1.900000 74.680 61.4412
1.925000 74.994 60.3009
1.950000 75.304 59.1871
1.975000 75.609 58.0960
2.000000 75.909 57.0237
2.030000 76.264 55.7566
2.060000 76.613 54.5048
2.090000 76.956 53.2616
2.120000 77.294 52.0206
2.140000 77.516 51.1912
2.180000 77.955 49.5189
2.200000 78.171 48.6723
2.240000 78.597 46.9766
2.270000 78.909 45.7100
2.300000 79.215 44.4484
2.330000 79.515 43.1919
2.360000 79.810 41.9410
2.400000 80.196 40.2822
2.430000 80.479 39.0453
2.470000 80.851 37.4064
2.500000 81.124 36.1853
2.540000 81.483 34.5686
2.580000 81.835 32.9652
2.620000 82.179 31.3717
2.650000 82.432 30.1832
2.690000 82.761 28.6082
2.720000 83.003 27.4347
2.760000 83.319 25.8813
2.800000 83.628 24.3419
2.850000 84.006 22.4388
2.900000 84.374 20.5612
2.950000 84.734 18.7120
3.000000 85.083 16.8969
3.040000 85.355 15.4666
3.070000 85.554 14.4046
3.110000 85.814 13.0005
3.150000 86.069 11.6071
3.200000 86.380 9.8757
3.250000 86.683 8.1502
3.300000 86.979 6.4246
3.350000 87.267 4.6953
3.400000 87.545 2.9667
3.450000 87.816 1.2449
3.500000 88.078 -0.4638
3.550000 88.333 -2.1535
3.600000 88.582 -3.8180
3.650000 88.825 -5.4511
3.700000 89.062 -7.0486
3.750000 89.291 -8.6142
3.820000 89.600 -10.7615
3.870000 89.813 -12.2697
3.950000 90.143 -14.6514
4.000000 90.342 -16.1275
4.060000 90.575 -17.8929
4.120000 90.799 -19.6485
4.180000 91.015 -21.3886
4.250000 91.258 -23.3919
4.310000 91.459 -25.0798
4.370000 91.655 -26.7350
4.440000 91.876 -28.6192
4.500000 92.058 -30.1962
4.550000 92.205 -31.4870
4.620000 92.404 -33.2633
4.680000 92.569 -34.7618
4.750000 92.756 -36.4881
4.820000 92.938 -38.1926
4.870000 93.063 -39.3934
4.940000 93.232 -41.0505
5.000000 93.373 -42.4482
5.080000 93.554 -44.2784
5.150000 93.709 -45.8477
5.220000 93.858 -47.3844
5.300000 94.022 -49.1034
5.380000 94.179 -50.7875
5.450000 94.313 -52.2361
5.520000 94.443 -53.6642
5.600000 94.587 -55.2663
5.700000 94.759 -57.2253
5.800000 94.923 -59.1413
5.900000 95.082 -61.0190
6.000000 95.233 -62.8553
6.080000 95.349 -64.2952
6.150000 95.447 -65.5349
6.220000 95.543 -66.7568
6.300000 95.648 -68.1306
6.400000 95.775 -69.8124
6.500000 95.895 -71.4587
6.600000 96.011 -73.0733
6.700000 96.121 -74.6565
6.800000 96.226 -76.2068
6.900000 96.326 -77.7241
7.000000 96.421 -79.2080
7.100000 96.512 -80.6575
7.200000 96.598 -82.0743
7.300000 96.681 -83.4604
7.400000 96.760 -84.8167
7.500000 96.834 -86.1421
7.620000 96.919 -87.6927
7.750000 97.007 -89.3244
7.880000 97.089 -90.9043
8.000000 97.160 -92.3204
8.120000 97.229 -93.6990
8.250000 97.299 -95.1479
8.380000 97.366 -96.5545
8.500000 97.425 -97.8184
8.620000 97.482 -99.0469
8.750000 97.540 -100.3427
8.850000 97.583 -101.3172
9.000000 97.645 -102.7394
9.120000 97.692 -103.8472
9.250000 97.743 -105.0201
9.380000 97.792 -106.1631
9.500000 97.834 -107.1939
9.620000 97.872 -108.2023
9.750000 97.909 -109.2687
9.880000 97.938 -110.3093
10.000000 97.955 -111.2475
10.150000 97.967 -112.3893
10.300000 97.971 -113.4971
10.440000 97.966 -114.4998
10.600000 97.956 -115.6105
10.750000 97.948 -116.6180
10.900000 97.940 -117.5935
11.060000 97.931 -118.6032
11.200000 97.925 -119.4594
11.380000 97.916 -120.5305
11.500000 97.910 -121.2269
11.720000 97.901 -122.4708
11.800000 97.899 -122.9148
12.060000 97.893 -124.3247
12.200000 97.891 -125.0657
12.410000 97.888 -126.1516
12.500000 97.886 -126.6063
12.650000 97.883 -127.3507
12.800000 97.878 -128.0754
13.150000 97.864 -129.6814
13.200000 97.862 -129.9012
13.400000 97.856 -130.7540
13.600000 97.853 -131.5733
13.800000 97.853 -132.3603
14.000000 97.856 -133.1289
14.300000 97.865 -134.2563
14.500000 97.872 -135.0041
14.750000 97.881 -135.9375
15.000000 97.890 -136.8690
15.250000 97.898 -137.7884
15.500000 97.904 -138.6799
15.750000 97.908 -139.5347
16.000000 97.910 -140.3410
16.250000 97.913 -141.1031
16.500000 97.918 -141.8282
16.750000 97.928 -142.5294
17.000000 97.943 -143.2256
17.250000 97.961 -143.9237
17.500000 97.979 -144.6315
17.750000 97.995 -145.3432
18.000000 98.008 -146.0498
18.250000 98.017 -146.7410
18.500000 98.024 -147.4019
18.750000 98.030 -148.0296
19.000000 98.037 -148.6214
19.250000 98.048 -149.1848
19.500000 98.061 -149.7303
19.750000 98.079 -150.2669
20.000000 98.099 -150.8077
20.299999 98.123 -151.4677
20.600000 98.148 -152.1406
20.900000 98.169 -152.8206
21.200001 98.186 -153.4960
21.400000 98.196 -153.9370
21.799999 98.211 -154.7900
22.000000 98.219 -155.2003
22.400000 98.234 -155.9921
22.700001 98.247 -156.5693
23.000000 98.261 -157.1418
23.299999 98.276 -157.7162
23.600000 98.292 -158.2946
24.000000 98.311 -159.0698
24.299999 98.323 -159.6473
24.700001 98.337 -160.4003
25.000000 98.346 -160.9455
25.400000 98.359 -161.6441
25.799999 98.373 -162.3189
26.200001 98.390 -162.9857
26.500000 98.403 -163.4893
26.900000 98.421 -164.1689
27.200001 98.434 -164.6812
27.600000 98.448 -165.3592
28.000000 98.460 -166.0233
28.500000 98.475 -166.8354
29.000000 98.488 -167.6406
29.500000 98.498 -168.4414
30.000000 98.503 -169.2197
30.400000 98.506 -169.8153
30.700001 98.508 -170.2487
31.100000 98.513 -170.8232
31.500000 98.520 -171.4088
32.000000 98.527 -172.1644
32.500000 98.529 -172.9271
33.000000 98.527 -173.6711
33.500000 98.525 -174.3951
34.000000 98.525 -175.1155
34.500000 98.525 -175.8376
35.000000 98.523 -176.5471
35.500000 98.521 -177.2320
36.000000 98.521 -177.9023
36.500000 98.522 -178.5764
37.000000 98.522 -179.2555
37.500000 98.518 -179.9233
38.200001 98.513 179.1777
38.700001 98.510 178.5445
39.500000 98.503 177.5113
40.000000 98.493 176.8706
40.599998 98.477 176.1385
41.200001 98.461 175.4489
41.799999 98.448 174.7747
42.500000 98.435 173.9764
43.099998 98.422 173.2849
43.700001 98.407 172.6037
44.400002 98.389 171.8272
45.000000 98.374 171.1664
45.500000 98.361 170.6128
46.200001 98.342 169.8372
46.799999 98.323 169.1823
47.500000 98.300 168.4438
48.200001 98.279 167.7324
48.700001 98.267 167.2254
49.400002 98.250 166.4888
50.000000 98.231 165.8365
50.799999 98.196 164.9934
51.500000 98.163 164.3074
52.200001 98.132 163.6362
53.000000 98.094 162.8553
53.799999 98.052 162.0810
54.500000 98.015 161.4131
55.200001 97.978 160.7302
56.000000 97.932 159.9326
57.000000 97.872 158.9798
58.000000 97.824 158.0255
59.000000 97.770 156.9491
60.000000 97.690 155.9574
60.799999 97.631 155.3097
61.500000 97.591 154.7555
62.200001 97.554 154.1706
63.000000 97.509 153.4858
64.000000 97.449 152.6134
65.000000 97.379 151.7467
66.000000 97.304 150.9262
67.000000 97.230 150.1321
68.000000 97.157 149.3359
69.000000 97.082 148.5215
70.000000 97.001 147.7173
71.000000 96.919 146.9382
72.000000 96.834 146.1644
73.000000 96.746 145.4045
74.000000 96.658 144.6594
75.000000 96.569 143.9173
76.199997 96.459 143.0499
77.500000 96.340 142.1501
78.800003 96.222 141.2886
80.000000 96.111 140.5041
81.199997 95.995 139.7227
82.500000 95.862 138.8908
83.800003 95.725 138.0850
85.000000 95.599 137.3574
86.199997 95.475 136.6487
87.500000 95.339 135.9046
88.500000 95.232 135.3592
90.000000 95.064 134.5801
91.199997 94.926 133.9820
92.500000 94.777 133.3394
93.800003 94.630 132.6883
95.000000 94.495 132.1128
96.199997 94.361 131.5891
97.500000 94.215 131.0513
98.800003 94.056 130.5640
100.000000 93.905 130.1451
101.500000 93.714 129.5759
103.000000 93.519 129.0147
104.400002 93.352 128.7023
106.000000 93.200 128.4649
107.500000 93.039 128.3530
109.000000 92.857 128.5809
110.599998 92.706 128.5060
112.000000 92.527 127.6588
113.800003 92.170 126.4850
115.000000 91.933 126.1356
117.199997 91.629 125.8921
118.000000 91.537 125.8359
120.599998 91.210 125.8866
122.000000 91.023 126.0051
124.099998 90.749 126.0801
125.000000 90.635 126.0841
126.500000 90.447 126.1320
128.000000 90.260 126.2973
131.500000 89.830 126.9970
132.000000 89.766 127.1001
134.000000 89.502 127.6062
136.000000 89.258 128.2563
138.000000 89.039 128.8143
140.000000 88.802 129.3509
143.000000 88.503 130.5038
145.000000 88.303 130.9522
147.500000 87.964 132.3947
150.000000 87.765 134.3097
152.500000 87.637 135.6884
155.000000 87.480 136.7917
157.500000 87.278 138.0825
160.000000 87.091 139.5117
162.500000 86.943 140.8251
165.000000 86.827 142.1345
167.500000 86.735 143.6285
170.000000 86.661 145.1779
172.500000 86.583 146.5669
175.000000 86.504 147.8766
177.500000 86.456 149.1636
180.000000 86.443 150.4295
182.500000 86.456 151.7073
185.000000 86.470 152.9165
187.500000 86.462 154.0074
190.000000 86.447 154.9575
192.500000 86.457 155.7155
195.000000 86.481 156.3306
197.500000 86.502 157.1281
200.000000 86.540 158.1237
203.000000 86.594 159.2012
206.000000 86.646 160.0637
209.000000 86.700 160.8601
212.000000 86.742 161.6531
214.000000 86.764 162.0769
218.000000 86.820 162.5867
220.000000 86.862 162.8965
224.000000 86.942 163.7177
227.000000 86.974 164.2064
230.000000 87.007 164.5747
233.000000 87.058 164.9332
236.000000 87.108 165.2388
240.000000 87.162 165.5862
243.000000 87.192 165.8953
247.000000 87.224 166.3395
250.000000 87.248 166.5867
254.000000 87.274 166.8419
258.000000 87.297 167.1084
262.000000 87.322 167.3300
265.000000 87.343 167.4631
269.000000 87.373 167.6428
272.000000 87.398 167.7882
276.000000 87.431 168.0040
280.000000 87.443 168.2129
285.000000 87.432 168.3708
290.000000 87.424 168.5369
295.000000 87.458 168.6890
300.000000 87.483 168.8445
304.000000 87.489 169.0006
307.000000 87.493 169.1337
311.000000 87.498 169.3248
315.000000 87.499 169.5048
320.000000 87.501 169.6764
325.000000 87.513 169.9273
330.000000 87.522 170.2399
335.000000 87.509 170.3618
340.000000 87.499 170.4739
345.000000 87.495 170.6405
350.000000 87.492 170.8328
355.000000 87.490 171.0101
360.000000 87.489 171.1691
365.000000 87.484 171.3352
370.000000 87.480 171.5410
375.000000 87.476 171.7451
382.000000 87.466 172.0251
387.000000 87.460 172.2112
395.000000 87.455 172.5178
400.000000 87.449 172.7251
406.000000 87.442 172.9411
412.000000 87.437 173.1377
418.000000 87.430 173.3391
425.000000 87.426 173.5832
431.000000 87.423 173.7916
437.000000 87.419 173.9867
444.000000 87.415 174.2006
450.000000 87.411 174.3878
455.000000 87.407 174.5418
462.000000 87.401 174.7563
468.000000 87.399 174.9401
475.000000 87.396 175.1437
482.000000 87.393 175.3277
487.000000 87.392 175.4517
494.000000 87.390 175.6260
500.000000 87.389 175.7698
508.000000 87.389 175.9487
515.000000 87.387 176.1068
522.000000 87.384 176.2795
530.000000 87.382 176.4641
538.000000 87.380 176.6404
545.000000 87.372 176.7914
552.000000 87.361 176.9354
560.000000 87.356 177.1024
570.000000 87.351 177.3178
580.000000 87.343 177.5248
590.000000 87.346 177.7195
600.000000 87.342 177.9123
608.000000 87.318 178.0817
615.000000 87.297 178.2342
622.000000 87.280 178.3963
630.000000 87.260 178.5938
640.000000 87.235 178.8551
650.000000 87.213 179.1129
660.000000 87.198 179.4160
670.000000 87.179 179.8162
680.000000 87.165 -179.8694
690.000000 87.159 -179.6055
700.000000 87.161 -179.3303
710.000000 87.166 -179.0381
720.000000 87.161 -178.7846
730.000000 87.157 -178.5644
740.000000 87.152 -178.3282
750.000000 87.131 -178.1193
762.000000 87.103 -177.8285
775.000000 87.080 -177.3497
788.000000 87.063 -176.7257
800.000000 87.045 -176.0500
812.000000 87.025 -175.3544
825.000000 87.006 -174.6041
838.000000 86.988 -173.8387
850.000000 86.972 -173.1044
862.000000 86.957 -172.3577
875.000000 86.943 -171.5728
885.000000 86.933 -170.9646
900.000000 86.916 -170.0200
912.000000 86.904 -169.2600
925.000000 86.894 -168.4401
938.000000 86.887 -167.6263
950.000000 86.882 -166.8810
962.000000 86.878 -166.1364
975.000000 86.870 -165.3329
988.000000 86.862 -164.5383
1000.000000 86.854 -163.8108
1015.000000 86.848 -162.9297
1030.000000 86.843 -162.1548
1044.000000 86.832 -161.5503
1060.000000 86.810 -161.0033
1075.000000 86.790 -160.5774
1090.000000 86.773 -160.1686
1106.000000 86.760 -159.7437
1120.000000 86.748 -159.3714
1138.000000 86.728 -158.8863
1150.000000 86.711 -158.5592
1172.000000 86.667 -157.9385
1180.000000 86.647 -157.6976
1206.000000 86.575 -156.8322
1220.000000 86.531 -156.3190
1241.000000 86.461 -155.4777
1250.000000 86.429 -155.0864
1265.000000 86.375 -154.3848
1280.000000 86.317 -153.6103
1315.000000 86.177 -151.4800
1320.000000 86.156 -151.1360
1340.000000 86.074 -149.6620
1360.000000 85.983 -148.0219
1380.000000 85.905 -146.2087
1400.000000 85.858 -144.2507
1430.000000 85.847 -141.0651
1450.000000 85.877 -138.8134
1475.000000 85.963 -135.9321
1500.000000 86.105 -133.0198
1525.000000 86.298 -130.1567
1550.000000 86.537 -127.4364
1575.000000 86.820 -124.9112
1600.000000 87.137 -122.6158
1625.000000 87.480 -120.5714
1650.000000 87.841 -118.7842
1675.000000 88.213 -117.2557
1700.000000 88.589 -115.9668
1725.000000 88.962 -114.8981
1750.000000 89.330 -114.0301
1775.000000 89.692 -113.3498
1800.000000 90.046 -112.8281
1825.000000 90.389 -112.4362
1850.000000 90.722 -112.1579
1875.000000 91.045 -111.9799
1900.000000 91.362 -111.8942
1925.000000 91.673 -111.8985
1950.000000 91.971 -111.9632
1975.000000 92.255 -112.0748
2000.000000 92.528 -112.2430
2030.000000 92.845 -112.5106
2060.000000 93.150 -112.8348
2090.000000 93.445 -113.2061
2120.000000 93.732 -113.6201
2140.000000 93.919 -113.9182
2180.000000 94.283 -114.5604
2200.000000 94.459 -114.9034
2240.000000 94.801 -115.6299
2270.000000 95.054 -116.2137
2300.000000 95.303 -116.8425
2330.000000 95.548 -117.5211
2360.000000 95.787 -118.2469
2400.000000 96.097 -119.2783
2430.000000 96.323 -120.0978
2470.000000 96.617 -121.2578
2500.000000 96.832 -122.1812
2540.000000 97.110 -123.4872
2580.000000 97.377 -124.8799
2620.000000 97.631 -126.3582
2650.000000 97.814 -127.5201
2690.000000 98.044 -129.1436
2720.000000 98.205 -130.4144
2760.000000 98.402 -132.1706
2800.000000 98.581 -133.9917
2850.000000 98.774 -136.3422
2900.000000 98.932 -138.7484
2950.000000 99.056 -141.1842
3000.000000 99.146 -143.6248
3040.000000 99.192 -145.5580
3070.000000 99.212 -146.9832
3110.000000 99.220 -148.8341
3150.000000 99.207 -150.6140
3200.000000 99.165 -152.7115
3250.000000 99.095 -154.6173
3300.000000 99.005 -156.2666
3350.000000 98.913 -157.6245
3400.000000 98.843 -158.7343
3450.000000 98.809 -159.7406
3500.000000 98.806 -160.8240
3550.000000 98.811 -162.0639
3600.000000 98.799 -163.4154
3650.000000 98.762 -164.7788
3700.000000 98.704 -166.0710
3750.000000 98.632 -167.2507
3820.000000 98.520 -168.7035
3870.000000 98.438 -169.6160
3950.000000 98.310 -170.9056
4000.000000 98.235 -171.6253
4060.000000 98.150 -172.4175
4120.000000 98.074 -173.1412
4180.000000 98.008 -173.8091
4250.000000 97.943 -174.5576
4310.000000 97.890 -175.2392
4370.000000 97.809 -175.9427
4440.000000 97.680 -176.2022
4500.000000 97.680 -175.9569
4550.000000 97.753 -176.1778
4620.000000 97.840 -177.0658
4680.000000 97.890 -178.0073
4750.000000 97.934 -179.2190
4820.000000 97.965 179.5187
4870.000000 97.988 178.6334
4940.000000 98.043 177.3564
5000.000000 98.117 176.0707
5080.000000 98.227 173.8813
5150.000000 98.305 171.4781
5220.000000 98.337 168.6632
5300.000000 98.296 165.0572
5380.000000 98.151 161.2423
5450.000000 97.934 157.9402
5520.000000 97.641 154.8418
5600.000000 97.234 151.6660
5700.000000 96.651 148.2653
5800.000000 96.006 145.4586
5900.000000 95.307 143.2746
6000.000000 94.569 141.8098
6080.000000 93.966 141.2129
6150.000000 93.441 141.1265
6220.000000 92.929 141.4507
6300.000000 92.374 142.2992
6400.000000 91.751 143.8430
6500.000000 91.186 145.8073
6600.000000 90.682 148.2626
6700.000000 90.248 151.2045
6800.000000 89.912 154.8299
6900.000000 89.807 159.3165
7000.000000 90.068 163.4471
7100.000000 90.464 165.8251
7200.000000 90.817 167.4649
7300.000000 91.234 169.1194
7400.000000 91.799 170.4385
7500.000000 92.516 170.9263
7620.000000 93.566 169.7281
7750.000000 94.811 165.1405
7880.000000 95.812 156.0272
8000.000000 96.201 143.8389
8120.000000 95.868 130.2971
8250.000000 94.717 117.6972
8380.000000 93.040 109.4211
8500.000000 91.346 105.4674
8620.000000 89.710 104.0499
8750.000000 88.086 104.3580
8850.000000 86.950 105.4832
9000.000000 85.413 108.2312
9120.000000 84.311 111.1860
9250.000000 83.241 115.1849
9380.000000 82.393 119.9231
9500.000000 81.883 123.5604
9620.000000 81.390 125.9248
9750.000000 80.764 128.6158
9880.000000 80.173 131.7020
10000.000000 79.682 134.5994
10150.000000 79.113 138.1706
10300.000000 78.575 141.7033
10440.000000 78.092 144.9724
10600.000000 77.556 148.7287
10750.000000 77.068 152.3805
10900.000000 76.608 156.1909
11060.000000 76.144 160.3577
11200.000000 75.745 164.2083
11380.000000 75.289 169.6305
11500.000000 75.043 173.3635
11720.000000 74.695 -179.7534
11800.000000 74.596 -177.2402
12060.000000 74.367 -169.0759
12200.000000 74.299 -164.6991
12410.000000 74.267 -158.1865
12500.000000 74.281 -155.4226
12650.000000 74.346 -150.8609
12800.000000 74.463 -146.3644
13150.000000 74.934 -136.1667
13200.000000 75.025 -134.7458
13400.000000 75.464 -129.1605
13600.000000 76.041 -123.7660
13800.000000 76.783 -118.6392
14000.000000 77.721 -113.9035
14300.000000 79.618 -107.8918
14500.000000 81.375 -105.1885
14750.000000 84.292 -105.4331
15000.000000 87.493 -114.4431
15250.000000 89.363 -136.1763
15500.000000 88.675 -160.4703
15750.000000 86.038 -170.7421
16000.000000 83.087 -167.7322
16250.000000 80.841 -158.5109
16500.000000 79.405 -146.9265
16750.000000 78.640 -134.6822
17000.000000 78.511 -122.9437
17250.000000 78.979 -113.9581
17500.000000 79.622 -109.9529
17750.000000 80.013 -111.3297
18000.000000 79.694 -117.1503
18250.000000 78.356 -123.0661
18500.000000 76.096 -124.5469
18750.000000 73.253 -120.2528
19000.000000 70.140 -110.8281
19250.000000 66.959 -97.2395
19500.000000 63.801 -80.4359
19750.000000 60.693 -61.2437
20000.000000 57.567 -40.3949
20300.000000 53.614 -14.5193
20600.000000 49.409 12.4207
20900.000000 45.105 42.4736
21200.000000 41.072 70.9355
21400.000000 38.730 74.4805
21800.000000 35.263 -48.4823
22000.000000 34.227 -59.5144
22400.000000 32.729 -176.0632
22700.000000 31.954 -154.2744
23000.000000 30.908 121.1719
23300.000000 29.076 -159.7305
23600.000000 27.647 147.6167
24000.000000 27.885 125.2881
