* Measurement data measured by REW V5.20.13
* Source: Headset (DS by VECLAN.COM), MICROPHONE (Master Volume), L, volume: 0.720. Timing signal peak level -15.7 dBFS, measurement signal peak level -14.3 dBFS
* Format: 2M Log Swept Sine, 1 sweep at -12.0 dBFS using an acoustic timing reference
* Dated: Dec 30, 2023 7:35:32 PM
* REW Settings:
*  C-weighting compensation: Off
*  Target level: 75.0 dB
* Note: ; Delay -0.0243 ms (-8.3 mm, -0.33 in) using estimated IR delay relative to Acoustic reference played from HEADPHONE L with no timing offset Clock adjustment: -25.3 ppm
* Measurement: Balanced L
* Smoothing: 1/24 octave
* Frequency Step: 1/48 octave
* Start Frequency: 1.000 Hz
*
* Freq(Hz) SPL(dB) Phase(degrees)
1.000000 54.855 52.0339
1.015000 55.128 50.1579
1.030000 55.398 48.3425
1.044000 55.647 46.7089
1.060000 55.926 44.9212
1.075000 56.182 43.3291
1.090000 56.433 41.8251
1.106000 56.694 40.3250
1.120000 56.920 39.0976
1.138000 57.208 37.6274
1.150000 57.399 36.7097
1.172000 57.745 35.1452
1.180000 57.870 34.6111
1.206000 58.273 32.9879
1.220000 58.488 32.1770
1.241000 58.806 31.0299
1.250000 58.941 30.5600
1.265000 59.166 29.8009
1.280000 59.388 29.0665
1.315000 59.898 27.4136
1.320000 59.970 27.1810
1.340000 60.256 26.2506
1.360000 60.539 25.3086
1.380000 60.818 24.3404
1.400000 61.093 23.3313
1.430000 61.499 21.7084
1.450000 61.765 20.5322
1.475000 62.092 18.9381
1.500000 62.413 17.2626
1.525000 62.727 15.5307
1.550000 63.036 13.7525
1.575000 63.339 11.9382
1.600000 63.636 10.0979
1.625000 63.928 8.2417
1.650000 64.214 6.3799
1.675000 64.495 4.5225
1.700000 64.771 2.6797
1.725000 65.042 0.8617
1.750000 65.309 -0.9214
1.775000 65.571 -2.6594
1.800000 65.829 -4.3422
1.825000 66.083 -5.9597
1.850000 66.332 -7.5091
1.875000 66.577 -9.0060
1.900000 66.815 -10.4566
1.925000 67.049 -11.8668
1.950000 67.278 -13.2422
1.975000 67.501 -14.5884
2.000000 67.721 -15.9113
2.030000 67.978 -17.4757
2.060000 68.229 -19.0245
2.090000 68.475 -20.5674
2.120000 68.715 -22.1143
2.140000 68.873 -23.1526
2.180000 69.181 -25.2593
2.200000 69.332 -26.3333
2.240000 69.626 -28.4998
2.270000 69.839 -30.1298
2.300000 70.047 -31.7620
2.330000 70.249 -33.3946
2.360000 70.445 -35.0257
2.400000 70.698 -37.1946
2.430000 70.883 -38.8146
2.470000 71.121 -40.9617
2.500000 71.295 -42.5600
2.540000 71.520 -44.6714
2.580000 71.738 -46.7580
2.620000 71.947 -48.8328
2.650000 72.098 -50.3818
2.690000 72.292 -52.4356
2.720000 72.432 -53.9658
2.760000 72.611 -55.9901
2.800000 72.784 -57.9938
2.850000 72.989 -60.4652
2.900000 73.184 -62.8945
2.950000 73.370 -65.2758
3.000000 73.543 -67.6033
3.040000 73.674 -69.4313
3.070000 73.767 -70.7854
3.110000 73.886 -72.5720
3.150000 73.998 -74.3414
3.200000 74.129 -76.5359
3.250000 74.252 -78.7196
3.300000 74.367 -80.9015
3.350000 74.472 -83.0903
3.400000 74.567 -85.2798
3.450000 74.652 -87.4581
3.500000 74.729 -89.6132
3.550000 74.797 -91.7333
3.600000 74.858 -93.8063
3.650000 74.913 -95.8204
3.700000 74.960 -97.7682
3.750000 74.998 -99.6587
3.820000 75.039 -102.2236
3.870000 75.059 -104.0073
3.950000 75.078 -106.7975
4.000000 75.083 -108.5132
4.060000 75.082 -110.5542
4.120000 75.071 -112.5724
4.180000 75.051 -114.5574
4.250000 75.018 -116.8174
4.310000 74.982 -118.6951
4.370000 74.941 -120.5068
4.440000 74.887 -122.5258
4.500000 74.833 -124.1794
4.550000 74.783 -125.5097
4.620000 74.707 -127.3097
4.680000 74.637 -128.8040
4.750000 74.552 -130.5031
4.820000 74.463 -132.1561
4.870000 74.395 -133.3004
4.940000 74.297 -134.8538
5.000000 74.208 -136.1422
5.080000 74.088 -137.8016
5.150000 73.980 -139.2009
5.220000 73.870 -140.5398
5.300000 73.739 -142.0027
5.380000 73.606 -143.4087
5.450000 73.486 -144.6045
5.520000 73.364 -145.7772
5.600000 73.222 -147.0744
5.700000 73.041 -148.6342
5.800000 72.853 -150.1399
5.900000 72.657 -151.6055
6.000000 72.456 -153.0269
6.080000 72.289 -154.1290
6.150000 72.139 -155.0670
6.220000 71.983 -155.9795
6.300000 71.799 -156.9938
6.400000 71.561 -158.2195
6.500000 71.312 -159.3892
6.600000 71.052 -160.4932
6.700000 70.779 -161.5406
6.800000 70.496 -162.5281
6.900000 70.201 -163.4354
7.000000 69.895 -164.2463
7.100000 69.576 -164.9736
7.200000 69.247 -165.6111
7.300000 68.908 -166.1460
7.400000 68.560 -166.5735
7.500000 68.202 -166.9014
7.620000 67.761 -167.1525
7.750000 67.272 -167.2369
7.880000 66.770 -167.1338
8.000000 66.295 -166.8611
8.120000 65.809 -166.4119
8.250000 65.271 -165.7437
8.380000 64.719 -164.8303
8.500000 64.193 -163.7489
8.620000 63.653 -162.4778
8.750000 63.054 -160.7296
8.850000 62.582 -159.0481
9.000000 61.849 -156.0836
9.120000 61.273 -153.1543
9.250000 60.671 -149.2410
9.380000 60.079 -144.6348
9.500000 59.614 -139.9276
9.620000 59.261 -134.7384
9.750000 58.978 -128.5674
9.880000 58.825 -122.4591
10.000000 58.834 -117.0332
10.150000 59.007 -110.4249
10.300000 59.251 -104.6516
10.440000 59.559 -100.1010
10.600000 59.937 -95.6275
10.750000 60.250 -92.1252
10.900000 60.547 -89.2050
11.060000 60.822 -86.2149
11.200000 61.025 -83.7688
11.380000 61.275 -80.6057
11.500000 61.437 -78.3998
11.720000 61.750 -74.3163
11.800000 61.882 -72.8247
12.060000 62.359 -68.0263
12.200000 62.647 -65.6447
12.410000 63.111 -62.3191
12.500000 63.308 -61.0078
12.650000 63.637 -58.9920
12.800000 63.963 -57.0887
13.150000 64.690 -52.8824
13.200000 64.796 -52.2830
13.400000 65.221 -49.8533
13.600000 65.678 -47.4759
13.800000 66.178 -45.1515
14.000000 66.710 -43.1142
14.300000 67.550 -40.7052
14.500000 68.101 -39.6736
14.750000 68.741 -38.8779
15.000000 69.310 -38.5227
15.250000 69.796 -38.2659
15.500000 70.225 -37.8723
15.750000 70.618 -37.2299
16.000000 71.014 -36.2763
16.250000 71.439 -35.1888
16.500000 71.896 -34.0880
16.750000 72.383 -33.1644
17.000000 72.874 -32.4933
17.250000 73.356 -32.0519
17.500000 73.816 -31.7866
17.750000 74.258 -31.5763
18.000000 74.689 -31.3972
18.250000 75.120 -31.2254
18.500000 75.557 -31.1346
18.750000 75.997 -31.1807
19.000000 76.434 -31.4142
19.250000 76.852 -31.8478
19.500000 77.244 -32.4192
19.750000 77.604 -33.0764
20.000000 77.936 -33.7091
20.299999 78.313 -34.3762
20.600000 78.681 -34.9297
20.900000 79.056 -35.4232
21.200001 79.440 -35.9651
21.400000 79.695 -36.4045
21.799999 80.188 -37.4749
22.000000 80.420 -38.0824
22.400000 80.845 -39.3294
22.700001 81.139 -40.1976
23.000000 81.424 -40.9645
23.299999 81.712 -41.6641
23.600000 82.005 -42.3552
24.000000 82.398 -43.3505
24.299999 82.684 -44.1765
24.700001 83.044 -45.3361
25.000000 83.296 -46.1858
25.400000 83.621 -47.2304
25.799999 83.945 -48.1851
26.200001 84.277 -49.1356
26.500000 84.528 -49.9004
26.900000 84.854 -51.0146
27.200001 85.088 -51.9016
27.600000 85.381 -53.0992
28.000000 85.659 -54.2613
28.500000 85.997 -55.6541
29.000000 86.330 -57.0438
29.500000 86.653 -58.4783
30.000000 86.957 -59.9341
30.400000 87.189 -61.0790
30.700001 87.357 -61.9190
31.100000 87.578 -63.0236
31.500000 87.796 -64.1247
32.000000 88.059 -65.5026
32.500000 88.312 -66.8652
33.000000 88.560 -68.2060
33.500000 88.804 -69.5525
34.000000 89.041 -70.9337
34.500000 89.264 -72.3295
35.000000 89.472 -73.6834
35.500000 89.673 -74.9603
36.000000 89.875 -76.1878
36.500000 90.078 -77.4201
37.000000 90.277 -78.6840
37.500000 90.467 -79.9639
38.200001 90.721 -81.7481
38.700001 90.895 -83.0249
39.500000 91.157 -85.0817
40.000000 91.308 -86.3400
40.599998 91.483 -87.7939
41.200001 91.659 -89.2178
41.799999 91.831 -90.6560
42.500000 92.021 -92.3400
43.099998 92.175 -93.7377
43.700001 92.329 -95.0909
44.400002 92.509 -96.6714
45.000000 92.656 -98.0526
45.500000 92.772 -99.2014
46.200001 92.925 -100.7781
46.799999 93.052 -102.1120
47.500000 93.192 -103.6695
48.200001 93.321 -105.2011
48.700001 93.409 -106.2624
49.400002 93.532 -107.7208
50.000000 93.635 -108.9745
50.799999 93.765 -110.6447
51.500000 93.873 -112.0707
52.200001 93.982 -113.4747
53.000000 94.105 -115.1021
53.799999 94.217 -116.7510
54.500000 94.303 -118.1795
55.200001 94.380 -119.5802
56.000000 94.458 -121.1127
57.000000 94.555 -122.9374
58.000000 94.644 -124.8223
59.000000 94.705 -126.6033
60.000000 94.786 -128.2081
60.799999 94.864 -129.6197
61.500000 94.920 -130.9322
62.200001 94.966 -132.2150
63.000000 95.016 -133.6517
64.000000 95.069 -135.4352
65.000000 95.115 -137.1456
66.000000 95.157 -138.8111
67.000000 95.192 -140.4316
68.000000 95.223 -142.0101
69.000000 95.250 -143.5893
70.000000 95.266 -145.1585
71.000000 95.274 -146.6810
72.000000 95.279 -148.1509
73.000000 95.285 -149.5901
74.000000 95.288 -151.0171
75.000000 95.286 -152.4230
76.199997 95.278 -154.0898
77.500000 95.251 -155.8515
78.800003 95.220 -157.5282
80.000000 95.189 -159.0897
81.199997 95.151 -160.6570
82.500000 95.100 -162.3236
83.800003 95.047 -163.8897
85.000000 95.001 -165.3114
86.199997 94.946 -166.7121
87.500000 94.881 -168.1534
88.500000 94.829 -169.2567
90.000000 94.741 -170.8846
91.199997 94.668 -172.1318
92.500000 94.590 -173.4644
93.800003 94.500 -174.7565
95.000000 94.410 -175.8694
96.199997 94.317 -176.9516
97.500000 94.213 -178.1257
98.800003 94.110 -179.2788
100.000000 94.024 179.6585
101.500000 93.919 178.3563
103.000000 93.807 177.2221
104.400002 93.691 176.3621
106.000000 93.555 175.6120
107.500000 93.443 174.6825
109.000000 93.271 173.4507
110.599998 93.060 172.3753
112.000000 92.907 171.5023
113.800003 92.727 170.4023
115.000000 92.603 169.7535
117.199997 92.368 168.8036
118.000000 92.284 168.5058
120.599998 92.011 167.4985
122.000000 91.857 167.0228
124.099998 91.632 166.4385
125.000000 91.537 166.2043
126.500000 91.376 165.8388
128.000000 91.217 165.5242
131.500000 90.864 165.0171
132.000000 90.812 164.9697
134.000000 90.602 164.8667
136.000000 90.396 164.7935
138.000000 90.197 164.7401
140.000000 90.010 164.8060
143.000000 89.744 165.1163
145.000000 89.565 165.3398
147.500000 89.360 165.6295
150.000000 89.201 166.0162
152.500000 89.044 166.5931
155.000000 88.864 167.4836
157.500000 88.708 168.3627
160.000000 88.578 169.0371
162.500000 88.468 169.7572
165.000000 88.375 170.5683
167.500000 88.290 171.3979
170.000000 88.218 172.2148
172.500000 88.161 172.9824
175.000000 88.108 173.7468
177.500000 88.068 174.5229
180.000000 88.043 175.2667
182.500000 88.032 176.0193
185.000000 88.031 176.7631
187.500000 88.037 177.4006
190.000000 88.040 177.9036
192.500000 88.046 178.3942
195.000000 88.064 178.9007
197.500000 88.089 179.3748
200.000000 88.113 179.8060
203.000000 88.145 -179.7349
206.000000 88.183 -179.3165
209.000000 88.228 -178.9238
212.000000 88.274 -178.5773
214.000000 88.303 -178.3667
218.000000 88.373 -178.0214
220.000000 88.407 -177.9179
224.000000 88.450 -177.7421
227.000000 88.478 -177.6153
230.000000 88.513 -177.5163
233.000000 88.546 -177.4453
236.000000 88.575 -177.4342
240.000000 88.625 -177.3764
243.000000 88.672 -177.1790
247.000000 88.716 -177.0525
250.000000 88.724 -177.1670
254.000000 88.741 -177.2987
258.000000 88.765 -177.3920
262.000000 88.786 -177.4655
265.000000 88.800 -177.4749
269.000000 88.826 -177.5264
272.000000 88.843 -177.6018
276.000000 88.860 -177.6572
280.000000 88.877 -177.7443
285.000000 88.898 -177.9111
290.000000 88.916 -178.0062
295.000000 88.939 -178.0396
300.000000 88.955 -178.0944
304.000000 88.956 -178.1790
307.000000 88.957 -178.2379
311.000000 88.961 -178.2969
315.000000 88.966 -178.3561
320.000000 88.971 -178.4099
325.000000 88.976 -178.4379
330.000000 88.983 -178.4643
335.000000 88.986 -178.5042
340.000000 88.989 -178.5518
345.000000 88.990 -178.5857
350.000000 88.990 -178.6033
355.000000 88.991 -178.6163
360.000000 88.992 -178.6283
365.000000 88.992 -178.6398
370.000000 88.993 -178.6406
375.000000 88.992 -178.6156
382.000000 88.987 -178.5908
387.000000 88.986 -178.5708
395.000000 88.985 -178.5404
400.000000 88.987 -178.5212
406.000000 88.989 -178.4985
412.000000 88.991 -178.4698
418.000000 88.995 -178.4404
425.000000 89.000 -178.4209
431.000000 89.003 -178.4054
437.000000 89.007 -178.3830
444.000000 89.011 -178.3678
450.000000 89.016 -178.3521
455.000000 89.021 -178.3309
462.000000 89.030 -178.3144
468.000000 89.037 -178.3059
475.000000 89.042 -178.2837
482.000000 89.047 -178.2304
487.000000 89.055 -178.1646
494.000000 89.072 -178.0276
500.000000 89.085 -177.8668
508.000000 89.098 -177.6278
515.000000 89.108 -177.4208
522.000000 89.120 -177.2193
530.000000 89.133 -176.9944
538.000000 89.145 -176.7758
545.000000 89.156 -176.5876
552.000000 89.168 -176.3964
560.000000 89.182 -176.1663
570.000000 89.198 -175.8766
580.000000 89.215 -175.5917
590.000000 89.229 -175.3112
600.000000 89.240 -175.0196
608.000000 89.246 -174.7667
615.000000 89.249 -174.5432
622.000000 89.250 -174.3156
630.000000 89.253 -174.0372
640.000000 89.259 -173.6862
650.000000 89.265 -173.3810
660.000000 89.270 -173.1361
670.000000 89.278 -172.9513
680.000000 89.295 -172.8132
690.000000 89.319 -172.7119
700.000000 89.347 -172.6525
710.000000 89.374 -172.6267
720.000000 89.398 -172.6253
730.000000 89.418 -172.6348
740.000000 89.434 -172.6525
750.000000 89.448 -172.6708
762.000000 89.462 -172.6855
775.000000 89.473 -172.6962
788.000000 89.485 -172.7043
800.000000 89.495 -172.7037
812.000000 89.505 -172.6949
825.000000 89.516 -172.6815
838.000000 89.526 -172.6662
850.000000 89.535 -172.6531
862.000000 89.544 -172.6487
875.000000 89.552 -172.6473
885.000000 89.559 -172.6473
900.000000 89.569 -172.6569
912.000000 89.577 -172.6734
925.000000 89.587 -172.7054
938.000000 89.597 -172.7511
950.000000 89.606 -172.8047
962.000000 89.612 -172.8711
975.000000 89.617 -172.9558
988.000000 89.619 -173.0542
1000.000000 89.618 -173.1582
1015.000000 89.615 -173.3010
1030.000000 89.608 -173.4621
1044.000000 89.598 -173.6293
1060.000000 89.581 -173.8363
1075.000000 89.559 -174.0411
1090.000000 89.535 -174.2475
1106.000000 89.511 -174.4646
1120.000000 89.487 -174.6524
1138.000000 89.449 -174.8789
1150.000000 89.417 -175.0166
1172.000000 89.347 -175.2299
1180.000000 89.317 -175.2898
1206.000000 89.207 -175.3999
1220.000000 89.142 -175.3962
1241.000000 89.037 -175.2920
1250.000000 88.990 -175.2071
1265.000000 88.906 -175.0040
1280.000000 88.819 -174.7181
1315.000000 88.606 -173.6884
1320.000000 88.576 -173.4970
1340.000000 88.449 -172.6138
1360.000000 88.314 -171.5426
1380.000000 88.190 -170.2840
1400.000000 88.098 -168.8466
1430.000000 88.018 -166.3987
1450.000000 88.006 -164.6140
1475.000000 88.040 -162.2772
1500.000000 88.131 -159.9012
1525.000000 88.277 -157.5662
1550.000000 88.473 -155.3497
1575.000000 88.711 -153.3147
1600.000000 88.987 -151.5083
1625.000000 89.291 -149.9504
1650.000000 89.615 -148.6433
1675.000000 89.950 -147.5889
1700.000000 90.290 -146.7710
1725.000000 90.629 -146.1715
1750.000000 90.967 -145.7639
1775.000000 91.302 -145.5387
1800.000000 91.630 -145.4702
1825.000000 91.944 -145.5143
1850.000000 92.245 -145.6728
1875.000000 92.536 -145.9314
1900.000000 92.817 -146.2741
1925.000000 93.088 -146.6892
1950.000000 93.350 -147.1661
1975.000000 93.605 -147.6986
2000.000000 93.851 -148.2779
2030.000000 94.136 -149.0242
2060.000000 94.411 -149.8236
2090.000000 94.678 -150.6703
2120.000000 94.938 -151.5599
2140.000000 95.107 -152.1763
2180.000000 95.439 -153.4609
2200.000000 95.599 -154.1276
2240.000000 95.910 -155.5159
2270.000000 96.138 -156.6051
2300.000000 96.361 -157.7313
2330.000000 96.580 -158.8959
2360.000000 96.793 -160.0975
2400.000000 97.071 -161.7530
2430.000000 97.275 -163.0416
2470.000000 97.541 -164.8237
2500.000000 97.735 -166.2112
2540.000000 97.986 -168.1384
2580.000000 98.228 -170.1562
2620.000000 98.458 -172.2571
2650.000000 98.621 -173.8864
2690.000000 98.826 -176.1286
2720.000000 98.969 -177.8580
2760.000000 99.144 179.7773
2800.000000 99.302 177.3528
2850.000000 99.472 174.2435
2900.000000 99.611 171.0580
2950.000000 99.714 167.8258
3000.000000 99.780 164.5936
3040.000000 99.804 162.0384
3070.000000 99.806 160.1588
3110.000000 99.790 157.7277
3150.000000 99.754 155.4125
3200.000000 99.690 152.7218
3250.000000 99.622 150.2758
3300.000000 99.566 148.0172
3350.000000 99.530 145.8163
3400.000000 99.504 143.5592
3450.000000 99.474 141.2171
3500.000000 99.430 138.8480
3550.000000 99.366 136.5321
3600.000000 99.282 134.3275
3650.000000 99.187 132.2611
3700.000000 99.086 130.3381
3750.000000 98.989 128.5449
3820.000000 98.866 126.1880
3870.000000 98.785 124.5658
3950.000000 98.660 122.0105
4000.000000 98.584 120.4487
4060.000000 98.494 118.6309
4120.000000 98.411 116.8810
4180.000000 98.336 115.1901
4250.000000 98.260 113.2472
4310.000000 98.197 111.5376
4370.000000 98.106 109.8038
4440.000000 97.965 108.3270
4500.000000 97.953 107.5219
4550.000000 98.017 106.4296
4620.000000 98.089 104.3232
4680.000000 98.129 102.3321
4750.000000 98.159 99.8873
4820.000000 98.173 97.3849
4870.000000 98.182 95.6110
4940.000000 98.215 93.0871
5000.000000 98.265 90.7300
5080.000000 98.339 87.1263
5150.000000 98.376 83.5319
5220.000000 98.364 79.6107
5300.000000 98.275 74.9037
5380.000000 98.101 70.1605
5450.000000 97.889 66.0990
5520.000000 97.632 62.1519
5600.000000 97.290 57.7787
5700.000000 96.782 52.5608
5800.000000 96.181 47.7597
5900.000000 95.500 43.5746
6000.000000 94.766 40.1691
6080.000000 94.164 38.0531
6150.000000 93.641 36.6457
6220.000000 93.130 35.6439
6300.000000 92.577 34.9623
6400.000000 91.954 34.5827
6500.000000 91.383 34.6301
6600.000000 90.869 35.1811
6700.000000 90.423 36.2331
6800.000000 90.072 37.9818
6900.000000 89.953 40.6161
7000.000000 90.206 42.9337
7100.000000 90.601 43.5017
7200.000000 90.961 43.2992
7300.000000 91.385 43.0671
7400.000000 91.944 42.4722
7500.000000 92.651 41.0385
7620.000000 93.690 37.5356
7750.000000 94.918 30.4540
7880.000000 95.896 18.8848
8000.000000 96.268 4.5074
8120.000000 95.928 -11.1791
8250.000000 94.782 -26.1296
8380.000000 93.121 -36.8585
8500.000000 91.445 -43.2062
8620.000000 89.814 -47.0835
8750.000000 88.174 -49.4030
8850.000000 87.017 -50.2375
9000.000000 85.447 -50.3381
9120.000000 84.325 -49.6058
9250.000000 83.244 -47.9571
9380.000000 82.386 -45.2278
9500.000000 81.871 -42.4414
9620.000000 81.383 -39.7346
9750.000000 80.760 -36.0074
9880.000000 80.163 -31.7085
10000.000000 79.660 -27.6373
10150.000000 79.069 -22.5098
10300.000000 78.504 -17.2971
10440.000000 77.999 -12.3494
10600.000000 77.443 -6.5493
10750.000000 76.946 -0.8936
10900.000000 76.489 4.9554
11060.000000 76.038 11.3124
11200.000000 75.655 17.0808
11380.000000 75.220 24.9649
11500.000000 74.987 30.3418
11720.000000 74.651 40.2748
11800.000000 74.554 43.9201
12060.000000 74.322 55.8723
12200.000000 74.248 62.3532
12410.000000 74.207 72.0555
12500.000000 74.218 76.1182
12650.000000 74.280 82.3353
12800.000000 74.387 87.1921
13150.000000 74.826 94.3215
13200.000000 74.914 95.1707
13400.000000 75.340 98.4343
13600.000000 75.902 101.5034
13800.000000 76.629 104.3088
14000.000000 77.550 106.7325
14300.000000 79.411 109.2838
14500.000000 81.132 109.7084
14750.000000 84.009 106.6715
15000.000000 87.235 94.0561
15250.000000 89.223 65.4806
15500.000000 88.675 30.9826
15750.000000 86.094 9.4760
16000.000000 83.106 1.5527
16250.000000 80.798 0.0690
16500.000000 79.316 0.9377
16750.000000 78.515 2.4071
17000.000000 78.354 3.3090
17250.000000 78.797 1.4021
17500.000000 79.424 -5.4902
17750.000000 79.824 -17.7781
18000.000000 79.544 -34.7301
18250.000000 78.257 -52.1960
18500.000000 76.033 -65.5541
18750.000000 73.201 -73.2576
19000.000000 70.081 -75.8365
19250.000000 66.877 -74.2317
19500.000000 63.688 -69.4413
19750.000000 60.540 -62.2699
20000.000000 57.369 -52.9772
20300.000000 53.374 -38.5972
20600.000000 49.166 -19.8040
20900.000000 44.815 3.0239
21200.000000 40.680 15.9298
21400.000000 38.302 -25.1969
21800.000000 34.335 -64.3843
22000.000000 32.774 94.3906
22400.000000 31.720 -171.9143
22700.000000 31.499 -171.2406
23000.000000 30.755 -103.1992
23300.000000 29.310 -108.2295
23600.000000 28.057 -143.2769
24000.000000 27.794 29.9902
