* Measurement data measured by REW V5.20.13
* Source: Headset (DS by VECLAN.COM), MICROPHONE (Master Volume), L, volume: 0.720. Timing signal peak level -16.1 dBFS, measurement signal peak level -15.0 dBFS
* Format: 1M Log Swept Sine, 1 sweep at -12.0 dBFS using an acoustic timing reference
* Dated: Nov 25, 2023 1:48:16 AM
* REW Settings:
*  C-weighting compensation: Off
*  Target level: 75.0 dB
* Note: ; Apple + Abigail Delay -0.0614 ms (-21 mm, -0.83 in) using estimated IR delay relative to Acoustic reference played from HEADPHONE R with no timing offset Clock adjustment: 0.5 ppm
* Measurement: Binary x Gizaudio Chopin S2 R
* Smoothing: 1/24 octave
* Frequency Step: 1/48 octave
* Start Frequency: 1.000 Hz
*
* Freq(Hz) SPL(dB) Phase(degrees)
1.000000 72.460 24.5153
1.015000 72.489 22.5888
1.030000 72.524 20.6751
1.044000 72.560 18.9051
1.060000 72.608 16.9068
1.075000 72.658 15.0624
1.090000 72.714 13.2513
1.106000 72.782 11.3534
1.120000 72.850 9.6769
1.138000 72.950 7.4907
1.150000 73.024 6.0168
1.172000 73.173 3.2875
1.180000 73.231 2.2881
1.206000 73.431 -0.9767
1.220000 73.546 -2.7405
1.241000 73.725 -5.3860
1.250000 73.804 -6.5175
1.265000 73.937 -8.3976
1.280000 74.072 -10.2672
1.315000 74.391 -14.5691
1.320000 74.436 -15.1748
1.340000 74.617 -17.5700
1.360000 74.793 -19.9147
1.380000 74.964 -22.2004
1.400000 75.126 -24.4187
1.430000 75.352 -27.6009
1.450000 75.488 -29.6132
1.475000 75.638 -31.9969
1.500000 75.777 -34.2796
1.525000 75.907 -36.4753
1.550000 76.031 -38.5858
1.575000 76.147 -40.6129
1.600000 76.256 -42.5584
1.625000 76.359 -44.4242
1.650000 76.457 -46.2122
1.675000 76.550 -47.9242
1.700000 76.638 -49.5619
1.725000 76.722 -51.1273
1.750000 76.802 -52.6222
1.775000 76.879 -54.0483
1.800000 76.954 -55.4076
1.825000 77.026 -56.7020
1.850000 77.096 -57.9205
1.875000 77.158 -59.0378
1.900000 77.214 -60.0601
1.925000 77.264 -60.9949
1.950000 77.310 -61.8496
1.975000 77.352 -62.6316
2.000000 77.390 -63.3485
2.030000 77.433 -64.1332
2.060000 77.474 -64.8478
2.090000 77.513 -65.5050
2.120000 77.553 -66.1179
2.140000 77.580 -66.5081
2.180000 77.638 -67.2619
2.200000 77.669 -67.6328
2.240000 77.731 -68.3131
2.270000 77.776 -68.7549
2.300000 77.819 -69.1411
2.330000 77.861 -69.4747
2.360000 77.904 -69.7586
2.400000 77.960 -70.0647
2.430000 78.004 -70.2437
2.470000 78.064 -70.4204
2.500000 78.112 -70.5103
2.540000 78.180 -70.5786
2.580000 78.252 -70.5886
2.620000 78.326 -70.4993
2.650000 78.381 -70.3688
2.690000 78.456 -70.1227
2.720000 78.514 -69.8930
2.760000 78.595 -69.5391
2.800000 78.682 -69.1455
2.850000 78.801 -68.6221
2.900000 78.933 -68.0928
2.950000 79.082 -67.5766
3.000000 79.245 -66.9936
3.040000 79.384 -66.4803
3.070000 79.494 -66.0779
3.110000 79.646 -65.5306
3.150000 79.805 -64.9848
3.200000 80.011 -64.3281
3.250000 80.224 -63.7275
3.300000 80.444 -63.2125
3.350000 80.675 -62.7557
3.400000 80.918 -62.3290
3.450000 81.170 -61.9401
3.500000 81.428 -61.5966
3.550000 81.689 -61.3061
3.600000 81.950 -61.0763
3.650000 82.207 -60.9148
3.700000 82.461 -60.8267
3.750000 82.718 -60.8069
3.820000 83.080 -60.8835
3.870000 83.338 -61.0054
3.950000 83.742 -61.3022
4.000000 83.987 -61.5428
4.060000 84.270 -61.8864
4.120000 84.547 -62.3190
4.180000 84.817 -62.8277
4.250000 85.123 -63.4916
4.310000 85.377 -64.0986
4.370000 85.622 -64.7202
4.440000 85.895 -65.4557
4.500000 86.119 -66.1255
4.550000 86.298 -66.7066
4.620000 86.541 -67.5435
4.680000 86.740 -68.2717
4.750000 86.964 -69.1199
4.820000 87.178 -69.9690
4.870000 87.324 -70.5876
4.940000 87.520 -71.4618
5.000000 87.680 -72.2109
5.080000 87.885 -73.1960
5.150000 88.057 -74.0343
5.220000 88.219 -74.8615
5.300000 88.395 -75.7948
5.380000 88.561 -76.7083
5.450000 88.701 -77.4861
5.520000 88.836 -78.2394
5.600000 88.984 -79.0737
5.700000 89.158 -80.0800
5.800000 89.324 -81.0478
5.900000 89.487 -81.9774
6.000000 89.644 -82.8613
6.080000 89.766 -83.5424
6.150000 89.870 -84.1258
6.220000 89.972 -84.7027
6.300000 90.088 -85.3525
6.400000 90.230 -86.1440
6.500000 90.367 -86.9195
6.600000 90.500 -87.6866
6.700000 90.629 -88.4480
6.800000 90.754 -89.1993
6.900000 90.874 -89.9362
7.000000 90.991 -90.6554
7.100000 91.102 -91.3602
7.200000 91.210 -92.0482
7.300000 91.314 -92.7156
7.400000 91.415 -93.3602
7.500000 91.513 -93.9840
7.620000 91.627 -94.7050
7.750000 91.749 -95.4506
7.880000 91.868 -96.1564
8.000000 91.976 -96.7822
8.120000 92.085 -97.3904
8.250000 92.204 -98.0224
8.380000 92.323 -98.6418
8.500000 92.433 -99.2133
8.620000 92.545 -99.7775
8.750000 92.665 -100.3935
8.850000 92.757 -100.8784
9.000000 92.896 -101.6171
9.120000 93.005 -102.2203
9.250000 93.120 -102.8908
9.380000 93.234 -103.5775
9.500000 93.333 -104.2164
9.620000 93.426 -104.8588
9.750000 93.519 -105.5607
9.880000 93.602 -106.2501
10.000000 93.668 -106.8712
10.150000 93.737 -107.6297
10.300000 93.798 -108.3454
10.440000 93.845 -108.9696
10.600000 93.897 -109.6490
10.750000 93.951 -110.2556
10.900000 94.007 -110.8392
11.060000 94.072 -111.4787
11.200000 94.134 -112.0479
11.380000 94.215 -112.8080
11.500000 94.269 -113.3385
11.720000 94.364 -114.3465
11.800000 94.397 -114.7243
12.060000 94.496 -115.9811
12.200000 94.543 -116.6556
12.410000 94.605 -117.6535
12.500000 94.628 -118.0560
12.650000 94.661 -118.7001
12.800000 94.692 -119.3010
13.150000 94.765 -120.5035
13.200000 94.778 -120.6599
13.400000 94.832 -121.2384
13.600000 94.896 -121.7978
13.800000 94.972 -122.3533
14.000000 95.053 -122.9499
14.300000 95.179 -123.9374
14.500000 95.258 -124.6656
14.750000 95.346 -125.6139
15.000000 95.422 -126.5805
15.250000 95.485 -127.5105
15.500000 95.540 -128.3716
15.750000 95.590 -129.1512
16.000000 95.641 -129.8503
16.250000 95.694 -130.5046
16.500000 95.751 -131.1331
16.750000 95.812 -131.7612
17.000000 95.873 -132.3918
17.250000 95.933 -133.0197
17.500000 95.991 -133.6344
17.750000 96.047 -134.2285
18.000000 96.104 -134.8093
18.250000 96.164 -135.3860
18.500000 96.226 -135.9818
18.750000 96.289 -136.6075
19.000000 96.352 -137.2728
19.250000 96.408 -137.9747
19.500000 96.457 -138.6914
19.750000 96.496 -139.4049
20.000000 96.526 -140.0802
20.299999 96.558 -140.8233
20.600000 96.588 -141.4901
20.900000 96.623 -142.0986
21.200001 96.664 -142.6846
21.400000 96.694 -143.0811
21.799999 96.758 -143.9014
22.000000 96.790 -144.3266
22.400000 96.849 -145.1944
22.700001 96.890 -145.8459
23.000000 96.930 -146.4912
23.299999 96.969 -147.1342
23.600000 97.006 -147.7773
24.000000 97.051 -148.6291
24.299999 97.081 -149.2491
24.700001 97.118 -150.0286
25.000000 97.146 -150.5740
25.400000 97.188 -151.2676
25.799999 97.236 -151.9659
26.200001 97.285 -152.7027
26.500000 97.316 -153.2774
26.900000 97.349 -154.0431
27.200001 97.366 -154.5900
27.600000 97.385 -155.2614
28.000000 97.403 -155.8750
28.500000 97.432 -156.6087
29.000000 97.465 -157.3498
29.500000 97.497 -158.1021
30.000000 97.525 -158.8583
30.400000 97.546 -159.4742
30.700001 97.561 -159.9492
31.100000 97.577 -160.6008
31.500000 97.589 -161.2609
32.000000 97.597 -162.0646
32.500000 97.600 -162.8178
33.000000 97.605 -163.5270
33.500000 97.613 -164.2193
34.000000 97.624 -164.9137
34.500000 97.635 -165.6072
35.000000 97.646 -166.2888
35.500000 97.658 -166.9549
36.000000 97.669 -167.6069
36.500000 97.679 -168.2455
37.000000 97.687 -168.8738
37.500000 97.693 -169.4948
38.200001 97.699 -170.3522
38.700001 97.701 -170.9605
39.500000 97.697 -171.9236
40.000000 97.691 -172.4974
40.599998 97.685 -173.1449
41.200001 97.683 -173.7759
41.799999 97.684 -174.4296
42.500000 97.682 -175.2245
43.099998 97.675 -175.8946
43.700001 97.666 -176.5236
44.400002 97.657 -177.2106
45.000000 97.654 -177.7881
45.500000 97.651 -178.2780
46.200001 97.642 -178.9730
46.799999 97.630 -179.5534
47.500000 97.614 179.8040
48.200001 97.600 179.1740
48.700001 97.588 178.7192
49.400002 97.567 178.0938
50.000000 97.550 177.5853
50.799999 97.532 176.9060
51.500000 97.515 176.2757
52.200001 97.491 175.6552
53.000000 97.462 175.0049
53.799999 97.437 174.3881
54.500000 97.415 173.8556
55.200001 97.393 173.3180
56.000000 97.364 172.6885
57.000000 97.317 171.9466
58.000000 97.264 171.2770
59.000000 97.208 170.7026
60.000000 97.176 170.1964
60.799999 97.167 169.6136
61.500000 97.144 168.9984
62.200001 97.105 168.4282
63.000000 97.060 167.8472
64.000000 97.008 167.1201
65.000000 96.957 166.4444
66.000000 96.918 165.7974
67.000000 96.878 165.1498
68.000000 96.838 164.5862
69.000000 96.804 164.0528
70.000000 96.767 163.4902
71.000000 96.716 162.9196
72.000000 96.650 162.3963
73.000000 96.582 161.9714
74.000000 96.525 161.5531
75.000000 96.468 161.0512
76.199997 96.390 160.4352
77.500000 96.310 159.8447
78.800003 96.241 159.2489
80.000000 96.173 158.6913
81.199997 96.099 158.1647
82.500000 96.014 157.6292
83.800003 95.932 157.1232
85.000000 95.861 156.6442
86.199997 95.791 156.1624
87.500000 95.717 155.6707
88.500000 95.661 155.2979
90.000000 95.568 154.7679
91.199997 95.492 154.3876
92.500000 95.414 153.9696
93.800003 95.333 153.5481
95.000000 95.258 153.1782
96.199997 95.181 152.8407
97.500000 95.101 152.5221
98.800003 95.025 152.2008
100.000000 94.952 151.8785
101.500000 94.853 151.4824
103.000000 94.757 151.1222
104.400002 94.666 150.7989
106.000000 94.560 150.4874
107.500000 94.467 150.2333
109.000000 94.379 149.9595
110.599998 94.284 149.6547
112.000000 94.199 149.4230
113.800003 94.093 149.1682
115.000000 94.018 148.9855
117.199997 93.862 148.6379
118.000000 93.802 148.5245
120.599998 93.623 148.2247
122.000000 93.548 148.0429
124.099998 93.435 147.7386
125.000000 93.383 147.6520
126.500000 93.296 147.5666
128.000000 93.209 147.4971
131.500000 93.001 147.2337
132.000000 92.971 147.1933
134.000000 92.856 147.0817
136.000000 92.751 147.0665
138.000000 92.650 147.1106
140.000000 92.544 147.1593
143.000000 92.378 147.1086
145.000000 92.262 147.0474
147.500000 92.123 147.0391
150.000000 91.990 147.1301
152.500000 91.858 147.2619
155.000000 91.728 147.3911
157.500000 91.603 147.5307
160.000000 91.478 147.7212
162.500000 91.355 147.9526
165.000000 91.234 148.1661
167.500000 91.111 148.3812
170.000000 90.990 148.6472
172.500000 90.875 148.9621
175.000000 90.765 149.2927
177.500000 90.660 149.6186
180.000000 90.559 149.9211
182.500000 90.461 150.2279
185.000000 90.361 150.5719
187.500000 90.257 150.9546
190.000000 90.156 151.3522
192.500000 90.062 151.7409
195.000000 89.973 152.1368
197.500000 89.887 152.5677
200.000000 89.803 153.0350
203.000000 89.712 153.5891
206.000000 89.621 154.1012
209.000000 89.531 154.6046
212.000000 89.451 155.1759
214.000000 89.402 155.5794
218.000000 89.302 156.3513
220.000000 89.253 156.7216
224.000000 89.168 157.4336
227.000000 89.111 157.9735
230.000000 89.056 158.5451
233.000000 89.004 159.1226
236.000000 88.961 159.6664
240.000000 88.906 160.3535
243.000000 88.857 160.9133
247.000000 88.793 161.7104
250.000000 88.752 162.2841
254.000000 88.703 163.0260
258.000000 88.665 163.7429
262.000000 88.637 164.4284
265.000000 88.614 164.9305
269.000000 88.584 165.5974
272.000000 88.568 166.0970
276.000000 88.550 166.7649
280.000000 88.531 167.3985
285.000000 88.507 168.1705
290.000000 88.491 168.9492
295.000000 88.479 169.6850
300.000000 88.462 170.3877
304.000000 88.453 170.9532
307.000000 88.454 171.3544
311.000000 88.462 171.8684
315.000000 88.469 172.3914
320.000000 88.477 173.0406
325.000000 88.484 173.6476
330.000000 88.489 174.2110
335.000000 88.498 174.7504
340.000000 88.508 175.3056
345.000000 88.518 175.8723
350.000000 88.529 176.4230
355.000000 88.540 176.9358
360.000000 88.545 177.4092
365.000000 88.555 177.8800
370.000000 88.569 178.3419
375.000000 88.584 178.7895
382.000000 88.603 179.4156
387.000000 88.614 179.8383
395.000000 88.633 -179.5346
400.000000 88.646 -179.1601
406.000000 88.662 -178.6913
412.000000 88.679 -178.2217
418.000000 88.694 -177.7623
425.000000 88.710 -177.2508
431.000000 88.719 -176.8412
437.000000 88.730 -176.4585
444.000000 88.749 -176.0212
450.000000 88.764 -175.6471
455.000000 88.775 -175.3354
462.000000 88.789 -174.8956
468.000000 88.799 -174.5172
475.000000 88.811 -174.0879
482.000000 88.826 -173.6868
487.000000 88.837 -173.4109
494.000000 88.853 -173.0390
500.000000 88.867 -172.7146
508.000000 88.882 -172.2564
515.000000 88.893 -171.8498
522.000000 88.905 -171.4605
530.000000 88.922 -171.0329
538.000000 88.940 -170.6188
545.000000 88.955 -170.2564
552.000000 88.971 -169.8873
560.000000 88.987 -169.4686
570.000000 89.005 -168.9541
580.000000 89.023 -168.4231
590.000000 89.040 -167.8968
600.000000 89.053 -167.3805
608.000000 89.062 -166.9656
615.000000 89.073 -166.5938
622.000000 89.086 -166.2114
630.000000 89.098 -165.7769
640.000000 89.113 -165.2583
650.000000 89.130 -164.7301
660.000000 89.147 -164.1799
670.000000 89.159 -163.6345
680.000000 89.170 -163.0928
690.000000 89.186 -162.5390
700.000000 89.205 -161.9811
710.000000 89.228 -161.4249
720.000000 89.250 -160.8696
730.000000 89.271 -160.3208
740.000000 89.294 -159.7618
750.000000 89.318 -159.1918
762.000000 89.348 -158.5076
775.000000 89.383 -157.7421
788.000000 89.420 -156.9897
800.000000 89.458 -156.3147
812.000000 89.498 -155.6168
825.000000 89.545 -154.8582
838.000000 89.597 -154.1285
850.000000 89.647 -153.4600
862.000000 89.699 -152.7861
875.000000 89.759 -152.0721
885.000000 89.805 -151.5315
900.000000 89.880 -150.7340
912.000000 89.948 -150.0995
925.000000 90.023 -149.4405
938.000000 90.099 -148.8129
950.000000 90.171 -148.2592
962.000000 90.245 -147.7272
975.000000 90.329 -147.1456
988.000000 90.422 -146.5684
1000.000000 90.507 -146.0836
1015.000000 90.605 -145.5820
1030.000000 90.704 -145.1507
1044.000000 90.802 -144.7669
1060.000000 90.910 -144.3283
1075.000000 91.004 -143.9448
1090.000000 91.101 -143.6123
1106.000000 91.214 -143.2968
1120.000000 91.315 -143.0542
1138.000000 91.443 -142.7824
1150.000000 91.526 -142.6124
1172.000000 91.670 -142.3259
1180.000000 91.720 -142.2275
1206.000000 91.874 -141.9474
1220.000000 91.956 -141.8189
1241.000000 92.078 -141.6281
1250.000000 92.130 -141.5428
1265.000000 92.214 -141.4019
1280.000000 92.295 -141.2595
1315.000000 92.470 -140.9274
1320.000000 92.493 -140.8800
1340.000000 92.579 -140.6757
1360.000000 92.645 -140.4482
1380.000000 92.708 -140.2198
1400.000000 92.782 -139.9915
1430.000000 92.896 -139.6206
1450.000000 92.973 -139.3566
1475.000000 93.067 -138.9964
1500.000000 93.161 -138.6302
1525.000000 93.255 -138.2547
1550.000000 93.345 -137.8678
1575.000000 93.433 -137.4601
1600.000000 93.523 -137.0428
1625.000000 93.613 -136.6214
1650.000000 93.708 -136.1855
1675.000000 93.806 -135.7503
1700.000000 93.905 -135.3188
1725.000000 94.005 -134.8909
1750.000000 94.108 -134.4773
1775.000000 94.215 -134.0641
1800.000000 94.323 -133.6503
1825.000000 94.434 -133.2552
1850.000000 94.548 -132.8763
1875.000000 94.665 -132.5070
1900.000000 94.786 -132.1524
1925.000000 94.908 -131.8104
1950.000000 95.033 -131.4896
1975.000000 95.163 -131.1887
2000.000000 95.295 -130.9195
2030.000000 95.447 -130.6498
2060.000000 95.602 -130.4087
2090.000000 95.765 -130.1993
2120.000000 95.932 -130.0407
2140.000000 96.045 -129.9675
2180.000000 96.270 -129.8866
2200.000000 96.382 -129.8783
2240.000000 96.602 -129.9235
2270.000000 96.767 -130.0218
2300.000000 96.931 -130.1864
2330.000000 97.093 -130.4176
2360.000000 97.255 -130.7101
2400.000000 97.465 -131.1836
2430.000000 97.616 -131.6025
2470.000000 97.806 -132.2578
2500.000000 97.941 -132.8153
2540.000000 98.108 -133.6510
2580.000000 98.262 -134.5787
2620.000000 98.399 -135.5874
2650.000000 98.490 -136.3911
2690.000000 98.594 -137.5008
2720.000000 98.656 -138.3524
2760.000000 98.718 -139.5138
2800.000000 98.758 -140.6890
2850.000000 98.778 -142.1437
2900.000000 98.768 -143.5458
2950.000000 98.728 -144.8598
3000.000000 98.662 -146.0556
3040.000000 98.593 -146.9469
3070.000000 98.532 -147.5623
3110.000000 98.443 -148.2905
3150.000000 98.346 -148.9138
3200.000000 98.214 -149.5490
3250.000000 98.074 -150.0299
3300.000000 97.930 -150.3538
3350.000000 97.784 -150.5298
3400.000000 97.642 -150.5696
3450.000000 97.508 -150.4778
3500.000000 97.383 -150.2628
3550.000000 97.269 -149.9308
3600.000000 97.164 -149.4866
3650.000000 97.071 -148.9415
3700.000000 96.989 -148.3173
3750.000000 96.920 -147.6248
3820.000000 96.848 -146.5565
3870.000000 96.814 -145.7517
3950.000000 96.786 -144.4299
4000.000000 96.788 -143.6071
4060.000000 96.811 -142.6427
4120.000000 96.854 -141.7139
4180.000000 96.917 -140.8484
4250.000000 97.015 -139.9645
4310.000000 97.113 -139.3557
4370.000000 97.216 -138.9030
4440.000000 97.339 -138.5910
4500.000000 97.443 -138.5276
4550.000000 97.526 -138.6225
4620.000000 97.628 -138.9678
4680.000000 97.697 -139.4494
4750.000000 97.749 -140.1956
4820.000000 97.766 -141.1034
4870.000000 97.753 -141.8227
4940.000000 97.695 -142.8962
5000.000000 97.606 -143.8312
5080.000000 97.433 -144.9976
5150.000000 97.228 -145.8836
5220.000000 96.976 -146.5667
5300.000000 96.643 -146.9997
5380.000000 96.276 -146.9828
5450.000000 95.941 -146.5557
5520.000000 95.607 -145.7384
5600.000000 95.241 -144.3365
5700.000000 94.831 -141.9265
5800.000000 94.505 -138.9326
5900.000000 94.288 -135.5602
6000.000000 94.193 -132.0665
6080.000000 94.205 -129.3700
6150.000000 94.274 -127.2036
6220.000000 94.383 -125.3020
6300.000000 94.539 -123.5184
6400.000000 94.742 -121.8800
6500.000000 94.918 -120.7858
6600.000000 95.044 -120.0091
6700.000000 95.120 -119.3041
6800.000000 95.169 -118.4975
6900.000000 95.228 -117.4947
7000.000000 95.321 -116.2975
7100.000000 95.454 -114.9855
7200.000000 95.636 -113.6763
7300.000000 95.870 -112.5024
7400.000000 96.158 -111.5742
7500.000000 96.503 -111.0485
7620.000000 96.988 -111.2785
7750.000000 97.519 -112.8961
7880.000000 97.880 -116.0021
8000.000000 98.001 -119.9920
8120.000000 97.881 -124.5703
8250.000000 97.457 -129.3997
8380.000000 96.768 -133.2733
8500.000000 95.966 -135.5613
8620.000000 95.078 -136.5293
8750.000000 94.090 -136.2312
8850.000000 93.345 -135.2154
9000.000000 92.292 -132.6902
9120.000000 91.519 -130.0151
9250.000000 90.753 -126.6559
9380.000000 90.055 -122.9538
9500.000000 89.470 -119.3388
9620.000000 88.937 -115.6113
9750.000000 88.405 -111.4542
9880.000000 87.915 -107.0969
10000.000000 87.508 -102.8681
10150.000000 87.074 -97.4664
10300.000000 86.702 -92.1220
10440.000000 86.386 -87.1872
10600.000000 86.050 -81.4905
10750.000000 85.760 -75.9839
10900.000000 85.508 -70.2570
11060.000000 85.302 -63.8806
11200.000000 85.193 -58.0989
11380.000000 85.178 -50.5123
11500.000000 85.258 -45.4773
11720.000000 85.604 -36.7029
11800.000000 85.790 -33.7770
12060.000000 86.565 -25.7206
12200.000000 87.050 -22.5244
12410.000000 87.777 -19.5486
12500.000000 88.060 -18.9675
12650.000000 88.462 -18.8757
12800.000000 88.741 -19.7839
13150.000000 88.660 -24.8337
13200.000000 88.533 -25.6778
13400.000000 87.672 -27.9752
13600.000000 86.360 -26.3903
13800.000000 85.040 -19.9149
14000.000000 84.200 -10.4793
14300.000000 84.002 3.9561
14500.000000 84.326 11.9983
14750.000000 84.976 19.6869
15000.000000 85.729 24.6590
15250.000000 86.435 26.8139
15500.000000 86.927 26.4867
15750.000000 87.064 25.0495
16000.000000 86.834 24.2378
16250.000000 86.369 25.1709
16500.000000 85.857 28.0545
16750.000000 85.461 32.4291
17000.000000 85.281 37.4868
17250.000000 85.352 42.3133
17500.000000 85.636 45.8959
17750.000000 85.964 47.2079
18000.000000 86.019 46.2395
18250.000000 85.548 45.6949
18500.000000 84.878 48.9890
18750.000000 84.609 53.2142
19000.000000 84.319 56.9617
19250.000000 84.264 62.5067
19500.000000 84.556 65.3854
19750.000000 84.557 65.8419
20000.000000 84.293 66.9093
20300.000000 84.016 68.5125
20600.000000 83.854 68.6560
20900.000000 83.498 67.2634
21200.000000 82.772 66.3293
21400.000000 82.147 66.9567
21800.000000 80.973 70.7743
22000.000000 80.534 70.5366
22400.000000 79.391 -30.6009
22700.000000 76.781 -109.6638
23000.000000 71.405 141.1270
23300.000000 63.594 -42.8574
23600.000000 54.821 -141.6992
24000.000000 49.573 -121.4141
