* Measurement data measured by REW V5.20.13
* Source: Microphone (High Definition Audio Device), MICROPHONE (Master Volume), L, volume: 1.000. Timing signal peak level -19.9 dBFS, measurement signal peak level -10.6 dBFS
* Format: 512k Log Swept Sine, 1 sweep at -12.0 dBFS using an acoustic timing reference
* Dated: Dec 11, 2022 8:10:49 PM
* REW Settings:
*  C-weighting compensation: Off
*  Target level: 75.0 dB
* Note: ; Delay -0.0272 ms (-9.3 mm, -0.37 in) using estimated IR delay relative to Acoustic reference played from HEADPHONE L with no timing offset Clock adjustment: 119.9 ppm
* Measurement: BL03 L
* Smoothing: 1/24 octave
* Frequency Step: 1/48 octave
* Start Frequency: 1.000 Hz
*
* Freq(Hz) SPL(dB) Phase(degrees)
1.000000 89.040 13.0594
1.015000 89.045 10.1267
1.030000 89.057 7.2949
1.044000 89.075 4.7543
1.060000 89.103 1.9855
1.075000 89.139 -0.4664
1.090000 89.183 -2.7658
1.106000 89.241 -5.0434
1.120000 89.302 -6.9247
1.138000 89.392 -9.2094
1.150000 89.459 -10.6530
1.172000 89.596 -13.1452
1.180000 89.650 -14.0047
1.206000 89.839 -16.6395
1.220000 89.949 -17.9653
1.241000 90.123 -19.8442
1.250000 90.201 -20.6125
1.265000 90.333 -21.8481
1.280000 90.469 -23.0325
1.315000 90.798 -25.6284
1.320000 90.846 -25.9831
1.340000 91.039 -27.3700
1.360000 91.233 -28.7157
1.380000 91.427 -30.0334
1.400000 91.619 -31.3364
1.430000 91.900 -33.2925
1.450000 92.081 -34.6169
1.475000 92.298 -36.3047
1.500000 92.519 -37.9240
1.525000 92.746 -39.4541
1.550000 92.977 -40.9029
1.575000 93.212 -42.2785
1.600000 93.448 -43.5887
1.625000 93.685 -44.8414
1.650000 93.922 -46.0448
1.675000 94.157 -47.2066
1.700000 94.389 -48.3349
1.725000 94.617 -49.4375
1.750000 94.839 -50.5226
1.775000 95.054 -51.5979
1.800000 95.262 -52.6714
1.825000 95.460 -53.7512
1.850000 95.649 -54.8313
1.875000 95.833 -55.8836
1.900000 96.012 -56.9082
1.925000 96.185 -57.9067
1.950000 96.354 -58.8807
1.975000 96.518 -59.8318
2.000000 96.677 -60.7615
2.030000 96.863 -61.8511
2.060000 97.043 -62.9150
2.090000 97.216 -63.9557
2.120000 97.385 -64.9760
2.140000 97.494 -65.6462
2.180000 97.706 -66.9662
2.200000 97.809 -67.6175
2.240000 98.005 -68.8914
2.270000 98.142 -69.8185
2.300000 98.271 -70.7224
2.330000 98.395 -71.6039
2.360000 98.513 -72.4640
2.400000 98.664 -73.5791
2.430000 98.774 -74.3928
2.470000 98.918 -75.4493
2.500000 99.025 -76.2215
2.540000 99.168 -77.2261
2.580000 99.313 -78.2017
2.620000 99.457 -79.1320
2.650000 99.562 -79.8008
2.690000 99.700 -80.6597
2.720000 99.802 -81.2829
2.760000 99.935 -82.0916
2.800000 100.066 -82.8812
2.850000 100.227 -83.8517
2.900000 100.385 -84.8166
2.950000 100.540 -85.7856
3.000000 100.693 -86.7340
3.040000 100.813 -87.4761
3.070000 100.902 -88.0248
3.110000 101.019 -88.7481
3.150000 101.133 -89.4648
3.200000 101.272 -90.3553
3.250000 101.407 -91.2453
3.300000 101.537 -92.1404
3.350000 101.662 -93.0443
3.400000 101.782 -93.9531
3.450000 101.898 -94.8606
3.500000 102.010 -95.7607
3.550000 102.119 -96.6473
3.600000 102.225 -97.5142
3.650000 102.329 -98.3554
3.700000 102.431 -99.1659
3.750000 102.529 -99.9485
3.820000 102.661 -101.0081
3.870000 102.752 -101.7468
3.950000 102.893 -102.9126
4.000000 102.979 -103.6399
4.060000 103.080 -104.5189
4.120000 103.177 -105.3987
4.180000 103.272 -106.2738
4.250000 103.379 -107.2830
4.310000 103.468 -108.1329
4.370000 103.554 -108.9642
4.440000 103.652 -109.9053
4.500000 103.732 -110.6887
4.550000 103.797 -111.3283
4.620000 103.886 -112.2086
4.680000 103.960 -112.9537
4.750000 104.045 -113.8177
4.820000 104.128 -114.6764
4.870000 104.186 -115.2822
4.940000 104.266 -116.1218
5.000000 104.333 -116.8351
5.080000 104.419 -117.7804
5.150000 104.493 -118.6048
5.220000 104.564 -119.4287
5.300000 104.643 -120.3656
5.380000 104.719 -121.2919
5.450000 104.781 -122.0891
5.520000 104.839 -122.8710
5.600000 104.899 -123.7538
5.700000 104.968 -124.8362
5.800000 105.033 -125.8830
5.900000 105.096 -126.8812
6.000000 105.156 -127.8274
6.080000 105.202 -128.5567
6.150000 105.242 -129.1819
6.220000 105.282 -129.8007
6.300000 105.329 -130.4993
6.400000 105.387 -131.3521
6.500000 105.445 -132.1875
6.600000 105.500 -133.0114
6.700000 105.552 -133.8259
6.800000 105.602 -134.6276
6.900000 105.651 -135.4131
7.000000 105.699 -136.1786
7.100000 105.746 -136.9210
7.200000 105.792 -137.6479
7.300000 105.837 -138.3686
7.400000 105.882 -139.0886
7.500000 105.927 -139.8029
7.620000 105.979 -140.6525
7.750000 106.031 -141.5657
7.880000 106.079 -142.4754
8.000000 106.119 -143.2988
8.120000 106.154 -144.0955
8.250000 106.186 -144.9364
8.380000 106.215 -145.7417
8.500000 106.239 -146.4425
8.620000 106.260 -147.1059
8.750000 106.283 -147.7870
8.850000 106.302 -148.2846
9.000000 106.330 -148.9832
9.120000 106.353 -149.5175
9.250000 106.383 -150.0815
9.380000 106.416 -150.6239
9.500000 106.445 -151.1204
9.620000 106.474 -151.6211
9.750000 106.506 -152.1620
9.880000 106.531 -152.7043
10.000000 106.545 -153.2096
10.150000 106.554 -153.8432
10.300000 106.554 -154.4675
10.440000 106.544 -155.0418
10.600000 106.527 -155.6870
10.750000 106.511 -156.2789
10.900000 106.493 -156.8589
11.060000 106.474 -157.4633
11.200000 106.458 -157.9814
11.380000 106.437 -158.6233
11.500000 106.421 -159.0339
11.720000 106.395 -159.7533
11.800000 106.386 -160.0033
12.060000 106.361 -160.7782
12.200000 106.350 -161.1783
12.410000 106.338 -161.7581
12.500000 106.333 -162.0039
12.650000 106.324 -162.4069
12.800000 106.315 -162.8102
13.150000 106.290 -163.7739
13.200000 106.286 -163.9132
13.400000 106.270 -164.4786
13.600000 106.253 -165.0368
13.800000 106.236 -165.5816
14.000000 106.219 -166.1034
14.300000 106.192 -166.8410
14.500000 106.173 -167.3049
14.750000 106.150 -167.8729
15.000000 106.131 -168.4378
15.250000 106.118 -169.0175
15.500000 106.107 -169.5979
15.750000 106.098 -170.1700
16.000000 106.087 -170.7158
16.250000 106.076 -171.2369
16.500000 106.064 -171.7371
16.750000 106.052 -172.2256
17.000000 106.042 -172.7134
17.250000 106.033 -173.2020
17.500000 106.024 -173.6918
17.750000 106.015 -174.1725
18.000000 106.005 -174.6400
18.250000 105.995 -175.0903
18.500000 105.985 -175.5259
18.750000 105.975 -175.9531
19.000000 105.965 -176.3776
19.250000 105.957 -176.8050
19.500000 105.949 -177.2296
19.750000 105.942 -177.6469
20.000000 105.935 -178.0472
20.299999 105.927 -178.5070
20.600000 105.918 -178.9485
20.900000 105.909 -179.3790
21.200001 105.898 -179.8020
21.400000 105.889 179.9202
21.799999 105.869 179.3699
22.000000 105.858 179.0943
22.400000 105.834 178.5388
22.700001 105.816 178.1255
23.000000 105.800 177.7247
23.299999 105.785 177.3358
23.600000 105.772 176.9517
24.000000 105.756 176.4343
24.299999 105.743 176.0398
24.700001 105.725 175.5184
25.000000 105.709 175.1457
25.400000 105.683 174.6799
25.799999 105.657 174.2251
26.200001 105.635 173.7452
26.500000 105.620 173.3672
26.900000 105.602 172.8626
27.200001 105.588 172.5025
27.600000 105.567 172.0570
28.000000 105.546 171.6487
28.500000 105.517 171.1769
29.000000 105.489 170.7148
29.500000 105.461 170.2375
30.000000 105.433 169.7568
30.400000 105.410 169.3806
30.700001 105.392 169.1008
31.100000 105.366 168.7239
31.500000 105.338 168.3459
32.000000 105.299 167.8977
32.500000 105.258 167.4916
33.000000 105.220 167.0919
33.500000 105.189 166.6634
34.000000 105.156 166.2239
34.500000 105.117 165.8045
35.000000 105.077 165.4034
35.500000 105.045 165.0035
36.000000 105.020 164.5970
36.500000 104.997 164.1854
37.000000 104.971 163.7722
37.500000 104.943 163.3674
38.200001 104.900 162.8416
38.700001 104.868 162.4844
39.500000 104.815 161.8819
40.000000 104.777 161.4909
40.599998 104.729 161.0436
41.200001 104.685 160.6655
41.799999 104.646 160.3362
42.500000 104.602 159.9174
43.099998 104.562 159.5173
43.700001 104.521 159.1224
44.400002 104.479 158.6945
45.000000 104.444 158.3357
45.500000 104.412 158.0208
46.200001 104.365 157.5700
46.799999 104.327 157.2039
47.500000 104.285 156.7984
48.200001 104.241 156.3891
48.700001 104.208 156.0914
49.400002 104.158 155.6862
50.000000 104.118 155.3612
50.799999 104.068 154.9444
51.500000 104.021 154.5833
52.200001 103.972 154.2478
53.000000 103.921 153.8817
53.799999 103.871 153.4790
54.500000 103.821 153.1273
55.200001 103.764 152.8109
56.000000 103.703 152.4645
57.000000 103.641 152.0022
58.000000 103.580 151.4916
59.000000 103.503 150.9503
60.000000 103.413 150.5894
60.799999 103.360 150.4079
61.500000 103.325 150.1966
62.200001 103.287 149.9159
63.000000 103.237 149.5792
64.000000 103.167 149.2005
65.000000 103.100 148.8877
66.000000 103.038 148.5920
67.000000 102.976 148.2351
68.000000 102.909 147.8358
69.000000 102.839 147.4387
70.000000 102.758 147.0861
71.000000 102.676 146.7873
72.000000 102.611 146.5131
73.000000 102.554 146.2539
74.000000 102.494 145.9871
75.000000 102.431 145.6851
76.199997 102.356 145.3114
77.500000 102.271 144.9305
78.800003 102.181 144.5721
80.000000 102.104 144.3053
81.199997 102.029 144.0583
82.500000 101.941 143.7263
83.800003 101.854 143.3810
85.000000 101.778 143.1165
86.199997 101.708 142.8914
87.500000 101.635 142.6364
88.500000 101.577 142.4092
90.000000 101.487 142.0823
91.199997 101.418 141.8637
92.500000 101.344 141.6170
93.800003 101.265 141.3923
95.000000 101.192 141.2168
96.199997 101.119 141.0328
97.500000 101.043 140.8189
98.800003 100.967 140.5896
100.000000 100.894 140.3942
101.500000 100.803 140.2136
103.000000 100.720 140.0605
104.400002 100.647 139.8904
106.000000 100.560 139.6473
107.500000 100.472 139.4058
109.000000 100.381 139.2165
110.599998 100.293 139.0541
112.000000 100.219 138.9001
113.800003 100.119 138.7099
115.000000 100.053 138.6016
117.199997 99.935 138.4233
118.000000 99.893 138.3450
120.599998 99.753 138.0314
122.000000 99.676 137.8967
124.099998 99.567 137.7318
125.000000 99.523 137.6588
126.500000 99.449 137.5487
128.000000 99.375 137.4579
131.500000 99.208 137.2573
132.000000 99.185 137.2336
134.000000 99.092 137.1480
136.000000 99.001 137.0798
138.000000 98.909 137.0170
140.000000 98.818 136.9488
143.000000 98.691 136.8239
145.000000 98.607 136.7402
147.500000 98.497 136.6968
150.000000 98.387 136.6464
152.500000 98.282 136.5512
155.000000 98.178 136.4608
157.500000 98.076 136.4155
160.000000 97.976 136.3766
162.500000 97.872 136.3613
165.000000 97.771 136.3774
167.500000 97.671 136.4065
170.000000 97.568 136.4516
172.500000 97.471 136.4960
175.000000 97.377 136.5119
177.500000 97.278 136.5416
180.000000 97.180 136.5811
182.500000 97.081 136.5902
185.000000 96.979 136.6174
187.500000 96.879 136.6670
190.000000 96.786 136.7214
192.500000 96.702 136.7780
195.000000 96.616 136.8681
197.500000 96.528 136.9769
200.000000 96.440 137.0480
203.000000 96.338 137.1153
206.000000 96.238 137.2269
209.000000 96.136 137.3464
212.000000 96.035 137.4631
214.000000 95.970 137.5421
218.000000 95.846 137.7194
220.000000 95.784 137.8177
224.000000 95.659 138.0235
227.000000 95.568 138.1714
230.000000 95.475 138.3196
233.000000 95.382 138.4927
236.000000 95.292 138.6828
240.000000 95.175 138.9232
243.000000 95.086 139.0984
247.000000 94.971 139.3392
250.000000 94.889 139.5295
254.000000 94.784 139.8138
258.000000 94.683 140.0872
262.000000 94.580 140.3392
265.000000 94.498 140.5330
269.000000 94.391 140.8162
272.000000 94.316 141.0515
276.000000 94.220 141.3807
280.000000 94.124 141.7076
285.000000 94.006 142.0943
290.000000 93.891 142.5033
295.000000 93.784 142.9427
300.000000 93.682 143.3577
304.000000 93.595 143.7044
307.000000 93.527 143.9913
311.000000 93.442 144.3712
315.000000 93.360 144.7248
320.000000 93.263 145.1754
325.000000 93.169 145.6638
330.000000 93.075 146.1824
335.000000 92.982 146.7194
340.000000 92.892 147.2484
345.000000 92.803 147.7745
350.000000 92.717 148.3194
355.000000 92.636 148.8756
360.000000 92.557 149.4556
365.000000 92.473 150.0498
370.000000 92.391 150.6519
375.000000 92.316 151.2312
382.000000 92.218 152.0398
387.000000 92.148 152.6439
395.000000 92.042 153.6289
400.000000 91.986 154.2584
406.000000 91.922 155.0173
412.000000 91.860 155.7894
418.000000 91.803 156.5875
425.000000 91.743 157.5421
431.000000 91.696 158.3362
437.000000 91.654 159.1135
444.000000 91.617 160.0111
450.000000 91.596 160.7682
455.000000 91.582 161.3772
462.000000 91.563 162.2285
468.000000 91.552 162.9688
475.000000 91.547 163.8324
482.000000 91.551 164.6334
487.000000 91.559 165.1691
494.000000 91.576 165.8975
500.000000 91.593 166.4974
508.000000 91.622 167.2768
515.000000 91.656 167.9178
522.000000 91.690 168.5099
530.000000 91.729 169.1521
538.000000 91.770 169.7185
545.000000 91.809 170.1164
552.000000 91.848 170.4708
560.000000 91.896 170.8595
570.000000 91.958 171.2885
580.000000 92.015 171.6437
590.000000 92.066 171.8947
600.000000 92.111 172.0547
608.000000 92.143 172.1165
615.000000 92.165 172.1123
622.000000 92.183 172.0347
630.000000 92.193 171.8396
640.000000 92.165 171.4592
650.000000 92.072 171.1184
660.000000 91.927 171.1899
670.000000 91.802 171.7926
680.000000 91.735 172.5467
690.000000 91.698 173.1918
700.000000 91.664 173.7119
710.000000 91.626 174.1920
720.000000 91.593 174.7058
730.000000 91.584 175.2411
740.000000 91.601 175.7205
750.000000 91.642 175.9867
762.000000 91.692 175.7272
775.000000 91.646 174.5767
788.000000 91.360 173.1782
800.000000 90.860 173.1293
812.000000 90.310 175.2901
825.000000 89.949 179.4598
838.000000 89.931 -176.2155
850.000000 90.103 -173.0034
862.000000 90.339 -170.6001
875.000000 90.600 -168.7277
885.000000 90.788 -167.6576
900.000000 91.038 -166.4259
912.000000 91.221 -165.6560
925.000000 91.405 -164.9488
938.000000 91.572 -164.3405
950.000000 91.714 -163.8442
962.000000 91.848 -163.3800
975.000000 91.984 -162.9496
988.000000 92.105 -162.6187
1000.000000 92.211 -162.3451
1015.000000 92.364 -161.9035
1030.000000 92.514 -161.4954
1044.000000 92.642 -161.1907
1060.000000 92.778 -160.9112
1075.000000 92.904 -160.7047
1090.000000 93.033 -160.5176
1106.000000 93.180 -160.3596
1120.000000 93.310 -160.2690
1138.000000 93.471 -160.1892
1150.000000 93.573 -160.1500
1172.000000 93.755 -160.1084
1180.000000 93.822 -160.1095
1206.000000 94.035 -160.1735
1220.000000 94.147 -160.2319
1241.000000 94.313 -160.3580
1250.000000 94.382 -160.4179
1265.000000 94.496 -160.5321
1280.000000 94.607 -160.6728
1315.000000 94.853 -161.0060
1320.000000 94.887 -161.0568
1340.000000 95.017 -161.2758
1360.000000 95.127 -161.5155
1380.000000 95.232 -161.7897
1400.000000 95.347 -162.0849
1430.000000 95.522 -162.5628
1450.000000 95.636 -162.8861
1475.000000 95.777 -163.3098
1500.000000 95.916 -163.7853
1525.000000 96.049 -164.2925
1550.000000 96.174 -164.8433
1575.000000 96.293 -165.4348
1600.000000 96.408 -166.0733
1625.000000 96.524 -166.7385
1650.000000 96.633 -167.4249
1675.000000 96.737 -168.1646
1700.000000 96.832 -168.9607
1725.000000 96.921 -169.8022
1750.000000 97.008 -170.6787
1775.000000 97.086 -171.5922
1800.000000 97.155 -172.5395
1825.000000 97.218 -173.5151
1850.000000 97.275 -174.5374
1875.000000 97.325 -175.6125
1900.000000 97.366 -176.7239
1925.000000 97.398 -177.8541
1950.000000 97.421 -179.0226
1975.000000 97.441 179.7319
2000.000000 97.449 178.4438
2030.000000 97.416 176.9952
2060.000000 97.369 175.5482
2090.000000 97.317 174.0325
2120.000000 97.254 172.4800
2140.000000 97.204 171.4342
2180.000000 97.083 169.3655
2200.000000 97.008 168.3360
2240.000000 96.834 166.2828
2270.000000 96.681 164.7611
2300.000000 96.509 163.2584
2330.000000 96.316 161.7685
2360.000000 96.095 160.3110
2400.000000 95.759 158.4612
2430.000000 95.484 157.1453
2470.000000 95.084 155.5229
2500.000000 94.758 154.4559
2540.000000 94.289 153.2695
2580.000000 93.787 152.3413
2620.000000 93.244 151.6736
2650.000000 92.806 151.3834
2690.000000 92.176 151.4172
2720.000000 91.670 151.8911
2760.000000 90.971 153.3013
2800.000000 90.291 155.7577
2850.000000 89.572 160.1667
2900.000000 89.106 165.4321
2950.000000 88.933 170.6382
3000.000000 88.979 174.9810
3040.000000 89.073 177.4521
3070.000000 89.144 178.7731
3110.000000 89.214 -179.9860
3150.000000 89.231 -179.1681
3200.000000 89.161 -178.4426
3250.000000 88.979 -177.7227
3300.000000 88.695 -176.7059
3350.000000 88.334 -175.0993
3400.000000 87.927 -172.6566
3450.000000 87.531 -169.1967
3500.000000 87.213 -164.6770
3550.000000 87.033 -159.3036
3600.000000 87.052 -153.4501
3650.000000 87.295 -147.6494
3700.000000 87.736 -142.4029
3750.000000 88.315 -138.0535
3820.000000 89.238 -133.6761
3870.000000 89.910 -131.7119
3950.000000 90.927 -130.2128
4000.000000 91.512 -130.0607
4060.000000 92.172 -130.5868
4120.000000 92.758 -131.7309
4180.000000 93.260 -133.3782
4250.000000 93.728 -135.8189
4310.000000 94.015 -138.1821
4370.000000 94.191 -140.6293
4440.000000 94.260 -143.3224
4500.000000 94.223 -145.2319
4550.000000 94.147 -146.3731
4620.000000 94.027 -147.2011
4680.000000 93.964 -147.3695
4750.000000 93.977 -147.3391
4820.000000 94.072 -147.4424
4870.000000 94.171 -147.7284
4940.000000 94.326 -148.4702
5000.000000 94.442 -149.4423
5080.000000 94.521 -151.2370
5150.000000 94.531 -152.9754
5220.000000 94.486 -154.6103
5300.000000 94.384 -156.0712
5380.000000 94.317 -157.1743
5450.000000 94.292 -158.5222
5520.000000 94.193 -160.2388
5600.000000 93.972 -161.9666
5700.000000 93.629 -163.4254
5800.000000 93.272 -164.2684
5900.000000 92.908 -164.6127
6000.000000 92.542 -164.4848
6080.000000 92.277 -163.9639
6150.000000 92.071 -163.2794
6220.000000 91.888 -162.4425
6300.000000 91.716 -161.3334
6400.000000 91.557 -159.7978
6500.000000 91.450 -158.1772
6600.000000 91.396 -156.5052
6700.000000 91.398 -154.7870
6800.000000 91.471 -153.0767
6900.000000 91.638 -151.4177
7000.000000 91.903 -149.8443
7100.000000 92.242 -148.4204
7200.000000 92.671 -147.2997
7300.000000 93.198 -146.6401
7400.000000 93.824 -146.6364
7500.000000 94.540 -147.5240
7620.000000 95.503 -150.2053
7750.000000 96.563 -155.8721
7880.000000 97.364 -165.1117
8000.000000 97.648 -176.5401
8120.000000 97.320 170.7955
8250.000000 96.264 158.2682
8380.000000 94.658 148.9405
8500.000000 92.900 143.6294
8620.000000 91.039 141.2449
8750.000000 89.017 141.4796
8850.000000 87.511 143.3243
9000.000000 85.400 148.2773
9120.000000 83.857 153.8435
9250.000000 82.326 161.3939
9380.000000 80.943 170.7054
9500.000000 79.866 -178.8813
9620.000000 79.130 -166.8750
9750.000000 78.906 -153.0214
9880.000000 79.319 -139.8634
10000.000000 80.121 -129.5275
10150.000000 81.413 -119.6436
10300.000000 82.823 -112.7951
10440.000000 84.189 -108.5957
10600.000000 85.824 -106.0273
10750.000000 87.440 -106.0228
10900.000000 89.065 -109.1732
11060.000000 90.531 -117.0515
11200.000000 91.285 -127.3952
11380.000000 91.318 -141.4366
11500.000000 90.894 -148.7079
11720.000000 89.926 -157.1391
11800.000000 89.624 -159.5211
12060.000000 88.616 -167.3688
12200.000000 87.889 -171.0095
12410.000000 86.600 -173.9515
12500.000000 86.044 -174.2493
12650.000000 85.179 -173.8732
12800.000000 84.391 -172.6152
13150.000000 83.006 -166.7030
13200.000000 82.873 -165.6622
13400.000000 82.496 -161.3622
13600.000000 82.364 -157.1032
13800.000000 82.470 -153.2731
14000.000000 82.797 -150.3020
14300.000000 83.583 -148.6062
14500.000000 84.154 -150.1326
14750.000000 84.653 -155.4468
15000.000000 84.607 -163.5446
15250.000000 83.874 -171.3806
15500.000000 82.680 -176.2481
15750.000000 81.422 -177.6406
16000.000000 80.403 -176.7128
16250.000000 79.826 -175.1408
16500.000000 79.841 -174.6724
16750.000000 80.523 -177.7648
17000.000000 81.595 171.8669
17250.000000 82.210 151.7459
17500.000000 81.545 126.7462
17750.000000 79.563 106.8029
18000.000000 76.980 95.7229
18250.000000 74.575 90.9833
18500.000000 72.627 89.6615
18750.000000 70.989 90.4006
19000.000000 69.417 93.3860
19250.000000 67.785 99.5491
19500.000000 66.175 108.9844
19750.000000 64.844 119.5608
