* Measurement data measured by REW V5.20.13
* Source: Headset (DS by VECLAN.COM), MICROPHONE (Master Volume), L, volume: 0.720. Timing signal peak level -25.9 dBFS, measurement signal peak level -16.4 dBFS
* Format: 2M Log Swept Sine, 1 sweep at -12.0 dBFS using an acoustic timing reference
* Dated: Feb 17, 2024 10:09:55 PM
* REW Settings:
*  C-weighting compensation: Off
*  Target level: 75.0 dB
* Note: Delay -0.0688 ms (-24 mm, -0.93 in) using estimated IR delay relative to Acoustic reference played from HEADPHONE R with no timing offset
* Measurement: Modded R
* Smoothing: 1/24 octave
* Frequency Step: 1/48 octave
* Start Frequency: 1.000 Hz
*
* Freq(Hz) SPL(dB) Phase(degrees)
1.000000 78.028 -29.9819
1.015000 78.313 -31.4191
1.030000 78.594 -32.8016
1.044000 78.851 -34.0370
1.060000 79.137 -35.3775
1.075000 79.398 -36.5586
1.090000 79.651 -37.6601
1.106000 79.911 -38.7424
1.120000 80.136 -39.6190
1.138000 80.425 -40.6580
1.150000 80.617 -41.2992
1.172000 80.968 -42.3764
1.180000 81.094 -42.7387
1.206000 81.502 -43.8196
1.220000 81.720 -44.3463
1.241000 82.042 -45.0736
1.250000 82.179 -45.3649
1.265000 82.404 -45.8268
1.280000 82.627 -46.2632
1.315000 83.135 -47.2076
1.320000 83.206 -47.3366
1.340000 83.486 -47.8439
1.360000 83.759 -48.3461
1.380000 84.025 -48.8536
1.400000 84.282 -49.3774
1.430000 84.652 -50.2167
1.450000 84.887 -50.8277
1.475000 85.167 -51.6604
1.500000 85.430 -52.5132
1.525000 85.678 -53.3687
1.550000 85.911 -54.2243
1.575000 86.130 -55.0777
1.600000 86.339 -55.9263
1.625000 86.536 -56.7678
1.650000 86.725 -57.5997
1.675000 86.906 -58.4195
1.700000 87.082 -59.2248
1.725000 87.252 -60.0132
1.750000 87.419 -60.7822
1.775000 87.583 -61.5294
1.800000 87.747 -62.2523
1.825000 87.912 -62.9484
1.850000 88.075 -63.6143
1.875000 88.232 -64.2477
1.900000 88.383 -64.8520
1.925000 88.527 -65.4309
1.950000 88.667 -65.9880
1.975000 88.802 -66.5268
2.000000 88.933 -67.0509
2.030000 89.086 -67.6655
2.060000 89.237 -68.2704
2.090000 89.385 -68.8716
2.120000 89.533 -69.4756
2.140000 89.631 -69.8827
2.180000 89.830 -70.7161
2.200000 89.930 -71.1460
2.240000 90.133 -72.0142
2.270000 90.283 -72.6657
2.300000 90.433 -73.3174
2.330000 90.581 -73.9688
2.360000 90.728 -74.6197
2.400000 90.921 -75.4862
2.430000 91.064 -76.1347
2.470000 91.250 -76.9970
2.500000 91.387 -77.6416
2.540000 91.564 -78.4975
2.580000 91.737 -79.3495
2.620000 91.904 -80.2022
2.650000 92.026 -80.8420
2.690000 92.185 -81.6938
2.720000 92.301 -82.3308
2.760000 92.453 -83.1760
2.800000 92.601 -84.0148
2.850000 92.781 -85.0514
2.900000 92.957 -86.0713
2.950000 93.129 -87.0705
3.000000 93.295 -88.0461
3.040000 93.424 -88.8125
3.070000 93.518 -89.3809
3.110000 93.641 -90.1325
3.150000 93.762 -90.8795
3.200000 93.907 -91.8111
3.250000 94.049 -92.7452
3.300000 94.187 -93.6875
3.350000 94.320 -94.6424
3.400000 94.448 -95.6059
3.450000 94.572 -96.5716
3.500000 94.691 -97.5329
3.550000 94.807 -98.4832
3.600000 94.918 -99.4159
3.650000 95.027 -100.3246
3.700000 95.131 -101.2051
3.750000 95.231 -102.0622
3.820000 95.365 -103.2310
3.870000 95.456 -104.0493
3.950000 95.596 -105.3417
4.000000 95.680 -106.1454
4.060000 95.778 -107.1118
4.120000 95.871 -108.0780
4.180000 95.960 -109.0382
4.250000 96.059 -110.1439
4.310000 96.140 -111.0732
4.370000 96.219 -111.9798
4.440000 96.307 -113.0032
4.500000 96.379 -113.8536
4.550000 96.436 -114.5465
4.620000 96.513 -115.4970
4.680000 96.577 -116.2980
4.750000 96.649 -117.2219
4.820000 96.718 -118.1363
4.870000 96.766 -118.7807
4.940000 96.830 -119.6697
5.000000 96.884 -120.4189
5.080000 96.952 -121.3986
5.150000 97.011 -122.2366
5.220000 97.067 -123.0547
5.300000 97.128 -123.9676
5.380000 97.187 -124.8613
5.450000 97.237 -125.6308
5.520000 97.285 -126.3913
5.600000 97.339 -127.2452
5.700000 97.403 -128.2906
5.800000 97.463 -129.3154
5.900000 97.521 -130.3235
6.000000 97.576 -131.3134
6.080000 97.618 -132.0918
6.150000 97.653 -132.7629
6.220000 97.687 -133.4248
6.300000 97.724 -134.1700
6.400000 97.767 -135.0844
6.500000 97.807 -135.9802
6.600000 97.844 -136.8575
6.700000 97.879 -137.7177
6.800000 97.911 -138.5597
6.900000 97.941 -139.3810
7.000000 97.969 -140.1792
7.100000 97.994 -140.9546
7.200000 98.018 -141.7086
7.300000 98.040 -142.4424
7.400000 98.061 -143.1563
7.500000 98.081 -143.8497
7.620000 98.103 -144.6559
7.750000 98.126 -145.4987
7.880000 98.147 -146.3074
8.000000 98.166 -147.0290
8.120000 98.186 -147.7315
8.250000 98.206 -148.4676
8.380000 98.227 -149.1832
8.500000 98.245 -149.8297
8.620000 98.263 -150.4602
8.750000 98.282 -151.1290
8.850000 98.296 -151.6354
9.000000 98.316 -152.3800
9.120000 98.332 -152.9636
9.250000 98.349 -153.5847
9.380000 98.366 -154.1937
9.500000 98.379 -154.7456
9.620000 98.388 -155.2882
9.750000 98.396 -155.8652
9.880000 98.397 -156.4296
10.000000 98.389 -156.9403
10.150000 98.371 -157.5635
10.300000 98.347 -158.1618
10.440000 98.315 -158.6960
10.600000 98.277 -159.2843
10.750000 98.242 -159.8159
10.900000 98.208 -160.3297
11.060000 98.173 -160.8717
11.200000 98.145 -161.3402
11.380000 98.109 -161.9313
11.500000 98.084 -162.3180
11.720000 98.041 -163.0117
11.800000 98.026 -163.2588
12.060000 97.978 -164.0439
12.200000 97.954 -164.4585
12.410000 97.919 -165.0672
12.500000 97.905 -165.3207
12.650000 97.880 -165.7338
12.800000 97.855 -166.1358
13.150000 97.798 -167.0300
13.200000 97.790 -167.1543
13.400000 97.762 -167.6415
13.600000 97.736 -168.1197
13.800000 97.713 -168.5902
14.000000 97.691 -169.0609
14.300000 97.660 -169.7688
14.500000 97.638 -170.2405
14.750000 97.611 -170.8242
15.000000 97.584 -171.3992
15.250000 97.559 -171.9640
15.500000 97.536 -172.5120
15.750000 97.513 -173.0400
16.000000 97.489 -173.5461
16.250000 97.467 -174.0363
16.500000 97.445 -174.5131
16.750000 97.425 -174.9785
17.000000 97.407 -175.4339
17.250000 97.391 -175.8797
17.500000 97.376 -176.3165
17.750000 97.361 -176.7440
18.000000 97.347 -177.1627
18.250000 97.332 -177.5737
18.500000 97.319 -177.9780
18.750000 97.306 -178.3767
19.000000 97.294 -178.7713
19.250000 97.282 -179.1639
19.500000 97.270 -179.5530
19.750000 97.257 -179.9372
20.000000 97.242 179.6874
20.299999 97.222 179.2531
20.600000 97.201 178.8401
20.900000 97.180 178.4496
21.200001 97.160 178.0778
21.400000 97.148 177.8346
21.799999 97.124 177.3465
22.000000 97.112 177.0962
22.400000 97.086 176.5800
22.700001 97.063 176.1915
23.000000 97.036 175.8211
23.299999 97.007 175.4839
23.600000 96.979 175.1834
24.000000 96.950 174.8253
24.299999 96.937 174.5591
24.700001 96.927 174.1639
25.000000 96.921 173.8196
25.400000 96.908 173.3044
25.799999 96.885 172.7692
26.200001 96.853 172.2657
26.500000 96.827 171.9246
26.900000 96.794 171.5139
27.200001 96.772 171.2232
27.600000 96.747 170.8377
28.000000 96.722 170.4452
28.500000 96.689 169.9561
29.000000 96.655 169.4867
29.500000 96.622 169.0356
30.000000 96.588 168.5897
30.400000 96.560 168.2354
30.700001 96.537 167.9740
31.100000 96.507 167.6347
31.500000 96.477 167.3048
32.000000 96.441 166.9000
32.500000 96.404 166.5003
33.000000 96.368 166.1082
33.500000 96.332 165.7254
34.000000 96.299 165.3471
34.500000 96.268 164.9667
35.000000 96.237 164.5838
35.500000 96.205 164.2045
36.000000 96.172 163.8340
36.500000 96.139 163.4732
37.000000 96.106 163.1210
37.500000 96.073 162.7767
38.200001 96.026 162.3054
38.700001 95.993 161.9722
39.500000 95.939 161.4424
40.000000 95.904 161.1171
40.599998 95.861 160.7356
41.200001 95.819 160.3645
41.799999 95.776 160.0063
42.500000 95.727 159.6099
43.099998 95.688 159.2832
43.700001 95.653 158.9510
44.400002 95.612 158.5431
45.000000 95.573 158.1877
45.500000 95.539 157.9042
46.200001 95.491 157.5341
46.799999 95.454 157.2263
47.500000 95.415 156.8504
48.200001 95.375 156.4427
48.700001 95.344 156.1354
49.400002 95.292 155.7101
50.000000 95.241 155.3950
50.799999 95.174 155.0911
51.500000 95.128 154.8861
52.200001 95.093 154.6510
53.000000 95.053 154.3160
53.799999 95.005 153.9623
54.500000 94.957 153.6714
55.200001 94.909 153.3965
56.000000 94.854 153.0851
57.000000 94.786 152.6846
58.000000 94.717 152.2643
59.000000 94.644 151.8472
60.000000 94.572 151.4986
60.799999 94.524 151.2418
61.500000 94.484 151.0020
62.200001 94.443 150.7609
63.000000 94.394 150.4979
64.000000 94.332 150.1743
65.000000 94.264 149.8687
66.000000 94.196 149.5858
67.000000 94.132 149.2872
68.000000 94.068 148.9586
69.000000 94.003 148.6234
70.000000 93.938 148.3080
71.000000 93.875 148.0400
72.000000 93.819 147.8269
73.000000 93.766 147.6159
74.000000 93.705 147.4089
75.000000 93.632 147.2442
76.199997 93.539 147.2079
77.500000 93.483 147.1105
78.800003 93.411 146.6255
80.000000 93.316 146.2401
81.199997 93.233 145.9402
82.500000 93.154 145.6071
83.800003 93.073 145.3062
85.000000 93.002 145.0895
86.199997 92.934 144.8624
87.500000 92.857 144.6258
88.500000 92.799 144.4451
90.000000 92.711 144.1584
91.199997 92.640 143.9514
92.500000 92.565 143.7556
93.800003 92.492 143.5853
95.000000 92.422 143.4465
96.199997 92.353 143.3427
97.500000 92.283 143.2103
98.800003 92.212 143.0529
100.000000 92.144 142.9193
101.500000 92.061 142.7787
103.000000 91.981 142.6510
104.400002 91.909 142.5235
106.000000 91.823 142.3595
107.500000 91.740 142.2327
109.000000 91.660 142.1079
110.599998 91.574 141.9726
112.000000 91.498 141.8625
113.800003 91.400 141.7418
115.000000 91.337 141.6784
117.199997 91.227 141.5494
118.000000 91.186 141.5002
120.599998 91.054 141.3883
122.000000 90.984 141.3575
124.099998 90.884 141.3102
125.000000 90.843 141.2741
126.500000 90.774 141.1887
128.000000 90.706 141.0958
131.500000 90.549 140.9468
132.000000 90.526 140.9399
134.000000 90.431 140.9388
136.000000 90.334 140.9207
138.000000 90.232 140.8715
140.000000 90.140 140.9068
143.000000 90.041 140.9158
145.000000 89.969 140.9005
147.500000 89.869 140.9259
150.000000 89.771 140.9726
152.500000 89.671 141.0044
155.000000 89.566 141.0546
157.500000 89.473 141.0977
160.000000 89.386 141.1225
162.500000 89.299 141.1857
165.000000 89.209 141.2766
167.500000 89.120 141.3250
170.000000 89.028 141.3729
172.500000 88.932 141.4725
175.000000 88.836 141.6020
177.500000 88.744 141.7151
180.000000 88.654 141.8070
182.500000 88.561 141.9341
185.000000 88.469 142.0933
187.500000 88.381 142.1992
190.000000 88.295 142.2653
192.500000 88.209 142.3752
195.000000 88.124 142.5521
197.500000 88.041 142.7377
200.000000 87.958 142.9185
203.000000 87.854 143.1659
206.000000 87.747 143.4249
209.000000 87.643 143.7083
212.000000 87.544 144.0788
214.000000 87.479 144.4023
218.000000 87.379 145.1758
220.000000 87.353 145.5566
224.000000 87.332 146.0198
227.000000 87.309 145.9719
230.000000 87.258 145.8068
233.000000 87.181 145.8320
236.000000 87.097 146.0153
240.000000 87.005 146.2203
243.000000 86.947 146.3845
247.000000 86.855 146.6790
250.000000 86.778 146.9004
254.000000 86.680 147.2406
258.000000 86.596 147.6056
262.000000 86.516 147.9216
265.000000 86.456 148.1604
269.000000 86.375 148.4767
272.000000 86.317 148.7058
276.000000 86.244 149.0075
280.000000 86.171 149.3091
285.000000 86.078 149.7124
290.000000 85.984 150.1223
295.000000 85.898 150.5327
300.000000 85.813 150.9623
304.000000 85.744 151.3030
307.000000 85.693 151.5649
311.000000 85.631 151.9326
315.000000 85.571 152.2983
320.000000 85.494 152.7355
325.000000 85.420 153.1942
330.000000 85.348 153.6624
335.000000 85.280 154.1252
340.000000 85.212 154.5872
345.000000 85.143 155.0499
350.000000 85.076 155.5179
355.000000 85.008 155.9860
360.000000 84.941 156.4556
365.000000 84.878 156.9251
370.000000 84.818 157.3934
375.000000 84.758 157.8717
382.000000 84.676 158.5365
387.000000 84.619 158.9993
395.000000 84.532 159.7420
400.000000 84.477 160.2105
406.000000 84.414 160.7804
412.000000 84.352 161.3442
418.000000 84.293 161.9052
425.000000 84.225 162.5674
431.000000 84.169 163.1382
437.000000 84.115 163.7084
444.000000 84.055 164.3745
450.000000 84.006 164.9394
455.000000 83.966 165.4047
462.000000 83.909 166.0583
468.000000 83.862 166.6275
475.000000 83.812 167.2948
482.000000 83.765 167.9608
487.000000 83.732 168.4297
494.000000 83.689 169.0719
500.000000 83.654 169.6256
508.000000 83.610 170.3694
515.000000 83.572 171.0173
522.000000 83.535 171.6663
530.000000 83.495 172.4101
538.000000 83.460 173.1485
545.000000 83.433 173.7840
552.000000 83.406 174.4120
560.000000 83.377 175.1239
570.000000 83.345 176.0129
580.000000 83.317 176.9028
590.000000 83.287 177.7916
600.000000 83.259 178.6729
608.000000 83.239 179.3663
615.000000 83.221 179.9654
622.000000 83.205 -179.4444
630.000000 83.187 -178.7883
640.000000 83.166 -178.0096
650.000000 83.143 -177.2780
660.000000 83.114 -176.6107
670.000000 83.066 -175.9797
680.000000 82.992 -175.2849
690.000000 82.896 -174.3420
700.000000 82.814 -173.0491
710.000000 82.784 -171.5855
720.000000 82.800 -170.2194
730.000000 82.836 -169.0362
740.000000 82.875 -167.9915
750.000000 82.911 -167.0293
762.000000 82.949 -165.9299
775.000000 82.987 -164.7820
788.000000 83.023 -163.6518
800.000000 83.058 -162.6136
812.000000 83.096 -161.5936
825.000000 83.140 -160.5007
838.000000 83.187 -159.4200
850.000000 83.234 -158.4420
862.000000 83.284 -157.4767
875.000000 83.342 -156.4448
885.000000 83.388 -155.6666
900.000000 83.463 -154.5263
912.000000 83.526 -153.6393
925.000000 83.597 -152.7081
938.000000 83.672 -151.8083
950.000000 83.744 -151.0034
962.000000 83.817 -150.2214
975.000000 83.897 -149.4034
988.000000 83.977 -148.6216
1000.000000 84.054 -147.9298
1015.000000 84.152 -147.1039
1030.000000 84.250 -146.3233
1044.000000 84.343 -145.6317
1060.000000 84.449 -144.8873
1075.000000 84.549 -144.2312
1090.000000 84.655 -143.6118
1106.000000 84.775 -142.9928
1120.000000 84.883 -142.4841
1138.000000 85.019 -141.8711
1150.000000 85.108 -141.4906
1172.000000 85.268 -140.8410
1180.000000 85.325 -140.6155
1206.000000 85.508 -139.9281
1220.000000 85.607 -139.5834
1241.000000 85.757 -139.0952
1250.000000 85.821 -138.8975
1265.000000 85.924 -138.5820
1280.000000 86.025 -138.2790
1315.000000 86.252 -137.6130
1320.000000 86.283 -137.5223
1340.000000 86.398 -137.1717
1360.000000 86.494 -136.8421
1380.000000 86.586 -136.5293
1400.000000 86.690 -136.2263
1430.000000 86.851 -135.8005
1450.000000 86.956 -135.5346
1475.000000 87.083 -135.2253
1500.000000 87.207 -134.9343
1525.000000 87.327 -134.6640
1550.000000 87.439 -134.4134
1575.000000 87.547 -134.1826
1600.000000 87.651 -133.9720
1625.000000 87.752 -133.7807
1650.000000 87.851 -133.6147
1675.000000 87.946 -133.4668
1700.000000 88.037 -133.3329
1725.000000 88.123 -133.2200
1750.000000 88.205 -133.1219
1775.000000 88.283 -133.0399
1800.000000 88.358 -132.9775
1825.000000 88.430 -132.9283
1850.000000 88.497 -132.8906
1875.000000 88.561 -132.8638
1900.000000 88.620 -132.8421
1925.000000 88.674 -132.8269
1950.000000 88.723 -132.8152
1975.000000 88.769 -132.8009
2000.000000 88.811 -132.7847
2030.000000 88.860 -132.7647
2060.000000 88.906 -132.7444
2090.000000 88.950 -132.7383
2120.000000 88.989 -132.7567
2140.000000 89.013 -132.7803
2180.000000 89.050 -132.8433
2200.000000 89.062 -132.8758
2240.000000 89.073 -132.9243
2270.000000 89.074 -132.9404
2300.000000 89.069 -132.9341
2330.000000 89.060 -132.9049
2360.000000 89.045 -132.8527
2400.000000 89.020 -132.7427
2430.000000 88.998 -132.6299
2470.000000 88.964 -132.4423
2500.000000 88.936 -132.2699
2540.000000 88.896 -131.9991
2580.000000 88.854 -131.6824
2620.000000 88.808 -131.3159
2650.000000 88.773 -131.0101
2690.000000 88.726 -130.5636
2720.000000 88.691 -130.2006
2760.000000 88.644 -129.6858
2800.000000 88.598 -129.1452
2850.000000 88.544 -128.4400
2900.000000 88.490 -127.7107
2950.000000 88.438 -126.9435
3000.000000 88.387 -126.1376
3040.000000 88.348 -125.4665
3070.000000 88.319 -124.9476
3110.000000 88.283 -124.2385
3150.000000 88.249 -123.5107
3200.000000 88.211 -122.5726
3250.000000 88.176 -121.6015
3300.000000 88.144 -120.6033
3350.000000 88.119 -119.5749
3400.000000 88.103 -118.5166
3450.000000 88.101 -117.4356
3500.000000 88.116 -116.3535
3550.000000 88.145 -115.3027
3600.000000 88.182 -114.3059
3650.000000 88.224 -113.3664
3700.000000 88.267 -112.4755
3750.000000 88.312 -111.6180
3820.000000 88.377 -110.4543
3870.000000 88.426 -109.6515
3950.000000 88.514 -108.4649
4000.000000 88.574 -107.8186
4060.000000 88.650 -107.1703
4120.000000 88.722 -106.6660
4180.000000 88.784 -106.2882
4250.000000 88.838 -105.9777
4310.000000 88.862 -105.7926
4370.000000 88.863 -105.6570
4440.000000 88.837 -105.5424
4500.000000 88.795 -105.4622
4550.000000 88.748 -105.3925
4620.000000 88.664 -105.2716
4680.000000 88.578 -105.1324
4750.000000 88.465 -104.9257
4820.000000 88.342 -104.6895
4870.000000 88.246 -104.5152
4940.000000 88.097 -104.2644
5000.000000 87.950 -104.0185
5080.000000 87.728 -103.5631
5150.000000 87.515 -102.9743
5220.000000 87.300 -102.1912
5300.000000 87.065 -101.1139
5380.000000 86.850 -99.9695
5450.000000 86.669 -99.0030
5520.000000 86.483 -98.0717
5600.000000 86.251 -96.9834
5700.000000 85.923 -95.4665
5800.000000 85.559 -93.5316
5900.000000 85.205 -91.0664
6000.000000 84.894 -88.2269
6080.000000 84.683 -85.8302
6150.000000 84.519 -83.6901
6220.000000 84.369 -81.5004
6300.000000 84.213 -78.9032
6400.000000 84.050 -75.4969
6500.000000 83.934 -71.9543
6600.000000 83.871 -68.3459
6700.000000 83.863 -64.7349
6800.000000 83.918 -61.1680
6900.000000 84.052 -57.6970
7000.000000 84.269 -54.3811
7100.000000 84.555 -51.2945
7200.000000 84.906 -48.5299
7300.000000 85.317 -46.1971
7400.000000 85.782 -44.4193
7500.000000 86.294 -43.3370
7620.000000 86.962 -43.1898
7750.000000 87.676 -44.7659
7880.000000 88.188 -48.3415
8000.000000 88.386 -53.2061
8120.000000 88.259 -58.8806
8250.000000 87.728 -64.7871
8380.000000 86.852 -69.3451
8500.000000 85.837 -71.8426
8620.000000 84.721 -72.6517
8750.000000 83.481 -71.8477
8850.000000 82.545 -70.2468
9000.000000 81.214 -66.5962
9120.000000 80.231 -62.8451
9250.000000 79.251 -58.1592
9380.000000 78.356 -52.9818
9500.000000 77.600 -47.8679
9620.000000 76.909 -42.4970
9750.000000 76.231 -36.4414
9880.000000 75.624 -30.1793
10000.000000 75.119 -24.2379
10150.000000 74.553 -16.6207
10300.000000 74.055 -8.8095
10440.000000 73.646 -1.3514
10600.000000 73.240 7.3894
10750.000000 72.920 15.8650
10900.000000 72.669 24.7060
11060.000000 72.494 34.6831
11200.000000 72.453 44.0021
11380.000000 72.667 56.8570
11500.000000 73.080 65.7229
11720.000000 74.529 80.6728
11800.000000 75.225 85.0035
12060.000000 77.502 93.2801
12200.000000 78.513 94.8069
12410.000000 79.708 95.5543
12500.000000 80.146 95.6755
12650.000000 80.832 95.6653
12800.000000 81.484 95.1786
13150.000000 82.732 90.9740
13200.000000 82.852 90.0161
13400.000000 83.131 85.7139
13600.000000 83.079 81.5332
13800.000000 82.782 78.4934
14000.000000 82.385 77.0121
14300.000000 81.909 77.0978
14500.000000 81.809 77.6065
14750.000000 81.957 77.0761
15000.000000 82.259 73.3749
15250.000000 82.317 65.2481
15500.000000 81.699 54.3708
15750.000000 80.273 44.9991
16000.000000 78.290 40.0782
16250.000000 76.168 39.4348
16500.000000 74.208 41.3864
16750.000000 72.517 44.2330
17000.000000 71.057 46.6901
17250.000000 69.702 47.9327
17500.000000 68.278 47.7820
17750.000000 66.612 46.9073
18000.000000 64.604 46.6014
18250.000000 62.268 48.1177
18500.000000 59.709 52.0802
18750.000000 57.056 58.3911
19000.000000 54.413 66.6454
19250.000000 51.834 76.4738
19500.000000 49.308 87.7855
19750.000000 46.822 100.2972
20000.000000 44.362 113.5181
20300.000000 41.482 128.7927
20600.000000 38.930 121.5204
20900.000000 36.598 -130.6603
21200.000000 34.374 -83.5723
21400.000000 33.347 156.7637
21800.000000 33.804 -100.9141
22000.000000 34.167 26.3008
22400.000000 33.312 130.7305
22700.000000 32.502 114.3047
23000.000000 32.015 -151.6562
23300.000000 31.683 -168.8125
23600.000000 31.506 117.0859
24000.000000 31.307 -162.9688
