* Measurement data measured by REW V5.20.13
* Source: Microphone (High Definition Audio Device), MICROPHONE (Master Volume), L, volume: 1.000. Timing signal peak level -20.3 dBFS, measurement signal peak level -12.2 dBFS
* Format: 512k Log Swept Sine, 1 sweep at -12.0 dBFS using an acoustic timing reference
* Dated: Dec 11, 2022 8:20:33 PM
* REW Settings:
*  C-weighting compensation: Off
*  Target level: 75.0 dB
* Note: ; Delay -0.0231 ms (-7.9 mm, -0.31 in) using estimated IR delay relative to Acoustic reference played from HEADPHONE R with no timing offset Clock adjustment: 119.8 ppm
* Measurement: BL03 R
* Smoothing: 1/24 octave
* Frequency Step: 1/48 octave
* Start Frequency: 1.000 Hz
*
* Freq(Hz) SPL(dB) Phase(degrees)
1.000000 84.533 13.1302
1.015000 84.554 10.0146
1.030000 84.583 7.0171
1.044000 84.618 4.3390
1.060000 84.667 1.4356
1.075000 84.723 -1.1187
1.090000 84.788 -3.4954
1.106000 84.871 -5.8269
1.120000 84.955 -7.7360
1.138000 85.081 -10.0328
1.150000 85.174 -11.4705
1.172000 85.364 -13.9244
1.180000 85.438 -14.7616
1.206000 85.697 -17.2958
1.220000 85.847 -18.5507
1.241000 86.082 -20.3036
1.250000 86.186 -21.0111
1.265000 86.364 -22.1373
1.280000 86.545 -23.2028
1.315000 86.979 -25.4900
1.320000 87.041 -25.7976
1.340000 87.291 -26.9895
1.360000 87.540 -28.1318
1.380000 87.785 -29.2401
1.400000 88.025 -30.3298
1.430000 88.367 -31.9634
1.450000 88.581 -33.0746
1.475000 88.831 -34.4974
1.500000 89.076 -35.8189
1.525000 89.320 -37.0158
1.550000 89.561 -38.1025
1.575000 89.801 -39.0935
1.600000 90.037 -40.0035
1.625000 90.271 -40.8470
1.650000 90.502 -41.6385
1.675000 90.728 -42.3925
1.700000 90.951 -43.1237
1.725000 91.169 -43.8465
1.750000 91.382 -44.5756
1.775000 91.590 -45.3254
1.800000 91.792 -46.1105
1.825000 91.988 -46.9455
1.850000 92.177 -47.8271
1.875000 92.362 -48.7189
1.900000 92.540 -49.6163
1.925000 92.714 -50.5166
1.950000 92.883 -51.4170
1.975000 93.047 -52.3146
2.000000 93.207 -53.2066
2.030000 93.393 -54.2658
2.060000 93.573 -55.3080
2.090000 93.748 -56.3285
2.120000 93.917 -57.3223
2.140000 94.028 -57.9677
2.180000 94.244 -59.2108
2.200000 94.349 -59.8057
2.240000 94.549 -60.9471
2.270000 94.690 -61.7661
2.300000 94.824 -62.5564
2.330000 94.953 -63.3207
2.360000 95.076 -64.0618
2.400000 95.235 -65.0185
2.430000 95.351 -65.7159
2.470000 95.504 -66.6243
2.500000 95.618 -67.2930
2.540000 95.770 -68.1729
2.580000 95.926 -69.0423
2.620000 96.080 -69.8795
2.650000 96.194 -70.4855
2.690000 96.344 -71.2691
2.720000 96.455 -71.8416
2.760000 96.601 -72.5893
2.800000 96.745 -73.3245
2.850000 96.923 -74.2347
2.900000 97.098 -75.1457
2.950000 97.271 -76.0659
3.000000 97.442 -76.9780
3.040000 97.577 -77.6994
3.070000 97.677 -78.2364
3.110000 97.809 -78.9482
3.150000 97.939 -79.6561
3.200000 98.097 -80.5375
3.250000 98.252 -81.4173
3.300000 98.401 -82.2980
3.350000 98.546 -83.1821
3.400000 98.685 -84.0677
3.450000 98.821 -84.9517
3.500000 98.952 -85.8307
3.550000 99.080 -86.7016
3.600000 99.206 -87.5609
3.650000 99.328 -88.4055
3.700000 99.447 -89.2337
3.750000 99.563 -90.0486
3.820000 99.720 -91.1701
3.870000 99.828 -91.9591
3.950000 99.996 -93.2044
4.000000 100.098 -93.9742
4.060000 100.217 -94.8911
4.120000 100.333 -95.7995
4.180000 100.445 -96.6978
4.250000 100.572 -97.7313
4.310000 100.677 -98.6030
4.370000 100.779 -99.4604
4.440000 100.895 -100.4409
4.500000 100.990 -101.2652
4.550000 101.067 -101.9414
4.620000 101.171 -102.8732
4.680000 101.259 -103.6590
4.750000 101.360 -104.5625
4.820000 101.459 -105.4489
4.870000 101.528 -106.0692
4.940000 101.623 -106.9240
5.000000 101.703 -107.6478
5.080000 101.806 -108.6064
5.150000 101.895 -109.4452
5.220000 101.982 -110.2836
5.300000 102.079 -111.2366
5.380000 102.172 -112.1787
5.450000 102.250 -112.9899
5.520000 102.324 -113.7859
5.600000 102.403 -114.6836
5.700000 102.495 -115.7844
5.800000 102.584 -116.8527
5.900000 102.670 -117.8785
6.000000 102.753 -118.8570
6.080000 102.818 -119.6153
6.150000 102.873 -120.2682
6.220000 102.928 -120.9174
6.300000 102.992 -121.6547
6.400000 103.071 -122.5619
6.500000 103.147 -123.4544
6.600000 103.220 -124.3340
6.700000 103.289 -125.2039
6.800000 103.354 -126.0613
6.900000 103.417 -126.9000
7.000000 103.479 -127.7141
7.100000 103.537 -128.5024
7.200000 103.594 -129.2713
7.300000 103.650 -130.0282
7.400000 103.706 -130.7762
7.500000 103.761 -131.5114
7.620000 103.826 -132.3800
7.750000 103.892 -133.3097
7.880000 103.954 -134.2288
8.000000 104.009 -135.0601
8.120000 104.060 -135.8693
8.250000 104.110 -136.7249
8.380000 104.158 -137.5528
8.500000 104.200 -138.2866
8.620000 104.240 -138.9926
8.750000 104.282 -139.7312
8.850000 104.314 -140.2824
9.000000 104.362 -141.0771
9.120000 104.400 -141.6963
9.250000 104.443 -142.3579
9.380000 104.487 -143.0056
9.500000 104.524 -143.5981
9.620000 104.560 -144.1906
9.750000 104.595 -144.8289
9.880000 104.623 -145.4595
10.000000 104.639 -146.0354
10.150000 104.648 -146.7453
10.300000 104.649 -147.4315
10.440000 104.639 -148.0490
10.600000 104.624 -148.7326
10.750000 104.610 -149.3525
10.900000 104.597 -149.9533
11.060000 104.584 -150.5818
11.200000 104.574 -151.1211
11.380000 104.561 -151.7960
11.500000 104.552 -152.2339
11.720000 104.538 -153.0114
11.800000 104.533 -153.2854
12.060000 104.521 -154.1460
12.200000 104.516 -154.5930
12.410000 104.512 -155.2435
12.500000 104.510 -155.5174
12.650000 104.506 -155.9650
12.800000 104.502 -156.4097
13.150000 104.488 -157.4559
13.200000 104.485 -157.6062
13.400000 104.476 -158.2129
13.600000 104.467 -158.8125
13.800000 104.458 -159.4000
14.000000 104.449 -159.9667
14.300000 104.433 -160.7755
14.500000 104.421 -161.2872
14.750000 104.406 -161.9126
15.000000 104.394 -162.5306
15.250000 104.387 -163.1580
15.500000 104.383 -163.7825
15.750000 104.381 -164.3961
16.000000 104.377 -164.9833
16.250000 104.371 -165.5456
16.500000 104.365 -166.0861
16.750000 104.359 -166.6122
17.000000 104.353 -167.1329
17.250000 104.349 -167.6501
17.500000 104.346 -168.1646
17.750000 104.343 -168.6709
18.000000 104.341 -169.1679
18.250000 104.338 -169.6549
18.500000 104.335 -170.1366
18.750000 104.331 -170.6167
19.000000 104.326 -171.0984
19.250000 104.320 -171.5803
19.500000 104.313 -172.0520
19.750000 104.306 -172.5057
20.000000 104.300 -172.9296
20.299999 104.293 -173.4045
20.600000 104.288 -173.8528
20.900000 104.284 -174.2891
21.200001 104.280 -174.7235
21.400000 104.276 -175.0130
21.799999 104.266 -175.5944
22.000000 104.259 -175.8872
22.400000 104.243 -176.4758
22.700001 104.231 -176.9105
23.000000 104.220 -177.3310
23.299999 104.212 -177.7401
23.600000 104.205 -178.1463
24.000000 104.195 -178.6968
24.299999 104.188 -179.1170
24.700001 104.174 -179.6698
25.000000 104.161 179.9384
25.400000 104.139 179.4534
25.799999 104.117 178.9835
26.200001 104.099 178.4886
26.500000 104.088 178.0980
26.900000 104.074 177.5757
27.200001 104.062 177.2033
27.600000 104.045 176.7452
28.000000 104.028 176.3287
28.500000 104.007 175.8465
29.000000 103.987 175.3622
29.500000 103.968 174.8450
30.000000 103.945 174.3147
30.400000 103.924 173.9045
30.700001 103.907 173.6082
31.100000 103.883 173.2231
31.500000 103.858 172.8477
32.000000 103.826 172.4023
32.500000 103.793 171.9837
33.000000 103.761 171.5591
33.500000 103.732 171.1129
34.000000 103.701 170.6777
34.500000 103.665 170.2755
35.000000 103.632 169.8828
35.500000 103.606 169.4719
36.000000 103.586 169.0459
36.500000 103.566 168.6177
37.000000 103.544 168.1837
37.500000 103.519 167.7403
38.200001 103.472 167.1581
38.700001 103.433 166.8052
39.500000 103.381 166.2893
40.000000 103.355 165.9337
40.599998 103.322 165.4656
41.200001 103.287 165.0366
41.799999 103.253 164.6764
42.500000 103.217 164.2482
43.099998 103.184 163.8405
43.700001 103.151 163.4387
44.400002 103.116 163.0095
45.000000 103.086 162.6543
45.500000 103.058 162.3496
46.200001 103.018 161.9232
46.799999 102.986 161.5681
47.500000 102.950 161.1501
48.200001 102.908 160.7290
48.700001 102.875 160.4358
49.400002 102.830 160.0398
50.000000 102.796 159.7064
50.799999 102.753 159.2526
51.500000 102.712 158.8483
52.200001 102.667 158.4747
53.000000 102.620 158.0850
53.799999 102.576 157.6788
54.500000 102.532 157.3299
55.200001 102.480 157.0172
56.000000 102.424 156.6829
57.000000 102.363 156.2672
58.000000 102.308 155.8122
59.000000 102.235 155.3212
60.000000 102.156 154.9986
60.799999 102.116 154.7834
61.500000 102.087 154.5049
62.200001 102.051 154.1666
63.000000 102.001 153.7961
64.000000 101.937 153.4008
65.000000 101.878 153.0775
66.000000 101.824 152.7760
67.000000 101.767 152.4272
68.000000 101.707 152.0453
69.000000 101.643 151.6598
70.000000 101.571 151.2901
71.000000 101.493 150.9522
72.000000 101.431 150.6487
73.000000 101.378 150.3731
74.000000 101.322 150.1003
75.000000 101.265 149.7971
76.199997 101.196 149.4265
77.500000 101.117 149.0681
78.800003 101.034 148.7188
80.000000 100.963 148.4429
81.199997 100.892 148.1763
82.500000 100.809 147.8280
83.800003 100.728 147.4710
85.000000 100.658 147.2033
86.199997 100.593 146.9711
87.500000 100.524 146.7178
88.500000 100.469 146.5042
90.000000 100.386 146.1949
91.199997 100.324 145.9704
92.500000 100.255 145.7119
93.800003 100.181 145.4846
95.000000 100.111 145.3153
96.199997 100.045 145.1324
97.500000 99.975 144.9029
98.800003 99.902 144.6521
100.000000 99.832 144.4395
101.500000 99.745 144.2533
103.000000 99.667 144.0977
104.400002 99.598 143.9205
106.000000 99.513 143.6758
107.500000 99.428 143.4518
109.000000 99.344 143.2671
110.599998 99.262 143.1002
112.000000 99.193 142.9552
113.800003 99.098 142.7820
115.000000 99.034 142.6779
117.199997 98.913 142.4811
118.000000 98.869 142.3969
120.599998 98.730 142.0995
122.000000 98.662 141.9738
124.099998 98.568 141.8168
125.000000 98.530 141.7508
126.500000 98.465 141.6501
128.000000 98.396 141.5523
131.500000 98.230 141.3246
132.000000 98.207 141.3044
134.000000 98.118 141.2548
136.000000 98.035 141.2031
138.000000 97.950 141.1264
140.000000 97.862 141.0419
143.000000 97.740 140.8983
145.000000 97.659 140.8252
147.500000 97.557 140.8002
150.000000 97.453 140.7479
152.500000 97.353 140.6761
155.000000 97.255 140.6198
157.500000 97.156 140.6041
160.000000 97.061 140.5920
162.500000 96.964 140.5723
165.000000 96.869 140.5800
167.500000 96.774 140.6189
170.000000 96.676 140.6876
172.500000 96.582 140.7393
175.000000 96.488 140.7469
177.500000 96.395 140.7630
180.000000 96.303 140.7909
182.500000 96.210 140.8258
185.000000 96.113 140.8914
187.500000 96.015 140.9618
190.000000 95.926 141.0245
192.500000 95.844 141.1055
195.000000 95.763 141.2232
197.500000 95.681 141.3375
200.000000 95.596 141.4138
203.000000 95.498 141.5052
206.000000 95.402 141.6273
209.000000 95.307 141.7684
212.000000 95.214 141.9108
214.000000 95.151 141.9992
218.000000 95.033 142.1823
220.000000 94.976 142.2872
224.000000 94.860 142.5275
227.000000 94.774 142.6863
230.000000 94.683 142.8492
233.000000 94.595 143.0657
236.000000 94.513 143.2773
240.000000 94.405 143.5060
243.000000 94.320 143.6882
247.000000 94.207 143.9604
250.000000 94.126 144.1699
254.000000 94.027 144.4716
258.000000 93.931 144.7618
262.000000 93.833 145.0574
265.000000 93.759 145.2965
269.000000 93.663 145.6324
272.000000 93.593 145.8906
276.000000 93.503 146.2234
280.000000 93.417 146.5540
285.000000 93.307 146.9768
290.000000 93.198 147.4378
295.000000 93.103 147.9041
300.000000 93.011 148.3198
304.000000 92.933 148.6914
307.000000 92.874 148.9949
311.000000 92.801 149.4016
315.000000 92.732 149.7786
320.000000 92.647 150.2282
325.000000 92.563 150.7150
330.000000 92.479 151.2362
335.000000 92.397 151.7561
340.000000 92.318 152.2727
345.000000 92.238 152.7726
350.000000 92.159 153.2740
355.000000 92.086 153.7974
360.000000 92.020 154.3316
365.000000 91.946 154.8671
370.000000 91.874 155.4019
375.000000 91.807 155.9409
382.000000 91.714 156.7319
387.000000 91.649 157.3017
395.000000 91.553 158.1673
400.000000 91.500 158.7310
406.000000 91.439 159.4440
412.000000 91.380 160.1557
418.000000 91.321 160.8541
425.000000 91.257 161.6682
431.000000 91.208 162.3568
437.000000 91.167 163.0532
444.000000 91.122 163.8766
450.000000 91.087 164.5629
455.000000 91.059 165.1071
462.000000 91.022 165.8822
468.000000 90.998 166.5689
475.000000 90.978 167.3411
482.000000 90.957 168.0718
487.000000 90.946 168.5869
494.000000 90.939 169.2848
500.000000 90.934 169.8734
508.000000 90.929 170.6649
515.000000 90.928 171.3351
522.000000 90.931 171.9621
530.000000 90.936 172.6511
538.000000 90.941 173.2964
545.000000 90.952 173.8243
552.000000 90.968 174.3252
560.000000 90.984 174.8737
570.000000 90.997 175.5201
580.000000 91.009 176.1229
590.000000 91.020 176.6831
600.000000 91.029 177.2117
608.000000 91.031 177.5915
615.000000 91.029 177.8820
622.000000 91.025 178.1380
630.000000 91.015 178.4014
640.000000 90.992 178.7037
650.000000 90.958 178.9793
660.000000 90.908 179.1911
670.000000 90.840 179.3380
680.000000 90.731 179.4567
690.000000 90.560 179.7179
700.000000 90.333 -179.5619
710.000000 90.101 -178.1799
720.000000 89.932 -176.2879
730.000000 89.848 -174.2127
740.000000 89.821 -172.1336
750.000000 89.836 -170.0675
762.000000 89.915 -167.6551
775.000000 90.068 -165.2907
788.000000 90.265 -163.3226
800.000000 90.468 -161.8473
812.000000 90.669 -160.6845
825.000000 90.880 -159.7238
838.000000 91.081 -158.9765
850.000000 91.244 -158.3803
862.000000 91.388 -157.8221
875.000000 91.534 -157.2670
885.000000 91.639 -156.8651
900.000000 91.787 -156.3037
912.000000 91.896 -155.8805
925.000000 92.012 -155.4193
938.000000 92.128 -154.9761
950.000000 92.235 -154.5732
962.000000 92.339 -154.1648
975.000000 92.445 -153.7601
988.000000 92.538 -153.4180
1000.000000 92.626 -153.1188
1015.000000 92.766 -152.6663
1030.000000 92.907 -152.2567
1044.000000 93.025 -151.8905
1060.000000 93.154 -151.5075
1075.000000 93.274 -151.2312
1090.000000 93.401 -150.9896
1106.000000 93.546 -150.7490
1120.000000 93.677 -150.5596
1138.000000 93.845 -150.3531
1150.000000 93.953 -150.2437
1172.000000 94.147 -150.0778
1180.000000 94.216 -150.0299
1206.000000 94.442 -149.9207
1220.000000 94.563 -149.8767
1241.000000 94.747 -149.8330
1250.000000 94.826 -149.8276
1265.000000 94.957 -149.8440
1280.000000 95.085 -149.8766
1315.000000 95.373 -149.9077
1320.000000 95.414 -149.9206
1340.000000 95.571 -149.9991
1360.000000 95.707 -150.0945
1380.000000 95.842 -150.2234
1400.000000 95.993 -150.3724
1430.000000 96.224 -150.6120
1450.000000 96.376 -150.7950
1475.000000 96.568 -151.0867
1500.000000 96.763 -151.4217
1525.000000 96.954 -151.7850
1550.000000 97.140 -152.2201
1575.000000 97.325 -152.7014
1600.000000 97.510 -153.2411
1625.000000 97.696 -153.8485
1650.000000 97.879 -154.5054
1675.000000 98.060 -155.2408
1700.000000 98.236 -156.0641
1725.000000 98.410 -156.9629
1750.000000 98.582 -157.9299
1775.000000 98.748 -158.9713
1800.000000 98.907 -160.0886
1825.000000 99.060 -161.2877
1850.000000 99.208 -162.5877
1875.000000 99.349 -163.9878
1900.000000 99.477 -165.4765
1925.000000 99.590 -167.0457
1950.000000 99.693 -168.7147
1975.000000 99.787 -170.5160
2000.000000 99.865 -172.4067
2030.000000 99.902 -174.6228
2060.000000 99.911 -176.8863
2090.000000 99.903 -179.2713
2120.000000 99.869 178.2782
2140.000000 99.830 176.6306
2180.000000 99.710 173.3765
2200.000000 99.626 171.7689
2240.000000 99.416 168.5977
2270.000000 99.222 166.2918
2300.000000 98.998 164.0615
2330.000000 98.743 161.9157
2360.000000 98.455 159.8920
2400.000000 98.026 157.4356
2430.000000 97.684 155.7689
2470.000000 97.209 153.7602
2500.000000 96.838 152.3752
2540.000000 96.315 150.6340
2580.000000 95.740 149.0391
2620.000000 95.093 147.7486
2650.000000 94.560 147.1188
2690.000000 93.798 146.8950
2720.000000 93.199 147.2959
2760.000000 92.384 148.7161
2800.000000 91.600 151.2133
2850.000000 90.766 155.7092
2900.000000 90.197 161.0591
2950.000000 89.923 166.3628
3000.000000 89.871 170.8351
3040.000000 89.894 173.4321
3070.000000 89.916 174.8737
3110.000000 89.923 176.2867
3150.000000 89.881 177.2851
3200.000000 89.737 178.2513
3250.000000 89.486 179.2224
3300.000000 89.137 -179.4765
3350.000000 88.714 -177.5601
3400.000000 88.251 -174.8083
3450.000000 87.797 -171.0298
3500.000000 87.416 -166.2035
3550.000000 87.178 -160.4910
3600.000000 87.143 -154.2569
3650.000000 87.333 -148.0351
3700.000000 87.723 -142.3084
3750.000000 88.257 -137.4144
3820.000000 89.134 -132.2039
3870.000000 89.792 -129.6060
3950.000000 90.824 -127.1043
4000.000000 91.434 -126.4430
4060.000000 92.116 -126.5190
4120.000000 92.708 -127.3040
4180.000000 93.198 -128.5447
4250.000000 93.643 -130.3249
4310.000000 93.905 -131.9177
4370.000000 94.061 -133.3227
4440.000000 94.152 -134.3792
4500.000000 94.215 -134.6341
4550.000000 94.303 -134.4401
4620.000000 94.528 -133.9173
4680.000000 94.818 -133.6915
4750.000000 95.226 -134.1032
4820.000000 95.643 -135.3721
4870.000000 95.916 -136.7642
4940.000000 96.237 -139.2130
5000.000000 96.433 -141.6364
5080.000000 96.553 -145.1921
5150.000000 96.565 -148.2683
5220.000000 96.511 -151.1344
5300.000000 96.382 -154.1287
5380.000000 96.196 -156.8241
5450.000000 95.995 -158.9702
5520.000000 95.753 -160.8918
5600.000000 95.432 -162.7787
5700.000000 94.971 -164.5518
5800.000000 94.486 -165.4701
5900.000000 94.026 -165.6366
6000.000000 93.609 -165.2910
6080.000000 93.325 -164.6987
6150.000000 93.105 -164.0365
6220.000000 92.905 -163.2664
6300.000000 92.703 -162.2529
6400.000000 92.499 -160.8293
6500.000000 92.347 -159.2886
6600.000000 92.248 -157.6791
6700.000000 92.202 -156.0228
6800.000000 92.223 -154.3739
6900.000000 92.339 -152.7637
7000.000000 92.551 -151.2357
7100.000000 92.829 -149.8509
7200.000000 93.192 -148.7465
7300.000000 93.649 -148.0755
7400.000000 94.194 -148.0276
7500.000000 94.818 -148.8131
7620.000000 95.660 -151.2679
7750.000000 96.579 -156.4919
7880.000000 97.249 -164.9339
8000.000000 97.454 -175.2842
8120.000000 97.115 173.1954
8250.000000 96.117 161.4514
8380.000000 94.573 152.2930
8500.000000 92.826 146.9217
8620.000000 90.931 144.5063
8750.000000 88.840 144.7953
8850.000000 87.268 146.7318
9000.000000 85.046 151.8797
9120.000000 83.399 157.6522
9250.000000 81.736 165.4755
9380.000000 80.203 175.1215
9500.000000 78.975 -174.0957
9620.000000 78.072 -161.6489
9750.000000 77.645 -147.2256
9880.000000 77.824 -133.3816
10000.000000 78.386 -122.2931
10150.000000 79.348 -111.2902
10300.000000 80.374 -102.9721
10440.000000 81.316 -96.8271
10600.000000 82.376 -90.9717
10750.000000 83.397 -86.1793
10900.000000 84.517 -81.8259
11060.000000 85.916 -77.7102
11200.000000 87.411 -74.9019
11380.000000 89.782 -73.6568
11500.000000 91.530 -75.6655
11720.000000 94.308 -88.5065
11800.000000 94.977 -95.8968
12060.000000 95.686 -122.5158
12200.000000 95.330 -135.3744
12410.000000 94.112 -150.5300
12500.000000 93.408 -155.1603
12650.000000 92.123 -160.2921
12800.000000 90.848 -162.5907
13150.000000 88.500 -160.7887
13200.000000 88.257 -160.0378
13400.000000 87.515 -156.4030
13600.000000 87.129 -152.2511
13800.000000 87.089 -148.1634
14000.000000 87.386 -144.7354
14300.000000 88.389 -142.5477
14500.000000 89.279 -144.6506
14750.000000 90.203 -153.0808
15000.000000 90.305 -166.9934
15250.000000 89.286 179.2786
15500.000000 87.556 170.7256
15750.000000 85.870 167.1649
16000.000000 84.809 165.5128
16250.000000 84.699 161.7106
16500.000000 85.361 150.2794
16750.000000 85.696 127.0070
17000.000000 84.499 98.6563
17250.000000 81.719 79.0357
17500.000000 78.376 71.6332
17750.000000 75.529 72.2221
18000.000000 73.526 77.2565
18250.000000 72.203 84.9745
18500.000000 71.332 94.4169
18750.000000 70.753 105.0372
19000.000000 70.360 116.4948
19250.000000 70.080 128.4684
19500.000000 69.866 140.5857
19750.000000 69.730 151.6732
