* Measurement data measured by REW V5.20.13
* Source: Microphone (High Definition Audio Device), MICROPHONE (Master Volume), L, volume: 0.950. Timing signal peak level -23.2 dBFS, measurement signal peak level -7.1 dBFS
* Format: 512k Log Swept Sine, 1 sweep at -12.0 dBFS using an acoustic timing reference
* Dated: Dec 13, 2022 2:09:00 PM
* REW Settings:
*  C-weighting compensation: Off
*  Target level: 75.0 dB
* Note: ; Delay -0.0433 ms (-15 mm, -0.58 in) using estimated IR delay relative to Acoustic reference played from HEADPHONE R with no timing offset Clock adjustment: 120.6 ppm
* Measurement: Blue bullets IDK R
* Smoothing: 1/24 octave
* Frequency Step: 1/48 octave
* Start Frequency: 1.000 Hz
*
* Freq(Hz) SPL(dB) Phase(degrees)
1.000000 87.888 7.8174
1.015000 87.977 7.0369
1.030000 88.062 6.2627
1.044000 88.138 5.5477
1.060000 88.220 4.7416
1.075000 88.293 3.9987
1.090000 88.361 3.2704
1.106000 88.429 2.5093
1.120000 88.484 1.8438
1.138000 88.549 0.9853
1.150000 88.589 0.4116
1.172000 88.656 -0.6421
1.180000 88.679 -1.0256
1.206000 88.744 -2.2721
1.220000 88.775 -2.9428
1.241000 88.816 -3.9469
1.250000 88.832 -4.3763
1.265000 88.856 -5.0903
1.280000 88.878 -5.8017
1.315000 88.918 -7.4492
1.320000 88.923 -7.6828
1.340000 88.939 -8.6124
1.360000 88.953 -9.5331
1.380000 88.963 -10.4437
1.400000 88.971 -11.3432
1.430000 88.979 -12.6688
1.450000 88.982 -13.5351
1.475000 88.984 -14.6006
1.500000 88.982 -15.6801
1.525000 88.975 -16.7747
1.550000 88.963 -17.8759
1.575000 88.946 -18.9754
1.600000 88.924 -20.0647
1.625000 88.896 -21.1356
1.650000 88.864 -22.1796
1.675000 88.826 -23.1883
1.700000 88.782 -24.1533
1.725000 88.733 -25.0663
1.750000 88.679 -25.9189
1.775000 88.619 -26.7026
1.800000 88.553 -27.4092
1.825000 88.481 -28.0302
1.850000 88.401 -28.5782
1.875000 88.308 -29.0961
1.900000 88.203 -29.5793
1.925000 88.088 -30.0214
1.950000 87.965 -30.4158
1.975000 87.837 -30.7560
2.000000 87.705 -31.0354
2.030000 87.544 -31.2812
2.060000 87.384 -31.4188
2.090000 87.228 -31.4368
2.120000 87.080 -31.3239
2.140000 86.988 -31.1704
2.180000 86.822 -30.6604
2.200000 86.750 -30.2969
2.240000 86.602 -29.2815
2.270000 86.483 -28.2784
2.300000 86.362 -27.1012
2.330000 86.244 -25.7796
2.360000 86.133 -24.3432
2.400000 86.007 -22.3009
2.430000 85.933 -20.7122
2.470000 85.872 -18.5747
2.500000 85.861 -16.9954
2.540000 85.901 -14.9781
2.580000 86.014 -13.0910
2.620000 86.202 -11.0956
2.650000 86.386 -9.5204
2.690000 86.680 -7.3674
2.720000 86.929 -5.7486
2.760000 87.292 -3.6369
2.800000 87.677 -1.6381
2.850000 88.174 0.6027
2.900000 88.665 2.4388
2.950000 89.135 3.7607
3.000000 89.630 4.6546
3.040000 90.046 5.1150
3.070000 90.365 5.3290
3.110000 90.796 5.4603
3.150000 91.226 5.4397
3.200000 91.755 5.2404
3.250000 92.261 4.8961
3.300000 92.733 4.4574
3.350000 93.177 3.8229
3.400000 93.605 2.9373
3.450000 94.017 1.8589
3.500000 94.413 0.6461
3.550000 94.794 -0.6428
3.600000 95.160 -1.9494
3.650000 95.513 -3.2153
3.700000 95.850 -4.4348
3.750000 96.169 -5.6986
3.820000 96.590 -7.5280
3.870000 96.874 -8.8617
3.950000 97.306 -11.0095
4.000000 97.564 -12.3421
4.060000 97.864 -13.9217
4.120000 98.147 -15.5165
4.180000 98.414 -17.1194
4.250000 98.709 -18.9801
4.310000 98.952 -20.5499
4.370000 99.187 -22.0809
4.440000 99.452 -23.8075
4.500000 99.668 -25.2517
4.550000 99.841 -26.4325
4.620000 100.074 -28.0521
4.680000 100.268 -29.4106
4.750000 100.490 -30.9628
4.820000 100.707 -32.4766
4.870000 100.857 -33.5315
4.940000 101.062 -34.9765
5.000000 101.233 -36.1900
5.080000 101.458 -37.7796
5.150000 101.652 -39.1498
5.220000 101.842 -40.4906
5.300000 102.056 -41.9894
5.380000 102.265 -43.4620
5.450000 102.444 -44.7371
5.520000 102.621 -46.0054
5.600000 102.820 -47.4371
5.700000 103.063 -49.2018
5.800000 103.298 -50.9483
5.900000 103.525 -52.6858
6.000000 103.745 -54.4143
6.080000 103.915 -55.7859
6.150000 104.059 -56.9750
6.220000 104.199 -58.1512
6.300000 104.353 -59.4819
6.400000 104.536 -61.1278
6.500000 104.712 -62.7458
6.600000 104.878 -64.3267
6.700000 105.036 -65.8731
6.800000 105.184 -67.3861
6.900000 105.326 -68.8585
7.000000 105.461 -70.2838
7.100000 105.589 -71.6636
7.200000 105.711 -73.0006
7.300000 105.828 -74.2968
7.400000 105.942 -75.5510
7.500000 106.051 -76.7612
7.620000 106.176 -78.1656
7.750000 106.308 -79.6390
7.880000 106.435 -81.0550
8.000000 106.548 -82.3230
8.120000 106.658 -83.5649
8.250000 106.772 -84.8744
8.380000 106.882 -86.1538
8.500000 106.978 -87.3148
8.620000 107.069 -88.4539
8.750000 107.163 -89.6634
8.850000 107.231 -90.5772
9.000000 107.325 -91.9207
9.120000 107.396 -92.9699
9.250000 107.468 -94.0793
9.380000 107.536 -95.1611
9.500000 107.593 -96.1355
9.620000 107.644 -97.0858
9.750000 107.693 -98.0885
9.880000 107.733 -99.0683
10.000000 107.760 -99.9527
10.150000 107.782 -101.0318
10.300000 107.792 -102.0913
10.440000 107.795 -103.0612
10.600000 107.797 -104.1530
10.750000 107.796 -105.1653
10.900000 107.793 -106.1657
11.060000 107.788 -107.2238
11.200000 107.782 -108.1417
11.380000 107.772 -109.3116
11.500000 107.764 -110.0854
11.720000 107.749 -111.4910
11.800000 107.743 -111.9979
12.060000 107.727 -113.6305
12.200000 107.720 -114.5005
12.410000 107.711 -115.7939
12.500000 107.707 -116.3442
12.650000 107.701 -117.2561
12.800000 107.696 -118.1610
13.150000 107.687 -120.2453
13.200000 107.686 -120.5395
13.400000 107.686 -121.7079
13.600000 107.689 -122.8606
13.800000 107.697 -123.9970
14.000000 107.708 -125.1152
14.300000 107.729 -126.7567
14.500000 107.746 -127.8249
14.750000 107.771 -129.1259
15.000000 107.802 -130.3860
15.250000 107.838 -131.5987
15.500000 107.878 -132.7600
15.750000 107.921 -133.8676
16.000000 107.966 -134.9200
16.250000 108.012 -135.9191
16.500000 108.059 -136.8666
16.750000 108.106 -137.7654
17.000000 108.154 -138.6184
17.250000 108.200 -139.4273
17.500000 108.245 -140.1937
17.750000 108.287 -140.9196
18.000000 108.324 -141.6068
18.250000 108.358 -142.2574
18.500000 108.389 -142.8755
18.750000 108.415 -143.4648
19.000000 108.439 -144.0287
19.250000 108.461 -144.5735
19.500000 108.479 -145.1039
19.750000 108.494 -145.6240
20.000000 108.506 -146.1399
20.299999 108.517 -146.7579
20.600000 108.523 -147.3785
20.900000 108.524 -148.0035
21.200001 108.522 -148.6331
21.400000 108.519 -149.0554
21.799999 108.511 -149.9078
22.000000 108.507 -150.3391
22.400000 108.499 -151.2147
22.700001 108.494 -151.8830
23.000000 108.489 -152.5583
23.299999 108.486 -153.2341
23.600000 108.484 -153.9042
24.000000 108.486 -154.7802
24.299999 108.491 -155.4208
24.700001 108.502 -156.2532
25.000000 108.512 -156.8614
25.400000 108.528 -157.6484
25.799999 108.545 -158.4007
26.200001 108.561 -159.1109
26.500000 108.573 -159.6147
26.900000 108.588 -160.2515
27.200001 108.598 -160.7076
27.600000 108.611 -161.2938
28.000000 108.620 -161.8609
28.500000 108.625 -162.5501
29.000000 108.625 -163.2261
29.500000 108.620 -163.8982
30.000000 108.609 -164.5732
30.400000 108.597 -165.1174
30.700001 108.588 -165.5290
31.100000 108.575 -166.0838
31.500000 108.562 -166.6463
32.000000 108.548 -167.3574
32.500000 108.534 -168.0668
33.000000 108.523 -168.7616
33.500000 108.516 -169.4379
34.000000 108.513 -170.1008
34.500000 108.513 -170.7527
35.000000 108.511 -171.3840
35.500000 108.508 -171.9786
36.000000 108.503 -172.5324
36.500000 108.499 -173.0606
37.000000 108.495 -173.5854
37.500000 108.487 -174.1156
38.200001 108.469 -174.8555
38.700001 108.452 -175.3761
39.500000 108.425 -176.2127
40.000000 108.407 -176.7438
40.599998 108.385 -177.3808
41.200001 108.365 -178.0094
41.799999 108.347 -178.6304
42.500000 108.328 -179.3413
43.099998 108.315 -179.9323
43.700001 108.303 179.4902
44.400002 108.288 178.8260
45.000000 108.273 178.2724
45.500000 108.258 177.8286
46.200001 108.238 177.2206
46.799999 108.220 176.6890
47.500000 108.195 176.0589
48.200001 108.166 175.4525
48.700001 108.145 175.0396
49.400002 108.120 174.4718
50.000000 108.100 173.9909
50.799999 108.076 173.3720
51.500000 108.061 172.8207
52.200001 108.044 172.2207
53.000000 108.010 171.5284
53.799999 107.967 170.9122
54.500000 107.931 170.4132
55.200001 107.897 169.9090
56.000000 107.858 169.3264
57.000000 107.811 168.6029
58.000000 107.770 167.8480
59.000000 107.723 167.0462
60.000000 107.665 166.3298
60.799999 107.625 165.8538
61.500000 107.600 165.4358
62.200001 107.575 164.9843
63.000000 107.542 164.4611
64.000000 107.497 163.8300
65.000000 107.451 163.2076
66.000000 107.402 162.5992
67.000000 107.354 161.9985
68.000000 107.303 161.4062
69.000000 107.253 160.8240
70.000000 107.201 160.2493
71.000000 107.148 159.6868
72.000000 107.096 159.1340
73.000000 107.044 158.5933
74.000000 106.993 158.0596
75.000000 106.941 157.5399
76.199997 106.879 156.9262
77.500000 106.810 156.2708
78.800003 106.740 155.6294
80.000000 106.675 155.0507
81.199997 106.611 154.4810
82.500000 106.542 153.8757
83.800003 106.472 153.2859
85.000000 106.408 152.7690
86.199997 106.346 152.2594
87.500000 106.277 151.7117
88.500000 106.224 151.2959
90.000000 106.145 150.6832
91.199997 106.083 150.1934
92.500000 106.015 149.6796
93.800003 105.946 149.1833
95.000000 105.883 148.7461
96.199997 105.820 148.3162
97.500000 105.751 147.8534
98.800003 105.680 147.3991
100.000000 105.615 146.9939
101.500000 105.534 146.4926
103.000000 105.453 145.9924
104.400002 105.378 145.5415
106.000000 105.293 145.0437
107.500000 105.213 144.5873
109.000000 105.133 144.1418
110.599998 105.046 143.6846
112.000000 104.971 143.2939
113.800003 104.874 142.7966
115.000000 104.809 142.4706
117.199997 104.690 141.8819
118.000000 104.647 141.6668
120.599998 104.509 141.0103
122.000000 104.441 140.6903
124.099998 104.341 140.2160
125.000000 104.297 140.0201
126.500000 104.223 139.6978
128.000000 104.148 139.3750
131.500000 103.978 138.6406
132.000000 103.954 138.5374
134.000000 103.861 138.1349
136.000000 103.767 137.7494
138.000000 103.674 137.3762
140.000000 103.584 137.0153
143.000000 103.452 136.4889
145.000000 103.365 136.1666
147.500000 103.257 135.7845
150.000000 103.147 135.4050
152.500000 103.036 135.0425
155.000000 102.926 134.6932
157.500000 102.816 134.3441
160.000000 102.706 134.0067
162.500000 102.598 133.6790
165.000000 102.492 133.3694
167.500000 102.386 133.0872
170.000000 102.279 132.8189
172.500000 102.170 132.5646
175.000000 102.065 132.3157
177.500000 101.960 132.0611
180.000000 101.853 131.8173
182.500000 101.749 131.5931
185.000000 101.645 131.3734
187.500000 101.542 131.1601
190.000000 101.439 130.9625
192.500000 101.341 130.7814
195.000000 101.245 130.6162
197.500000 101.149 130.4573
200.000000 101.052 130.2925
203.000000 100.937 130.0955
206.000000 100.824 129.9071
209.000000 100.712 129.7310
212.000000 100.601 129.5678
214.000000 100.529 129.4683
218.000000 100.387 129.2813
220.000000 100.317 129.1894
224.000000 100.176 129.0253
227.000000 100.071 128.9195
230.000000 99.965 128.8193
233.000000 99.860 128.7245
236.000000 99.755 128.6282
240.000000 99.620 128.4893
243.000000 99.523 128.4008
247.000000 99.395 128.3098
250.000000 99.297 128.2594
254.000000 99.168 128.2030
258.000000 99.043 128.1473
262.000000 98.920 128.1052
265.000000 98.828 128.0911
269.000000 98.706 128.0717
272.000000 98.617 128.0518
276.000000 98.499 128.0434
280.000000 98.382 128.0466
285.000000 98.239 128.0511
290.000000 98.100 128.0824
295.000000 97.965 128.1325
300.000000 97.838 128.1927
304.000000 97.731 128.2208
307.000000 97.647 128.2409
311.000000 97.537 128.2772
315.000000 97.431 128.3284
320.000000 97.305 128.4028
325.000000 97.181 128.4920
330.000000 97.058 128.5973
335.000000 96.935 128.7068
340.000000 96.813 128.8371
345.000000 96.691 128.9778
350.000000 96.569 129.1153
355.000000 96.449 129.2494
360.000000 96.329 129.3969
365.000000 96.211 129.5626
370.000000 96.091 129.7339
375.000000 95.974 129.9125
382.000000 95.817 130.1744
387.000000 95.704 130.3680
395.000000 95.527 130.6764
400.000000 95.419 130.8781
406.000000 95.286 131.1428
412.000000 95.157 131.4250
418.000000 95.027 131.7242
425.000000 94.878 132.0647
431.000000 94.759 132.3515
437.000000 94.637 132.6653
444.000000 94.493 133.0470
450.000000 94.373 133.3744
455.000000 94.276 133.6566
462.000000 94.141 134.0616
468.000000 94.028 134.4131
475.000000 93.900 134.8234
482.000000 93.771 135.2582
487.000000 93.679 135.5954
494.000000 93.554 136.0958
500.000000 93.451 136.5150
508.000000 93.316 137.0666
515.000000 93.201 137.5717
522.000000 93.088 138.1002
530.000000 92.961 138.7041
538.000000 92.836 139.2917
545.000000 92.729 139.8352
552.000000 92.624 140.4100
560.000000 92.505 141.0828
570.000000 92.366 141.9158
580.000000 92.235 142.7543
590.000000 92.097 143.5917
600.000000 91.955 144.4724
608.000000 91.839 145.2790
615.000000 91.749 146.0620
622.000000 91.677 146.8190
630.000000 91.602 147.5968
640.000000 91.503 148.5386
650.000000 91.398 149.4999
660.000000 91.292 150.5018
670.000000 91.195 151.4926
680.000000 91.101 152.4647
690.000000 91.011 153.4507
700.000000 90.926 154.4332
710.000000 90.845 155.4098
720.000000 90.770 156.4216
730.000000 90.688 157.4365
740.000000 90.599 158.4114
750.000000 90.504 159.3193
762.000000 90.356 160.4081
775.000000 90.121 161.8021
788.000000 89.733 163.9951
800.000000 89.297 168.9210
812.000000 89.598 177.8747
825.000000 91.034 -176.8336
838.000000 91.823 179.8536
850.000000 91.867 177.0670
862.000000 91.743 176.4298
875.000000 91.601 176.8469
885.000000 91.498 177.3603
900.000000 91.369 177.9338
912.000000 91.316 178.1291
925.000000 91.335 178.2958
938.000000 91.420 178.7858
950.000000 91.503 179.6276
962.000000 91.541 -179.3662
975.000000 91.531 -178.4771
988.000000 91.534 -177.9949
1000.000000 91.587 -177.6219
1015.000000 91.664 -176.8300
1030.000000 91.695 -176.0568
1044.000000 91.728 -175.6236
1060.000000 91.794 -175.0281
1075.000000 91.833 -174.4595
1090.000000 91.882 -174.0342
1106.000000 91.945 -173.5314
1120.000000 91.993 -173.1324
1138.000000 92.061 -172.6363
1150.000000 92.101 -172.3291
1172.000000 92.170 -171.8132
1180.000000 92.192 -171.6299
1206.000000 92.258 -171.0484
1220.000000 92.296 -170.7238
1241.000000 92.351 -170.2428
1250.000000 92.373 -170.0444
1265.000000 92.408 -169.7162
1280.000000 92.439 -169.3833
1315.000000 92.507 -168.5414
1320.000000 92.516 -168.4211
1340.000000 92.546 -167.9320
1360.000000 92.555 -167.4023
1380.000000 92.565 -166.8387
1400.000000 92.590 -166.2686
1430.000000 92.634 -165.3752
1450.000000 92.667 -164.7417
1475.000000 92.714 -163.9309
1500.000000 92.765 -163.1104
1525.000000 92.818 -162.2591
1550.000000 92.873 -161.3684
1575.000000 92.932 -160.4547
1600.000000 92.997 -159.5211
1625.000000 93.070 -158.5759
1650.000000 93.150 -157.6242
1675.000000 93.240 -156.6817
1700.000000 93.340 -155.7279
1725.000000 93.450 -154.7755
1750.000000 93.567 -153.8455
1775.000000 93.691 -152.9286
1800.000000 93.824 -152.0170
1825.000000 93.967 -151.1190
1850.000000 94.121 -150.2516
1875.000000 94.284 -149.4136
1900.000000 94.457 -148.6005
1925.000000 94.642 -147.8260
1950.000000 94.837 -147.0979
1975.000000 95.042 -146.4110
2000.000000 95.255 -145.7736
2030.000000 95.524 -145.1018
2060.000000 95.804 -144.5265
2090.000000 96.097 -144.0518
2120.000000 96.403 -143.7012
2140.000000 96.613 -143.5391
2180.000000 97.041 -143.3896
2200.000000 97.258 -143.4140
2240.000000 97.698 -143.6459
2270.000000 98.028 -143.9967
2300.000000 98.357 -144.5217
2330.000000 98.682 -145.2106
2360.000000 99.001 -146.0634
2400.000000 99.411 -147.4582
2430.000000 99.699 -148.6807
2470.000000 100.054 -150.5178
2500.000000 100.297 -152.0325
2540.000000 100.585 -154.1911
2580.000000 100.829 -156.4497
2620.000000 101.029 -158.7524
2650.000000 101.153 -160.4755
2690.000000 101.288 -162.7437
2720.000000 101.367 -164.4050
2760.000000 101.447 -166.5406
2800.000000 101.506 -168.5754
2850.000000 101.556 -170.9575
2900.000000 101.592 -173.1548
2950.000000 101.623 -175.1691
3000.000000 101.655 -177.0472
3040.000000 101.688 -178.4795
3070.000000 101.718 -179.5208
3110.000000 101.765 179.1133
3150.000000 101.819 177.7423
3200.000000 101.895 175.9940
3250.000000 101.981 174.1947
3300.000000 102.076 172.3444
3350.000000 102.188 170.4225
3400.000000 102.328 168.3547
3450.000000 102.503 166.0037
3500.000000 102.702 163.1947
3550.000000 102.897 159.8003
3600.000000 103.055 155.8208
3650.000000 103.147 151.3496
3700.000000 103.158 146.5168
3750.000000 103.077 141.4539
3820.000000 102.801 134.2045
3870.000000 102.484 129.0753
3950.000000 101.778 121.3543
4000.000000 101.227 117.0341
4060.000000 100.480 112.5111
4120.000000 99.661 108.7926
4180.000000 98.793 105.9174
4250.000000 97.751 103.6433
4310.000000 96.851 102.6143
4370.000000 95.955 102.4521
4440.000000 94.942 103.4875
4500.000000 94.178 105.6711
4550.000000 93.755 108.1324
4620.000000 93.607 109.8682
4680.000000 93.440 108.1867
4750.000000 92.765 106.0674
4820.000000 91.867 106.3847
4870.000000 91.256 107.5955
4940.000000 90.493 109.7463
5000.000000 89.918 111.7876
5080.000000 89.227 114.7253
5150.000000 88.674 117.4313
5220.000000 88.165 120.2326
5300.000000 87.633 123.5564
5380.000000 87.146 126.9798
5450.000000 86.755 130.0264
5520.000000 86.399 133.1206
5600.000000 86.028 136.7273
5700.000000 85.612 141.3063
5800.000000 85.250 145.9723
5900.000000 84.940 150.6496
6000.000000 84.678 155.3578
6080.000000 84.504 159.1394
6150.000000 84.380 162.4722
6220.000000 84.286 165.8545
6300.000000 84.214 169.7264
6400.000000 84.174 174.5355
6500.000000 84.194 179.3489
6600.000000 84.281 -175.8665
6700.000000 84.437 -171.1122
6800.000000 84.680 -166.4316
6900.000000 85.040 -161.9162
7000.000000 85.528 -157.6150
7100.000000 86.143 -153.6592
7200.000000 86.891 -150.2564
7300.000000 87.773 -147.6329
7400.000000 88.776 -146.0760
7500.000000 89.874 -145.9573
7620.000000 91.243 -148.2450
7750.000000 92.584 -154.0457
7880.000000 93.497 -162.7296
8000.000000 93.899 -171.9174
8120.000000 93.949 179.1550
8250.000000 93.745 170.5124
8380.000000 93.395 162.8953
8500.000000 93.002 156.4269
8620.000000 92.547 150.1989
8750.000000 91.955 143.5760
8850.000000 91.402 138.6307
9000.000000 90.381 132.0082
9120.000000 89.443 128.0243
9250.000000 88.445 124.9971
9380.000000 87.519 122.3068
9500.000000 86.573 120.0812
9620.000000 85.445 119.8102
9750.000000 84.303 122.6530
9880.000000 83.594 126.8619
10000.000000 83.271 130.3345
10150.000000 83.066 133.7204
10300.000000 82.952 136.4863
10440.000000 82.902 138.8171
10600.000000 82.904 141.2904
10750.000000 82.968 143.4043
10900.000000 83.094 145.2203
11060.000000 83.284 146.6464
11200.000000 83.470 147.2526
11380.000000 83.663 146.8898
11500.000000 83.715 145.9216
11720.000000 83.495 142.7899
11800.000000 83.253 141.6127
12060.000000 81.927 140.8087
12200.000000 81.031 143.0406
12410.000000 79.753 149.9312
12500.000000 79.316 153.9646
12650.000000 78.835 161.5893
12800.000000 78.721 169.5068
13150.000000 79.554 -176.0867
13200.000000 79.728 -174.6510
13400.000000 80.574 -169.9749
13600.000000 81.634 -168.4337
13800.000000 82.554 -171.1992
14000.000000 83.060 -176.9786
14300.000000 83.076 173.8280
14500.000000 82.993 169.1559
14750.000000 83.376 163.0132
15000.000000 84.222 151.8577
15250.000000 84.821 135.0762
15500.000000 85.288 117.2302
15750.000000 86.102 97.7037
16000.000000 86.709 73.9544
16250.000000 86.483 49.8869
16500.000000 85.626 31.2988
16750.000000 84.777 18.9251
17000.000000 84.420 9.9483
17250.000000 84.694 0.1475
17500.000000 85.135 -15.5451
17750.000000 84.683 -37.9785
18000.000000 82.598 -57.1218
18250.000000 79.096 -61.9528
18500.000000 75.326 -53.2147
18750.000000 72.898 -39.4916
19000.000000 72.202 -28.6389
19250.000000 72.346 -22.8647
19500.000000 72.675 -21.3364
19750.000000 72.989 -22.9065
20000.000000 73.202 -26.9714
20300.000000 73.390 -35.2206
20600.000000 73.646 -47.4797
20900.000000 73.926 -64.6763
21200.000000 74.122 -88.5514
21400.000000 74.109 -109.4510
21800.000000 73.428 -173.5425
22000.000000 72.587 116.6302
22400.000000 68.820 53.5719
22700.000000 63.312 -11.4712
23000.000000 55.814 -96.1133
23300.000000 48.590 73.3711
23600.000000 45.496 114.5898
24000.000000 44.899 -110.9258
24300.000000 44.682 156.5156
24700.000000 44.701 -128.2109
