* Measurement data measured by REW V5.20.13
* Source: Frequency Response Averaged data
* Format: Averaged data produced from the rms magnitudes of R, R, R
* Dated: Nov 11, 2023 10:55:49 PM
* REW Settings:
*  C-weighting compensation: Off
*  Target level: 75.0 dB
* Note: ; Averaged data produced from the rms magnitudes of R, R, R
* Measurement: BrownIEM R
* Smoothing: 1/24 octave
* Frequency Step: 1/48 octave
* Start Frequency: 2.200 Hz
*
* Freq(Hz) SPL(dB)
2.200000 68.547
2.240000 68.796
2.270000 68.982
2.300000 69.169
2.330000 69.356
2.360000 69.543
2.400000 69.792
2.430000 69.978
2.470000 70.227
2.500000 70.414
2.540000 70.663
2.580000 70.928
2.620000 71.231
2.650000 71.469
2.690000 71.797
2.720000 72.047
2.760000 72.384
2.800000 72.717
2.850000 73.122
2.900000 73.504
2.950000 73.854
3.000000 74.181
3.040000 74.431
3.070000 74.613
3.110000 74.847
3.150000 75.073
3.200000 75.348
3.250000 75.615
3.300000 75.876
3.350000 76.130
3.400000 76.375
3.450000 76.610
3.500000 76.837
3.550000 77.056
3.600000 77.266
3.650000 77.469
3.700000 77.664
3.750000 77.848
3.820000 78.091
3.870000 78.255
3.950000 78.507
4.000000 78.659
4.060000 78.836
4.120000 79.004
4.180000 79.164
4.250000 79.343
4.310000 79.492
4.370000 79.638
4.440000 79.807
4.500000 79.946
4.550000 80.058
4.620000 80.213
4.680000 80.345
4.750000 80.500
4.820000 80.656
4.870000 80.766
4.940000 80.920
5.000000 81.052
5.080000 81.230
5.150000 81.390
5.220000 81.551
5.300000 81.739
5.380000 81.928
5.450000 82.094
5.520000 82.261
5.600000 82.454
5.700000 82.698
5.800000 82.941
5.900000 83.179
6.000000 83.416
6.080000 83.603
6.150000 83.763
6.220000 83.918
6.300000 84.090
6.400000 84.299
6.500000 84.498
6.600000 84.686
6.700000 84.861
6.800000 85.026
6.900000 85.179
7.000000 85.321
7.100000 85.450
7.200000 85.567
7.300000 85.676
7.400000 85.775
7.500000 85.863
7.620000 85.960
7.750000 86.058
7.880000 86.145
8.000000 86.222
8.120000 86.301
8.250000 86.385
8.380000 86.473
8.500000 86.563
8.620000 86.657
8.750000 86.767
8.850000 86.858
9.000000 87.004
9.120000 87.127
9.250000 87.265
9.380000 87.408
9.500000 87.539
9.620000 87.666
9.750000 87.801
9.880000 87.928
10.000000 88.036
10.150000 88.160
10.300000 88.276
10.440000 88.374
10.600000 88.484
10.750000 88.589
10.900000 88.695
11.060000 88.816
11.200000 88.928
11.380000 89.078
11.500000 89.183
11.720000 89.378
11.800000 89.448
12.060000 89.670
12.200000 89.779
12.410000 89.927
12.500000 89.982
12.650000 90.063
12.800000 90.133
13.150000 90.258
13.200000 90.275
13.400000 90.341
13.600000 90.419
13.800000 90.516
14.000000 90.638
14.300000 90.865
14.500000 91.037
14.750000 91.250
15.000000 91.446
15.250000 91.601
15.500000 91.707
15.750000 91.766
16.000000 91.788
16.250000 91.803
16.500000 91.831
16.750000 91.900
17.000000 92.023
17.250000 92.193
17.500000 92.401
17.750000 92.614
18.000000 92.817
18.250000 92.993
18.500000 93.133
18.750000 93.243
19.000000 93.327
19.250000 93.401
19.500000 93.476
19.750000 93.559
20.000000 93.656
20.299999 93.783
20.600000 93.915
20.900000 94.042
21.200001 94.159
21.400000 94.232
21.799999 94.377
22.000000 94.453
22.400000 94.615
22.700001 94.740
23.000000 94.854
23.299999 94.950
23.600000 95.025
24.000000 95.105
24.299999 95.169
24.700001 95.282
25.000000 95.392
25.400000 95.556
25.799999 95.708
26.200001 95.821
26.500000 95.880
26.900000 95.945
27.200001 95.998
27.600000 96.087
28.000000 96.188
28.500000 96.300
29.000000 96.376
29.500000 96.450
30.000000 96.573
30.400000 96.720
30.700001 96.850
31.100000 97.028
31.500000 97.198
32.000000 97.392
32.500000 97.570
33.000000 97.732
33.500000 97.872
34.000000 97.995
34.500000 98.113
35.000000 98.236
35.500000 98.357
36.000000 98.463
36.500000 98.555
37.000000 98.640
37.500000 98.730
38.200001 98.864
38.700001 98.959
39.500000 99.109
40.000000 99.205
40.599998 99.320
41.200001 99.430
41.799999 99.537
42.500000 99.665
43.099998 99.775
43.700001 99.881
44.400002 100.000
45.000000 100.099
45.500000 100.181
46.200001 100.293
46.799999 100.388
47.500000 100.499
48.200001 100.612
48.700001 100.694
49.400002 100.807
50.000000 100.899
50.799999 101.011
51.500000 101.106
52.200001 101.204
53.000000 101.317
53.799999 101.424
54.500000 101.513
55.200001 101.600
56.000000 101.697
57.000000 101.823
58.000000 101.955
59.000000 102.081
60.000000 102.193
60.799999 102.278
61.500000 102.355
62.200001 102.433
63.000000 102.522
64.000000 102.630
65.000000 102.737
66.000000 102.842
67.000000 102.945
68.000000 103.044
69.000000 103.137
70.000000 103.225
71.000000 103.310
72.000000 103.395
73.000000 103.479
74.000000 103.560
75.000000 103.641
76.199997 103.737
77.500000 103.841
78.800003 103.943
80.000000 104.034
81.199997 104.121
82.500000 104.214
83.800003 104.309
85.000000 104.398
86.199997 104.486
87.500000 104.578
88.500000 104.647
90.000000 104.746
91.199997 104.823
92.500000 104.903
93.800003 104.979
95.000000 105.046
96.199997 105.110
97.500000 105.177
98.800003 105.244
100.000000 105.309
101.500000 105.389
103.000000 105.466
104.400002 105.533
106.000000 105.607
107.500000 105.679
109.000000 105.751
110.599998 105.822
112.000000 105.878
113.800003 105.944
115.000000 105.987
117.199997 106.059
118.000000 106.083
120.599998 106.166
122.000000 106.221
124.099998 106.307
125.000000 106.341
126.500000 106.394
128.000000 106.443
131.500000 106.556
132.000000 106.573
134.000000 106.640
136.000000 106.707
138.000000 106.768
140.000000 106.823
143.000000 106.904
145.000000 106.959
147.500000 107.025
150.000000 107.083
152.500000 107.138
155.000000 107.194
157.500000 107.247
160.000000 107.294
162.500000 107.337
165.000000 107.383
167.500000 107.430
170.000000 107.476
172.500000 107.516
175.000000 107.549
177.500000 107.578
180.000000 107.610
182.500000 107.643
185.000000 107.677
187.500000 107.712
190.000000 107.744
192.500000 107.769
195.000000 107.788
197.500000 107.804
200.000000 107.820
203.000000 107.841
206.000000 107.856
209.000000 107.859
212.000000 107.858
214.000000 107.861
218.000000 107.875
220.000000 107.886
224.000000 107.901
227.000000 107.906
230.000000 107.907
233.000000 107.905
236.000000 107.901
240.000000 107.893
243.000000 107.886
247.000000 107.875
250.000000 107.866
254.000000 107.850
258.000000 107.830
262.000000 107.807
265.000000 107.792
269.000000 107.778
272.000000 107.765
276.000000 107.734
280.000000 107.698
285.000000 107.661
290.000000 107.628
295.000000 107.603
300.000000 107.566
304.000000 107.519
307.000000 107.479
311.000000 107.424
315.000000 107.364
320.000000 107.283
325.000000 107.203
330.000000 107.128
335.000000 107.056
340.000000 106.985
345.000000 106.917
350.000000 106.856
355.000000 106.790
360.000000 106.708
365.000000 106.616
370.000000 106.525
375.000000 106.430
382.000000 106.283
387.000000 106.180
395.000000 106.036
400.000000 105.951
406.000000 105.846
412.000000 105.739
418.000000 105.635
425.000000 105.524
431.000000 105.426
437.000000 105.306
444.000000 105.134
450.000000 104.976
455.000000 104.848
462.000000 104.681
468.000000 104.549
475.000000 104.409
482.000000 104.286
487.000000 104.201
494.000000 104.065
500.000000 103.927
508.000000 103.739
515.000000 103.584
522.000000 103.424
530.000000 103.231
538.000000 103.049
545.000000 102.909
552.000000 102.775
560.000000 102.610
570.000000 102.394
580.000000 102.189
590.000000 101.971
600.000000 101.736
608.000000 101.556
615.000000 101.406
622.000000 101.257
630.000000 101.084
640.000000 100.866
650.000000 100.656
660.000000 100.456
670.000000 100.259
680.000000 100.063
690.000000 99.870
700.000000 99.679
710.000000 99.486
720.000000 99.264
730.000000 99.009
740.000000 98.758
750.000000 98.532
762.000000 98.270
775.000000 97.931
788.000000 97.499
800.000000 97.121
812.000000 96.993
825.000000 97.200
838.000000 97.424
850.000000 97.452
862.000000 97.347
875.000000 97.166
885.000000 97.018
900.000000 96.808
912.000000 96.654
925.000000 96.500
938.000000 96.376
950.000000 96.292
962.000000 96.204
975.000000 96.063
988.000000 95.879
1000.000000 95.714
1015.000000 95.548
1030.000000 95.400
1044.000000 95.260
1060.000000 95.105
1075.000000 94.972
1090.000000 94.849
1106.000000 94.727
1120.000000 94.630
1138.000000 94.512
1150.000000 94.431
1172.000000 94.278
1180.000000 94.221
1206.000000 94.032
1220.000000 93.927
1241.000000 93.767
1250.000000 93.698
1265.000000 93.586
1280.000000 93.479
1315.000000 93.279
1320.000000 93.257
1340.000000 93.148
1360.000000 92.959
1380.000000 92.726
1400.000000 92.518
1430.000000 92.255
1450.000000 92.083
1475.000000 91.864
1500.000000 91.653
1525.000000 91.444
1550.000000 91.230
1575.000000 91.009
1600.000000 90.789
1625.000000 90.578
1650.000000 90.375
1675.000000 90.182
1700.000000 89.991
1725.000000 89.773
1750.000000 89.466
1775.000000 89.135
1800.000000 88.996
1825.000000 88.992
1850.000000 88.911
1875.000000 88.750
1900.000000 88.576
1925.000000 88.413
1950.000000 88.265
1975.000000 88.129
2000.000000 88.004
2030.000000 87.869
2060.000000 87.745
2090.000000 87.630
2120.000000 87.525
2140.000000 87.462
2180.000000 87.352
2200.000000 87.306
2240.000000 87.232
2270.000000 87.191
2300.000000 87.163
2330.000000 87.149
2360.000000 87.147
2400.000000 87.163
2430.000000 87.190
2470.000000 87.242
2500.000000 87.292
2540.000000 87.371
2580.000000 87.465
2620.000000 87.574
2650.000000 87.664
2690.000000 87.793
2720.000000 87.893
2760.000000 88.026
2800.000000 88.158
2850.000000 88.320
2900.000000 88.474
2950.000000 88.620
3000.000000 88.753
3040.000000 88.848
3070.000000 88.914
3110.000000 88.994
3150.000000 89.067
3200.000000 89.148
3250.000000 89.219
3300.000000 89.279
3350.000000 89.329
3400.000000 89.371
3450.000000 89.409
3500.000000 89.443
3550.000000 89.471
3600.000000 89.495
3650.000000 89.515
3700.000000 89.530
3750.000000 89.542
3820.000000 89.553
3870.000000 89.558
3950.000000 89.562
4000.000000 89.566
4060.000000 89.576
4120.000000 89.592
4180.000000 89.614
4250.000000 89.647
4310.000000 89.680
4370.000000 89.719
4440.000000 89.775
4500.000000 89.832
4550.000000 89.886
4620.000000 89.971
4680.000000 90.051
4750.000000 90.153
4820.000000 90.262
4870.000000 90.341
4940.000000 90.448
5000.000000 90.530
5080.000000 90.614
5150.000000 90.682
5220.000000 90.818
5300.000000 91.112
5380.000000 91.469
5450.000000 91.751
5520.000000 91.994
5600.000000 92.250
5700.000000 92.568
5800.000000 92.899
5900.000000 93.237
6000.000000 93.578
6080.000000 93.852
6150.000000 94.092
6220.000000 94.332
6300.000000 94.607
6400.000000 94.949
6500.000000 95.292
6600.000000 95.640
6700.000000 95.998
6800.000000 96.380
6900.000000 96.796
7000.000000 97.244
7100.000000 97.709
7200.000000 98.173
7300.000000 98.614
7400.000000 99.009
7500.000000 99.345
7620.000000 99.668
7750.000000 99.915
7880.000000 100.007
8000.000000 99.885
8120.000000 99.487
8250.000000 98.685
8380.000000 97.520
8500.000000 96.202
8620.000000 94.753
8750.000000 93.139
8850.000000 91.915
9000.000000 90.162
9120.000000 88.854
9250.000000 87.541
9380.000000 86.336
9500.000000 85.318
9620.000000 84.386
9750.000000 83.467
9880.000000 82.635
10000.000000 81.935
10150.000000 81.143
10300.000000 80.427
10440.000000 79.819
10600.000000 79.183
10750.000000 78.641
10900.000000 78.153
11060.000000 77.700
11200.000000 77.363
11380.000000 77.009
11500.000000 76.819
11720.000000 76.557
11800.000000 76.489
12060.000000 76.373
12200.000000 76.375
12410.000000 76.468
12500.000000 76.543
12650.000000 76.724
12800.000000 76.980
13150.000000 77.914
13200.000000 78.093
13400.000000 78.959
13600.000000 80.110
13800.000000 81.565
14000.000000 83.206
14300.000000 85.422
14500.000000 86.372
14750.000000 86.914
15000.000000 87.027
15250.000000 86.833
15500.000000 86.195
15750.000000 85.129
16000.000000 83.853
16250.000000 82.587
16500.000000 81.409
16750.000000 80.269
17000.000000 79.086
17250.000000 77.799
17500.000000 76.396
17750.000000 74.898
18000.000000 73.353
18250.000000 71.834
18500.000000 70.448
18750.000000 69.311
19000.000000 68.450
19250.000000 67.747
19500.000000 67.053
19750.000000 66.308
20000.000000 65.532
20300.000000 64.590
20600.000000 63.584
20900.000000 62.488
21200.000000 61.519
21400.000000 61.069
21800.000000 60.248
22000.000000 59.482
22400.000000 56.606
22700.000000 53.361
23000.000000 49.823
23300.000000 47.104
23600.000000 45.815
24000.000000 45.384
