* Measurement data measured by REW V5.20.13
* Source: Microphone (High Definition Audio Device), MICROPHONE (Master Volume), L, volume: 0.000. Timing signal peak level -4.6 dBFS, measurement signal peak level -2.5 dBFS
* Format: 512k Log Swept Sine, 1 sweep at -12.0 dBFS using an acoustic timing reference
* Dated: Dec 13, 2022 3:08:29 PM
* REW Settings:
*  C-weighting compensation: Off
*  Target level: 75.0 dB
* Note: ; Delay -0.0492 ms (-17 mm, -0.66 in) using estimated IR delay relative to Acoustic reference played from HEADPHONE L with no timing offset Clock adjustment: -6.0 ppm
* Measurement: Buds Pro Ambient L
* Smoothing: 1/24 octave
* Frequency Step: 1/48 octave
* Start Frequency: 1.000 Hz
*
* Freq(Hz) SPL(dB) Phase(degrees)
1.000000 77.343 -33.3349
1.015000 77.434 -34.7460
1.030000 77.523 -36.1474
1.044000 77.604 -37.4435
1.060000 77.693 -38.9065
1.075000 77.774 -40.2568
1.090000 77.852 -41.5827
1.106000 77.932 -42.9685
1.120000 78.000 -44.1708
1.138000 78.083 -45.7079
1.150000 78.136 -46.7280
1.172000 78.229 -48.5904
1.180000 78.262 -49.2656
1.206000 78.365 -51.4553
1.220000 78.418 -52.6327
1.241000 78.494 -54.3985
1.250000 78.526 -55.1558
1.265000 78.578 -56.4195
1.280000 78.629 -57.6860
1.315000 78.743 -60.6575
1.320000 78.759 -61.0844
1.340000 78.823 -62.7995
1.360000 78.885 -64.5283
1.380000 78.946 -66.2733
1.400000 79.008 -68.0367
1.430000 79.101 -70.7217
1.450000 79.163 -72.5417
1.475000 79.243 -74.8549
1.500000 79.323 -77.2155
1.525000 79.402 -79.6188
1.550000 79.480 -82.0589
1.575000 79.557 -84.5300
1.600000 79.633 -87.0258
1.625000 79.707 -89.5405
1.650000 79.780 -92.0682
1.675000 79.851 -94.6027
1.700000 79.920 -97.1382
1.725000 79.987 -99.6685
1.750000 80.051 -102.1879
1.775000 80.114 -104.6902
1.800000 80.173 -107.1695
1.825000 80.230 -109.6198
1.850000 80.284 -112.0480
1.875000 80.337 -114.4801
1.900000 80.388 -116.9145
1.925000 80.437 -119.3482
1.950000 80.485 -121.7780
1.975000 80.530 -124.2010
2.000000 80.573 -126.6141
2.030000 80.621 -129.4926
2.060000 80.665 -132.3473
2.090000 80.705 -135.1729
2.120000 80.740 -137.9643
2.140000 80.761 -139.8036
2.180000 80.796 -143.4232
2.200000 80.810 -145.2004
2.240000 80.835 -148.6407
2.270000 80.851 -151.1260
2.300000 80.863 -153.5499
2.330000 80.871 -155.9305
2.360000 80.875 -158.2858
2.400000 80.872 -161.4182
2.430000 80.863 -163.7847
2.470000 80.839 -166.9974
2.500000 80.812 -169.4733
2.540000 80.762 -172.8973
2.580000 80.697 -176.5146
2.620000 80.625 179.5609
2.650000 80.566 176.4535
2.690000 80.479 172.1736
2.720000 80.405 168.9169
2.760000 80.292 164.5940
2.800000 80.161 160.3868
2.850000 79.964 155.4459
2.900000 79.727 151.0441
2.950000 79.448 147.4362
3.000000 79.162 145.0833
3.040000 78.925 143.8748
3.070000 78.735 143.1890
3.110000 78.456 142.3582
3.150000 78.139 141.3817
3.200000 77.672 139.5562
3.250000 77.108 136.5793
3.300000 76.425 131.9434
3.350000 75.504 126.1432
3.400000 74.348 119.6643
3.450000 73.065 112.3566
3.500000 71.767 104.0703
3.550000 70.561 94.6552
3.600000 69.559 83.9616
3.650000 68.869 71.8394
3.700000 68.534 57.5951
3.750000 68.434 40.4020
3.820000 68.624 13.2634
3.870000 68.957 -6.8853
3.950000 69.754 -37.5363
4.000000 70.372 -54.0637
4.060000 71.239 -69.9682
4.120000 72.425 -83.2968
4.180000 73.840 -94.6108
4.250000 75.602 -105.5865
4.310000 77.055 -113.3634
4.370000 78.316 -119.8896
4.440000 79.438 -125.6465
4.500000 80.223 -127.9886
4.550000 80.785 -128.6517
4.620000 81.470 -128.6141
4.680000 81.995 -128.6165
4.750000 82.580 -129.8663
4.820000 83.139 -133.0020
4.870000 83.492 -135.8148
4.940000 83.933 -140.1910
5.000000 84.271 -144.0448
5.080000 84.683 -148.8206
5.150000 85.022 -152.2169
5.220000 85.325 -155.0519
5.300000 85.625 -157.8699
5.380000 85.888 -160.3890
5.450000 86.099 -162.4725
5.520000 86.298 -164.5359
5.600000 86.498 -166.7444
5.700000 86.711 -169.2755
5.800000 86.900 -171.6358
5.900000 87.081 -173.9167
6.000000 87.241 -176.1474
6.080000 87.359 -177.8225
6.150000 87.459 -179.1535
6.220000 87.562 179.6863
6.300000 87.682 178.6303
6.400000 87.829 177.6489
6.500000 87.979 176.8477
6.600000 88.136 176.0169
6.700000 88.302 175.1080
6.800000 88.474 174.2241
6.900000 88.652 173.4268
7.000000 88.836 172.7766
7.100000 89.027 172.2848
7.200000 89.223 171.8877
7.300000 89.425 171.5159
7.400000 89.633 171.1252
7.500000 89.845 170.7494
7.620000 90.109 170.3423
7.750000 90.407 169.9858
7.880000 90.717 169.7261
8.000000 91.016 169.5216
8.120000 91.331 169.3135
8.250000 91.690 169.1157
8.380000 92.064 168.8862
8.500000 92.423 168.6002
8.620000 92.796 168.2678
8.750000 93.210 167.8246
8.850000 93.530 167.4066
9.000000 94.021 166.6719
9.120000 94.414 165.9776
9.250000 94.838 165.1005
9.380000 95.262 164.1003
9.500000 95.644 163.0927
9.620000 96.015 162.0133
9.750000 96.406 160.7546
9.880000 96.780 159.4255
10.000000 97.108 158.1396
10.150000 97.496 156.4513
10.300000 97.865 154.7057
10.440000 98.191 153.0234
10.600000 98.546 151.0455
10.750000 98.867 149.1459
10.900000 99.174 147.2009
11.060000 99.488 145.0865
11.200000 99.751 143.2009
11.380000 100.073 140.7371
11.500000 100.277 139.0701
11.720000 100.630 135.9715
11.800000 100.753 134.8337
12.060000 101.128 131.0982
12.200000 101.316 129.0747
12.410000 101.579 126.0266
12.500000 101.684 124.7224
12.650000 101.850 122.5479
12.800000 102.005 120.3819
13.150000 102.323 115.3828
13.200000 102.365 114.6776
13.400000 102.520 111.8781
13.600000 102.662 109.1235
13.800000 102.791 106.4177
14.000000 102.907 103.7646
14.300000 103.060 99.8870
14.500000 103.149 97.3714
14.750000 103.247 94.3056
15.000000 103.334 91.3279
15.250000 103.410 88.4409
15.500000 103.475 85.6479
15.750000 103.529 82.9520
16.000000 103.570 80.3573
16.250000 103.601 77.8654
16.500000 103.623 75.4753
16.750000 103.637 73.1846
17.000000 103.644 70.9844
17.250000 103.645 68.8690
17.500000 103.639 66.8312
17.750000 103.626 64.8633
18.000000 103.605 62.9627
18.250000 103.576 61.1265
18.500000 103.539 59.3529
18.750000 103.497 57.6395
19.000000 103.449 55.9843
19.250000 103.397 54.3807
19.500000 103.342 52.8234
19.750000 103.283 51.3076
20.000000 103.222 49.8268
20.299999 103.145 48.0917
20.600000 103.066 46.3997
20.900000 102.985 44.7502
21.200001 102.903 43.1434
21.400000 102.850 42.0959
21.799999 102.746 40.0562
22.000000 102.697 39.0633
22.400000 102.603 37.1318
22.700001 102.538 35.7339
23.000000 102.476 34.3864
23.299999 102.418 33.0979
23.600000 102.364 31.8766
24.000000 102.297 30.3642
24.299999 102.250 29.3229
24.700001 102.194 28.0602
25.000000 102.155 27.2047
25.400000 102.105 26.1781
25.799999 102.057 25.2692
26.200001 102.008 24.4606
26.500000 101.971 23.9082
26.900000 101.918 23.2290
27.200001 101.876 22.7517
27.600000 101.815 22.1443
28.000000 101.751 21.5518
28.500000 101.667 20.7993
29.000000 101.581 19.9869
29.500000 101.495 19.0723
30.000000 101.410 18.0307
30.400000 101.342 17.1085
30.700001 101.291 16.3724
31.100000 101.227 15.3466
31.500000 101.168 14.2869
32.000000 101.102 12.9429
32.500000 101.047 11.6116
33.000000 101.000 10.3350
33.500000 100.959 9.1555
34.000000 100.922 8.1132
34.500000 100.888 7.2287
35.000000 100.855 6.4935
35.500000 100.819 5.8768
36.000000 100.773 5.3495
36.500000 100.713 4.8982
37.000000 100.639 4.5132
37.500000 100.552 4.1709
38.200001 100.416 3.6873
38.700001 100.311 3.2939
39.500000 100.138 2.5496
40.000000 100.033 2.0081
40.599998 99.917 1.2827
41.200001 99.814 0.5049
41.799999 99.726 -0.2690
42.500000 99.647 -1.1042
43.099998 99.598 -1.7378
43.700001 99.560 -2.2810
44.400002 99.518 -2.7855
45.000000 99.477 -3.1053
45.500000 99.436 -3.3010
46.200001 99.368 -3.4942
46.799999 99.300 -3.6255
47.500000 99.213 -3.8014
48.200001 99.121 -4.0585
48.700001 99.054 -4.3091
49.400002 98.960 -4.7431
50.000000 98.886 -5.1681
50.799999 98.802 -5.7899
51.500000 98.739 -6.3495
52.200001 98.679 -6.8187
53.000000 98.623 -7.1461
53.799999 98.586 -7.3252
54.500000 98.556 -7.4597
55.200001 98.514 -7.5806
56.000000 98.448 -7.6716
57.000000 98.353 -7.7910
58.000000 98.238 -8.0352
59.000000 98.114 -8.1826
60.000000 98.051 -8.2897
60.799999 98.031 -8.6573
61.500000 97.997 -9.0776
62.200001 97.951 -9.3873
63.000000 97.903 -9.5970
64.000000 97.849 -9.7819
65.000000 97.791 -9.9095
66.000000 97.727 -10.0395
67.000000 97.657 -10.1974
68.000000 97.585 -10.3741
69.000000 97.517 -10.5645
70.000000 97.457 -10.7384
71.000000 97.406 -10.8891
72.000000 97.359 -11.0256
73.000000 97.309 -11.1372
74.000000 97.255 -11.2012
75.000000 97.203 -11.2366
76.199997 97.143 -11.3074
77.500000 97.076 -11.4321
78.800003 97.007 -11.5439
80.000000 96.947 -11.6175
81.199997 96.892 -11.6653
82.500000 96.840 -11.6992
83.800003 96.789 -11.7574
85.000000 96.740 -11.7935
86.199997 96.693 -11.8166
87.500000 96.644 -11.8505
88.500000 96.606 -11.8806
90.000000 96.550 -11.9208
91.199997 96.510 -11.9458
92.500000 96.469 -11.9716
93.800003 96.428 -11.9770
95.000000 96.391 -11.9515
96.199997 96.354 -11.9289
97.500000 96.311 -11.9020
98.800003 96.270 -11.8634
100.000000 96.236 -11.8488
101.500000 96.193 -11.8320
103.000000 96.152 -11.7598
104.400002 96.121 -11.6776
106.000000 96.086 -11.6382
107.500000 96.046 -11.6184
109.000000 96.007 -11.5792
110.599998 95.972 -11.5358
112.000000 95.941 -11.4933
113.800003 95.900 -11.3929
115.000000 95.873 -11.3152
117.199997 95.822 -11.2041
118.000000 95.802 -11.1663
120.599998 95.750 -11.0057
122.000000 95.733 -10.9641
124.099998 95.714 -10.9420
125.000000 95.706 -10.9414
126.500000 95.690 -10.9148
128.000000 95.675 -10.8429
131.500000 95.633 -10.6613
132.000000 95.626 -10.6230
134.000000 95.609 -10.4773
136.000000 95.601 -10.4208
138.000000 95.589 -10.3865
140.000000 95.578 -10.3190
143.000000 95.562 -10.1821
145.000000 95.551 -10.0869
147.500000 95.539 -10.0159
150.000000 95.528 -9.9590
152.500000 95.524 -9.8757
155.000000 95.523 -9.7892
157.500000 95.518 -9.7056
160.000000 95.512 -9.6268
162.500000 95.510 -9.5778
165.000000 95.509 -9.5503
167.500000 95.506 -9.4853
170.000000 95.505 -9.3840
172.500000 95.507 -9.3181
175.000000 95.505 -9.3088
177.500000 95.502 -9.3230
180.000000 95.503 -9.3309
182.500000 95.508 -9.3373
185.000000 95.510 -9.3282
187.500000 95.512 -9.3278
190.000000 95.517 -9.3859
192.500000 95.518 -9.4485
195.000000 95.518 -9.4469
197.500000 95.521 -9.4451
200.000000 95.526 -9.5051
203.000000 95.529 -9.5822
206.000000 95.535 -9.6617
209.000000 95.538 -9.7555
212.000000 95.541 -9.8234
214.000000 95.543 -9.8676
218.000000 95.551 -9.9986
220.000000 95.558 -10.0953
224.000000 95.570 -10.3002
227.000000 95.576 -10.4415
230.000000 95.577 -10.5828
233.000000 95.571 -10.7312
236.000000 95.564 -10.8788
240.000000 95.566 -10.9937
243.000000 95.572 -11.0771
247.000000 95.564 -11.3007
250.000000 95.558 -11.5155
254.000000 95.555 -11.8257
258.000000 95.550 -12.1310
262.000000 95.543 -12.4172
265.000000 95.537 -12.6218
269.000000 95.526 -12.8894
272.000000 95.513 -13.0679
276.000000 95.498 -13.3381
280.000000 95.489 -13.6561
285.000000 95.473 -14.0005
290.000000 95.452 -14.3148
295.000000 95.424 -14.6651
300.000000 95.390 -15.0341
304.000000 95.364 -15.3604
307.000000 95.344 -15.5853
311.000000 95.311 -15.8417
315.000000 95.278 -16.0922
320.000000 95.237 -16.4262
325.000000 95.187 -16.7396
330.000000 95.129 -17.0720
335.000000 95.074 -17.3594
340.000000 95.019 -17.5927
345.000000 94.956 -17.8343
350.000000 94.884 -18.0591
355.000000 94.813 -18.2538
360.000000 94.749 -18.4162
365.000000 94.684 -18.5269
370.000000 94.611 -18.5948
375.000000 94.535 -18.6560
382.000000 94.435 -18.7505
387.000000 94.368 -18.7758
395.000000 94.261 -18.7622
400.000000 94.196 -18.7425
406.000000 94.119 -18.6883
412.000000 94.047 -18.6002
418.000000 93.981 -18.4396
425.000000 93.904 -18.2463
431.000000 93.846 -18.1092
437.000000 93.796 -17.9750
444.000000 93.742 -17.8052
450.000000 93.697 -17.6353
455.000000 93.659 -17.5160
462.000000 93.607 -17.3823
468.000000 93.572 -17.2752
475.000000 93.544 -17.1738
482.000000 93.518 -17.1043
487.000000 93.499 -17.0610
494.000000 93.471 -17.0244
500.000000 93.442 -17.0419
508.000000 93.403 -17.1446
515.000000 93.373 -17.2730
522.000000 93.345 -17.3712
530.000000 93.311 -17.4715
538.000000 93.270 -17.6647
545.000000 93.224 -17.8739
552.000000 93.170 -18.0812
560.000000 93.108 -18.3381
570.000000 93.025 -18.6631
580.000000 92.926 -18.9630
590.000000 92.808 -19.2737
600.000000 92.684 -19.5511
608.000000 92.574 -19.7575
615.000000 92.472 -19.9426
622.000000 92.367 -20.0839
630.000000 92.238 -20.1686
640.000000 92.068 -20.2292
650.000000 91.889 -20.2320
660.000000 91.698 -20.1376
670.000000 91.491 -19.9294
680.000000 91.290 -19.6131
690.000000 91.094 -19.1910
700.000000 90.902 -18.6561
710.000000 90.703 -17.9763
720.000000 90.506 -17.1981
730.000000 90.331 -16.3494
740.000000 90.161 -15.3771
750.000000 89.996 -14.2961
762.000000 89.819 -12.9423
775.000000 89.661 -11.3481
788.000000 89.522 -9.6365
800.000000 89.410 -8.1252
812.000000 89.319 -6.6487
825.000000 89.246 -5.0364
838.000000 89.197 -3.4545
850.000000 89.156 -2.0584
862.000000 89.126 -0.7236
875.000000 89.108 0.7061
885.000000 89.096 1.7814
900.000000 89.082 3.3358
912.000000 89.084 4.5491
925.000000 89.089 5.8146
938.000000 89.093 6.9826
950.000000 89.097 8.0444
962.000000 89.097 9.0685
975.000000 89.096 10.1179
988.000000 89.099 11.2125
1000.000000 89.110 12.2654
1015.000000 89.119 13.5565
1030.000000 89.128 14.8842
1044.000000 89.151 16.1135
1060.000000 89.184 17.5002
1075.000000 89.220 18.8439
1090.000000 89.271 20.1765
1106.000000 89.350 21.5737
1120.000000 89.433 22.7449
1138.000000 89.555 24.2300
1150.000000 89.645 25.1748
1172.000000 89.812 26.7307
1180.000000 89.879 27.2606
1206.000000 90.109 28.8765
1220.000000 90.230 29.6530
1241.000000 90.411 30.6946
1250.000000 90.490 31.1039
1265.000000 90.624 31.7777
1280.000000 90.752 32.4265
1315.000000 91.020 33.6969
1320.000000 91.055 33.8744
1340.000000 91.185 34.5873
1360.000000 91.291 35.3098
1380.000000 91.385 36.0311
1400.000000 91.490 36.8011
1430.000000 91.664 38.1052
1450.000000 91.793 38.9924
1475.000000 91.970 40.1456
1500.000000 92.162 41.3176
1525.000000 92.366 42.4545
1550.000000 92.589 43.5099
1575.000000 92.819 44.4389
1600.000000 93.056 45.2198
1625.000000 93.303 45.9155
1650.000000 93.557 46.5084
1675.000000 93.807 46.9783
1700.000000 94.056 47.3017
1725.000000 94.306 47.5023
1750.000000 94.544 47.5803
1775.000000 94.770 47.5946
1800.000000 94.996 47.6014
1825.000000 95.218 47.5406
1850.000000 95.432 47.4127
1875.000000 95.640 47.2267
1900.000000 95.841 46.9740
1925.000000 96.040 46.6588
1950.000000 96.234 46.3022
1975.000000 96.421 45.9111
2000.000000 96.603 45.4590
2030.000000 96.815 44.8335
2060.000000 97.017 44.0938
2090.000000 97.203 43.2501
2120.000000 97.373 42.3340
2140.000000 97.474 41.6777
2180.000000 97.644 40.3118
2200.000000 97.714 39.6298
2240.000000 97.826 38.3044
2270.000000 97.888 37.3542
2300.000000 97.936 36.4534
2330.000000 97.972 35.6243
2360.000000 97.998 34.8705
2400.000000 98.029 33.9991
2430.000000 98.057 33.4394
2470.000000 98.109 32.7535
2500.000000 98.158 32.2029
2540.000000 98.222 31.3464
2580.000000 98.271 30.3454
2620.000000 98.293 29.2208
2650.000000 98.285 28.3524
2690.000000 98.240 27.2557
2720.000000 98.181 26.5518
2760.000000 98.080 25.7990
2800.000000 97.966 25.2421
2850.000000 97.814 24.8431
2900.000000 97.674 24.7828
2950.000000 97.567 25.0465
3000.000000 97.502 25.4724
3040.000000 97.481 25.8068
3070.000000 97.482 26.0068
3110.000000 97.494 26.1484
3150.000000 97.510 26.1476
3200.000000 97.516 26.0193
3250.000000 97.498 25.8769
3300.000000 97.464 25.8287
3350.000000 97.430 25.9246
3400.000000 97.410 26.1384
3450.000000 97.414 26.3886
3500.000000 97.437 26.5812
3550.000000 97.464 26.6640
3600.000000 97.483 26.6708
3650.000000 97.486 26.6862
3700.000000 97.477 26.7869
3750.000000 97.469 27.0176
3820.000000 97.479 27.5280
3870.000000 97.512 27.9598
3950.000000 97.616 28.5297
4000.000000 97.704 28.7054
4060.000000 97.814 28.6881
4120.000000 97.913 28.4677
4180.000000 97.994 28.1503
4250.000000 98.075 27.7341
4310.000000 98.133 27.3574
4370.000000 98.179 26.9436
4440.000000 98.225 26.3622
4500.000000 98.258 25.7575
4550.000000 98.274 25.1796
4620.000000 98.272 24.2949
4680.000000 98.246 23.5348
4750.000000 98.192 22.7242
4820.000000 98.125 22.0257
4870.000000 98.076 21.5818
4940.000000 98.012 20.9717
5000.000000 97.959 20.4041
5080.000000 97.875 19.5460
5150.000000 97.778 18.7480
5220.000000 97.655 17.9896
5300.000000 97.488 17.2303
5380.000000 97.299 16.6104
5450.000000 97.115 16.2186
5520.000000 96.920 15.9952
5600.000000 96.682 15.9623
5700.000000 96.387 16.3317
5800.000000 96.139 17.1164
5900.000000 95.941 18.0825
6000.000000 95.781 19.0967
6080.000000 95.671 19.9159
6150.000000 95.585 20.6578
6220.000000 95.505 21.4601
6300.000000 95.428 22.4755
6400.000000 95.365 23.8082
6500.000000 95.328 25.0594
6600.000000 95.292 26.2916
6700.000000 95.257 27.7723
6800.000000 95.261 29.6421
6900.000000 95.352 31.8484
7000.000000 95.553 34.2551
7100.000000 95.878 36.8079
7200.000000 96.359 39.3831
7300.000000 97.036 41.6089
7400.000000 97.911 42.8990
7500.000000 98.927 42.6106
7620.000000 100.204 39.5634
7750.000000 101.435 32.6626
7880.000000 102.191 22.3668
8000.000000 102.310 11.1576
8120.000000 101.842 0.4616
8250.000000 100.820 -8.4127
8380.000000 99.531 -13.7725
8500.000000 98.311 -16.0275
8620.000000 97.179 -16.3747
8750.000000 96.101 -15.3244
8850.000000 95.379 -13.8542
9000.000000 94.466 -10.9113
9120.000000 93.873 -8.1390
9250.000000 93.357 -4.8942
9380.000000 92.965 -1.5641
9500.000000 92.694 1.4238
9620.000000 92.486 4.3174
9750.000000 92.326 7.4379
9880.000000 92.235 10.5939
10000.000000 92.212 13.5314
10150.000000 92.275 17.1761
10300.000000 92.439 20.6881
10440.000000 92.684 23.7303
10600.000000 93.068 26.7736
10750.000000 93.514 29.1211
10900.000000 94.032 30.9310
11060.000000 94.653 32.1552
11200.000000 95.232 32.4922
11380.000000 95.976 31.7950
11500.000000 96.446 30.6546
11720.000000 97.197 27.4429
11800.000000 97.422 26.0291
12060.000000 97.994 21.4635
12200.000000 98.302 19.4696
12410.000000 99.064 16.4652
12500.000000 99.558 14.4888
12650.000000 100.576 9.0178
12800.000000 101.598 -0.2020
13150.000000 101.824 -27.6883
13200.000000 101.504 -30.8954
13400.000000 99.550 -40.2781
13600.000000 97.090 -44.4160
13800.000000 94.747 -44.7424
14000.000000 92.816 -42.8444
14300.000000 90.729 -38.2734
14500.000000 89.790 -34.8047
14750.000000 89.047 -30.3894
15000.000000 88.731 -26.3027
15250.000000 88.805 -23.0397
15500.000000 89.226 -21.0771
15750.000000 89.896 -20.7135
16000.000000 90.716 -22.3010
16250.000000 91.563 -26.9954
16500.000000 92.098 -35.8881
16750.000000 91.888 -47.5052
17000.000000 90.823 -57.5170
17250.000000 89.243 -63.2245
17500.000000 87.571 -65.1861
17750.000000 86.038 -64.9520
18000.000000 84.694 -63.6850
18250.000000 83.490 -61.5452
18500.000000 82.401 -58.8425
18750.000000 81.358 -56.0945
19000.000000 80.379 -53.3074
19250.000000 79.529 -50.5547
19500.000000 78.795 -48.1033
19750.000000 78.167 -46.5303
20000.000000 77.526 -46.6457
20300.000000 76.547 -50.2105
20600.000000 75.021 -58.0686
20900.000000 72.487 -68.6057
21200.000000 68.693 -81.6211
21400.000000 65.445 -103.7053
21800.000000 57.574 -123.3901
22000.000000 53.511 108.3333
22400.000000 47.435 -154.7402
22700.000000 45.586 -94.7822
23000.000000 44.931 -119.3965
23300.000000 44.430 -32.7461
23600.000000 44.071 113.4609
24000.000000 43.950 117.5156
24300.000000 44.217 85.0156
24700.000000 44.384 -35.5156
25000.000000 44.585 -166.0391
25400.000000 45.209 19.6562
25800.000000 45.614 56.6875
26200.000000 45.296 -171.0000
26500.000000 44.969 -63.0938
26900.000000 44.977 20.3750
27200.000000 45.137 -160.7656
27600.000000 45.416 47.5312
28000.000000 45.753 81.3125
28500.000000 46.453 -108.7188
29000.000000 47.076 -54.5000
29500.000000 47.299 156.2500
30000.000000 47.278 -164.9375
