* Measurement data measured by REW V5.20.13
* Source: Headset (DS by VECLAN.COM), MICROPHONE (Master Volume), L, volume: 0.500. Timing signal peak level -14.8 dBFS, measurement signal peak level -12.9 dBFS
* Format: 2M Log Swept Sine, 1 sweep at -12.0 dBFS using an acoustic timing reference
* Dated: Oct 30, 2023 5:17:14 PM
* REW Settings:
*  C-weighting compensation: Off
*  Target level: 75.0 dB
* Note: ; Delay -0.0616 ms (-21 mm, -0.83 in) using estimated IR delay relative to Acoustic reference played from HEADPHONE R with no timing offset
* Measurement: CCA CRA S2 R
* Smoothing: 1/24 octave
* Frequency Step: 1/48 octave
* Start Frequency: 1.000 Hz
*
* Freq(Hz) SPL(dB) Phase(degrees)
1.000000 78.960 -32.5167
1.015000 79.215 -33.0609
1.030000 79.464 -33.5920
1.044000 79.690 -34.0743
1.060000 79.939 -34.6078
1.075000 80.162 -35.0888
1.090000 80.373 -35.5495
1.106000 80.585 -36.0175
1.120000 80.767 -36.4120
1.138000 80.998 -36.9014
1.150000 81.150 -37.2171
1.172000 81.424 -37.7757
1.180000 81.522 -37.9727
1.206000 81.838 -38.5927
1.220000 82.004 -38.9148
1.241000 82.250 -39.3842
1.250000 82.353 -39.5809
1.265000 82.524 -39.9034
1.280000 82.692 -40.2199
1.315000 83.073 -40.9400
1.320000 83.126 -41.0412
1.340000 83.336 -41.4432
1.360000 83.540 -41.8421
1.380000 83.740 -42.2398
1.400000 83.934 -42.6384
1.430000 84.215 -43.2421
1.450000 84.395 -43.6515
1.475000 84.613 -44.1730
1.500000 84.817 -44.6957
1.525000 85.009 -45.2163
1.550000 85.188 -45.7342
1.575000 85.358 -46.2485
1.600000 85.519 -46.7588
1.625000 85.673 -47.2642
1.650000 85.821 -47.7641
1.675000 85.964 -48.2579
1.700000 86.105 -48.7447
1.725000 86.244 -49.2241
1.750000 86.383 -49.6951
1.775000 86.524 -50.1573
1.800000 86.667 -50.6099
1.825000 86.814 -51.0522
1.850000 86.965 -51.4813
1.875000 87.114 -51.8926
1.900000 87.262 -52.2883
1.925000 87.409 -52.6709
1.950000 87.555 -53.0430
1.975000 87.700 -53.4069
2.000000 87.844 -53.7653
2.030000 88.015 -54.1913
2.060000 88.186 -54.6172
2.090000 88.356 -55.0472
2.120000 88.525 -55.4855
2.140000 88.637 -55.7845
2.180000 88.862 -56.4045
2.200000 88.974 -56.7280
2.240000 89.199 -57.3943
2.270000 89.368 -57.9063
2.300000 89.537 -58.4271
2.330000 89.705 -58.9551
2.360000 89.872 -59.4889
2.400000 90.094 -60.2068
2.430000 90.258 -60.7479
2.470000 90.474 -61.4700
2.500000 90.633 -62.0101
2.540000 90.842 -62.7253
2.580000 91.045 -63.4325
2.620000 91.244 -64.1374
2.650000 91.390 -64.6657
2.690000 91.583 -65.3699
2.720000 91.725 -65.8981
2.760000 91.911 -66.6027
2.800000 92.094 -67.3077
2.850000 92.317 -68.1903
2.900000 92.536 -69.0747
2.950000 92.750 -69.9615
3.000000 92.958 -70.8518
3.040000 93.120 -71.5658
3.070000 93.240 -72.1020
3.110000 93.397 -72.8175
3.150000 93.550 -73.5331
3.200000 93.738 -74.4268
3.250000 93.921 -75.3187
3.300000 94.099 -76.2077
3.350000 94.273 -77.0985
3.400000 94.441 -77.9926
3.450000 94.605 -78.8868
3.500000 94.764 -79.7774
3.550000 94.918 -80.6612
3.600000 95.069 -81.5347
3.650000 95.216 -82.3945
3.700000 95.360 -83.2386
3.750000 95.498 -84.0698
3.820000 95.686 -85.2156
3.870000 95.815 -86.0238
3.950000 96.014 -87.3046
4.000000 96.135 -88.1002
4.060000 96.277 -89.0534
4.120000 96.413 -90.0050
4.180000 96.545 -90.9514
4.250000 96.693 -92.0439
4.310000 96.816 -92.9657
4.370000 96.936 -93.8699
4.440000 97.072 -94.8985
4.500000 97.184 -95.7594
4.550000 97.274 -96.4645
4.620000 97.397 -97.4363
4.680000 97.500 -98.2583
4.750000 97.617 -99.2087
4.820000 97.730 -100.1515
4.870000 97.809 -100.8183
4.940000 97.916 -101.7412
5.000000 98.005 -102.5217
5.080000 98.120 -103.5456
5.150000 98.219 -104.4243
5.220000 98.314 -105.2854
5.300000 98.420 -106.2504
5.380000 98.522 -107.1987
5.450000 98.609 -108.0181
5.520000 98.694 -108.8300
5.600000 98.788 -109.7460
5.700000 98.902 -110.8725
5.800000 99.011 -111.9798
5.900000 99.116 -113.0690
6.000000 99.217 -114.1394
6.080000 99.294 -114.9823
6.150000 99.360 -115.7103
6.220000 99.425 -116.4296
6.300000 99.496 -117.2406
6.400000 99.581 -118.2377
6.500000 99.664 -119.2175
6.600000 99.743 -120.1815
6.700000 99.818 -121.1304
6.800000 99.891 -122.0633
6.900000 99.961 -122.9792
7.000000 100.028 -123.8773
7.100000 100.092 -124.7573
7.200000 100.154 -125.6203
7.300000 100.213 -126.4672
7.400000 100.270 -127.2986
7.500000 100.325 -128.1138
7.620000 100.388 -129.0713
7.750000 100.454 -130.0834
7.880000 100.516 -131.0683
8.000000 100.571 -131.9558
8.120000 100.624 -132.8246
8.250000 100.680 -133.7434
8.380000 100.733 -134.6408
8.500000 100.780 -135.4518
8.620000 100.826 -136.2450
8.750000 100.873 -137.0868
8.850000 100.909 -137.7235
9.000000 100.960 -138.6592
9.120000 100.999 -139.3926
9.250000 101.042 -140.1727
9.380000 101.083 -140.9373
9.500000 101.119 -141.6317
9.620000 101.151 -142.3166
9.750000 101.182 -143.0469
9.880000 101.207 -143.7655
10.000000 101.221 -144.4202
10.150000 101.229 -145.2246
10.300000 101.230 -146.0057
10.440000 101.222 -146.7122
10.600000 101.209 -147.4973
10.750000 101.197 -148.2120
10.900000 101.184 -148.9077
11.060000 101.172 -149.6399
11.200000 101.162 -150.2717
11.380000 101.149 -151.0686
11.500000 101.140 -151.5895
11.720000 101.124 -152.5251
11.800000 101.119 -152.8593
12.060000 101.103 -153.9253
12.200000 101.095 -154.4921
12.410000 101.085 -155.3303
12.500000 101.081 -155.6829
12.650000 101.072 -156.2628
12.800000 101.062 -156.8313
13.150000 101.037 -158.1101
13.200000 101.034 -158.2876
13.400000 101.020 -158.9843
13.600000 101.007 -159.6618
13.800000 100.996 -160.3198
14.000000 100.986 -160.9656
14.300000 100.971 -161.9145
14.500000 100.960 -162.5361
14.750000 100.948 -163.3019
15.000000 100.936 -164.0563
15.250000 100.926 -164.8029
15.500000 100.916 -165.5356
15.750000 100.905 -166.2513
16.000000 100.893 -166.9462
16.250000 100.880 -167.6234
16.500000 100.867 -168.2838
16.750000 100.853 -168.9281
17.000000 100.841 -169.5580
17.250000 100.829 -170.1743
17.500000 100.818 -170.7778
17.750000 100.806 -171.3687
18.000000 100.793 -171.9476
18.250000 100.781 -172.5157
18.500000 100.768 -173.0727
18.750000 100.755 -173.6193
19.000000 100.742 -174.1560
19.250000 100.730 -174.6846
19.500000 100.718 -175.2047
19.750000 100.706 -175.7160
20.000000 100.693 -176.2178
20.299999 100.677 -176.8087
20.600000 100.660 -177.3879
20.900000 100.642 -177.9565
21.200001 100.623 -178.5148
21.400000 100.610 -178.8812
21.799999 100.582 -179.5998
22.000000 100.567 -179.9520
22.400000 100.538 179.3575
22.700001 100.515 178.8520
23.000000 100.492 178.3560
23.299999 100.469 177.8677
23.600000 100.446 177.3861
24.000000 100.416 176.7542
24.299999 100.394 176.2880
24.700001 100.364 175.6769
25.000000 100.341 175.2269
25.400000 100.309 174.6385
25.799999 100.277 174.0644
26.200001 100.245 173.5051
26.500000 100.220 173.0952
26.900000 100.188 172.5609
27.200001 100.164 172.1681
27.600000 100.133 171.6530
28.000000 100.101 171.1466
28.500000 100.060 170.5264
29.000000 100.019 169.9221
29.500000 99.977 169.3334
30.000000 99.934 168.7570
30.400000 99.898 168.3029
30.700001 99.870 167.9669
31.100000 99.832 167.5268
31.500000 99.794 167.0981
32.000000 99.745 166.5781
32.500000 99.698 166.0714
33.000000 99.651 165.5715
33.500000 99.603 165.0770
34.000000 99.556 164.5920
34.500000 99.510 164.1210
35.000000 99.464 163.6640
35.500000 99.420 163.2177
36.000000 99.375 162.7794
36.500000 99.330 162.3489
37.000000 99.286 161.9266
37.500000 99.241 161.5117
38.200001 99.176 160.9423
38.700001 99.129 160.5458
39.500000 99.053 159.9365
40.000000 99.006 159.5706
40.599998 98.950 159.1387
41.200001 98.895 158.7068
41.799999 98.838 158.2809
42.500000 98.770 157.8085
43.099998 98.715 157.4230
43.700001 98.661 157.0402
44.400002 98.596 156.6036
45.000000 98.539 156.2625
45.500000 98.495 156.0004
46.200001 98.440 155.6246
46.799999 98.393 155.2659
47.500000 98.333 154.8345
48.200001 98.269 154.4381
48.700001 98.224 154.1776
49.400002 98.163 153.8212
50.000000 98.112 153.5153
50.799999 98.043 153.1163
51.500000 97.983 152.7792
52.200001 97.923 152.4500
53.000000 97.855 152.0818
53.799999 97.786 151.7260
54.500000 97.726 151.4266
55.200001 97.666 151.1344
56.000000 97.598 150.8067
57.000000 97.512 150.4233
58.000000 97.431 150.0531
59.000000 97.347 149.6622
60.000000 97.258 149.3121
60.799999 97.189 149.0734
61.500000 97.132 148.8656
62.200001 97.076 148.6501
63.000000 97.011 148.4027
64.000000 96.930 148.1014
65.000000 96.849 147.8129
66.000000 96.769 147.5349
67.000000 96.690 147.2647
68.000000 96.611 147.0051
69.000000 96.532 146.7608
70.000000 96.454 146.5284
71.000000 96.376 146.3046
72.000000 96.298 146.0900
73.000000 96.221 145.8801
74.000000 96.144 145.6786
75.000000 96.069 145.4900
76.199997 95.981 145.2673
77.500000 95.886 145.0292
78.800003 95.792 144.8097
80.000000 95.705 144.6233
81.199997 95.619 144.4526
82.500000 95.527 144.2767
83.800003 95.438 144.1021
85.000000 95.355 143.9435
86.199997 95.274 143.7999
87.500000 95.188 143.6572
88.500000 95.123 143.5531
90.000000 95.027 143.4110
91.199997 94.951 143.3087
92.500000 94.871 143.2002
93.800003 94.792 143.0894
95.000000 94.718 142.9922
96.199997 94.644 142.9052
97.500000 94.563 142.8207
98.800003 94.483 142.7497
100.000000 94.410 142.6900
101.500000 94.320 142.6169
103.000000 94.230 142.5472
104.400002 94.148 142.4902
106.000000 94.056 142.4341
107.500000 93.972 142.3863
109.000000 93.887 142.3537
110.599998 93.797 142.3421
112.000000 93.720 142.3307
113.800003 93.622 142.3014
115.000000 93.557 142.2836
117.199997 93.441 142.2686
118.000000 93.400 142.2681
120.599998 93.269 142.2761
122.000000 93.199 142.2950
124.099998 93.096 142.3289
125.000000 93.052 142.3444
126.500000 92.981 142.3713
128.000000 92.912 142.4022
131.500000 92.756 142.4996
132.000000 92.734 142.5150
134.000000 92.647 142.5807
136.000000 92.562 142.6539
138.000000 92.480 142.7320
140.000000 92.400 142.8157
143.000000 92.283 142.9571
145.000000 92.207 143.0571
147.500000 92.114 143.1833
150.000000 92.022 143.3086
152.500000 91.929 143.4434
155.000000 91.837 143.5927
157.500000 91.747 143.7476
160.000000 91.660 143.9069
162.500000 91.572 144.0721
165.000000 91.487 144.2426
167.500000 91.403 144.4166
170.000000 91.321 144.5952
172.500000 91.237 144.7781
175.000000 91.154 144.9674
177.500000 91.073 145.1600
180.000000 90.992 145.3523
182.500000 90.912 145.5480
185.000000 90.834 145.7476
187.500000 90.758 145.9519
190.000000 90.683 146.1606
192.500000 90.612 146.3714
195.000000 90.543 146.5837
197.500000 90.474 146.8027
200.000000 90.407 147.0270
203.000000 90.329 147.2927
206.000000 90.253 147.5557
209.000000 90.178 147.8204
212.000000 90.105 148.0914
214.000000 90.057 148.2740
218.000000 89.962 148.6459
220.000000 89.916 148.8365
224.000000 89.824 149.2140
227.000000 89.757 149.4904
230.000000 89.691 149.7700
233.000000 89.628 150.0571
236.000000 89.566 150.3483
240.000000 89.485 150.7310
243.000000 89.425 151.0141
247.000000 89.348 151.3917
250.000000 89.292 151.6748
254.000000 89.220 152.0615
258.000000 89.149 152.4543
262.000000 89.080 152.8438
265.000000 89.029 153.1362
269.000000 88.963 153.5265
272.000000 88.915 153.8192
276.000000 88.854 154.2111
280.000000 88.796 154.6026
285.000000 88.725 155.0925
290.000000 88.657 155.5787
295.000000 88.591 156.0609
300.000000 88.527 156.5498
304.000000 88.477 156.9434
307.000000 88.442 157.2383
311.000000 88.396 157.6291
315.000000 88.351 158.0172
320.000000 88.297 158.4987
325.000000 88.245 158.9797
330.000000 88.195 159.4587
335.000000 88.145 159.9363
340.000000 88.095 160.4167
345.000000 88.045 160.8978
350.000000 87.997 161.3804
355.000000 87.950 161.8604
360.000000 87.905 162.3361
365.000000 87.861 162.8063
370.000000 87.819 163.2748
375.000000 87.777 163.7427
382.000000 87.721 164.3956
387.000000 87.680 164.8616
395.000000 87.618 165.6056
400.000000 87.581 166.0700
406.000000 87.538 166.6267
412.000000 87.497 167.1799
418.000000 87.457 167.7313
425.000000 87.411 168.3708
431.000000 87.374 168.9159
437.000000 87.339 169.4604
444.000000 87.299 170.0905
450.000000 87.267 170.6261
455.000000 87.241 171.0717
462.000000 87.207 171.6953
468.000000 87.179 172.2279
475.000000 87.148 172.8469
482.000000 87.119 173.4623
487.000000 87.100 173.9006
494.000000 87.076 174.5151
500.000000 87.056 175.0408
508.000000 87.032 175.7341
515.000000 87.012 176.3400
522.000000 86.993 176.9442
530.000000 86.974 177.6306
538.000000 86.958 178.3120
545.000000 86.946 178.9058
552.000000 86.935 179.4980
560.000000 86.924 -179.8299
570.000000 86.912 -178.9913
580.000000 86.902 -178.1524
590.000000 86.894 -177.3177
600.000000 86.887 -176.4925
608.000000 86.882 -175.8350
615.000000 86.878 -175.2586
622.000000 86.874 -174.6839
630.000000 86.871 -174.0340
640.000000 86.870 -173.2274
650.000000 86.871 -172.4230
660.000000 86.875 -171.6210
670.000000 86.881 -170.8259
680.000000 86.890 -170.0376
690.000000 86.902 -169.2548
700.000000 86.916 -168.4770
710.000000 86.932 -167.7055
720.000000 86.950 -166.9439
730.000000 86.970 -166.1921
740.000000 86.991 -165.4464
750.000000 87.013 -164.7079
762.000000 87.040 -163.8356
775.000000 87.067 -162.9123
788.000000 87.093 -162.0023
800.000000 87.112 -161.1665
812.000000 87.124 -160.3248
825.000000 87.122 -159.3651
838.000000 87.098 -158.2301
850.000000 87.064 -156.7955
862.000000 87.075 -154.7424
875.000000 87.267 -152.1250
885.000000 87.558 -150.6672
900.000000 87.999 -150.2509
912.000000 88.223 -150.7305
925.000000 88.363 -151.2221
938.000000 88.460 -151.5305
950.000000 88.536 -151.7749
962.000000 88.593 -152.1203
975.000000 88.601 -152.6604
988.000000 88.509 -153.0863
1000.000000 88.350 -152.8020
1015.000000 88.203 -151.2432
1030.000000 88.236 -149.3135
1044.000000 88.367 -147.9774
1060.000000 88.534 -147.0152
1075.000000 88.675 -146.4138
1090.000000 88.805 -145.9477
1106.000000 88.938 -145.5252
1120.000000 89.049 -145.1941
1138.000000 89.184 -144.8032
1150.000000 89.269 -144.5583
1172.000000 89.418 -144.1356
1180.000000 89.471 -143.9891
1206.000000 89.636 -143.5337
1220.000000 89.724 -143.3000
1241.000000 89.856 -142.9623
1250.000000 89.912 -142.8217
1265.000000 90.003 -142.5914
1280.000000 90.092 -142.3662
1315.000000 90.293 -141.8605
1320.000000 90.320 -141.7900
1340.000000 90.423 -141.5115
1360.000000 90.505 -141.2383
1380.000000 90.585 -140.9719
1400.000000 90.678 -140.7127
1430.000000 90.824 -140.3316
1450.000000 90.919 -140.0849
1475.000000 91.037 -139.7872
1500.000000 91.153 -139.5005
1525.000000 91.266 -139.2244
1550.000000 91.373 -138.9599
1575.000000 91.476 -138.7072
1600.000000 91.578 -138.4683
1625.000000 91.679 -138.2435
1650.000000 91.780 -138.0335
1675.000000 91.880 -137.8394
1700.000000 91.978 -137.6597
1725.000000 92.073 -137.4948
1750.000000 92.167 -137.3461
1775.000000 92.258 -137.2132
1800.000000 92.347 -137.0947
1825.000000 92.435 -136.9909
1850.000000 92.520 -136.9025
1875.000000 92.603 -136.8284
1900.000000 92.684 -136.7669
1925.000000 92.763 -136.7169
1950.000000 92.840 -136.6776
1975.000000 92.914 -136.6487
2000.000000 92.986 -136.6309
2030.000000 93.070 -136.6257
2060.000000 93.150 -136.6402
2090.000000 93.227 -136.6738
2120.000000 93.299 -136.7223
2140.000000 93.344 -136.7599
2180.000000 93.428 -136.8409
2200.000000 93.465 -136.8824
2240.000000 93.532 -136.9639
2270.000000 93.577 -137.0217
2300.000000 93.617 -137.0752
2330.000000 93.654 -137.1215
2360.000000 93.687 -137.1588
2400.000000 93.725 -137.1929
2430.000000 93.750 -137.2060
2470.000000 93.778 -137.2037
2500.000000 93.796 -137.1857
2540.000000 93.815 -137.1389
2580.000000 93.830 -137.0631
2620.000000 93.841 -136.9566
2650.000000 93.847 -136.8558
2690.000000 93.853 -136.6926
2720.000000 93.856 -136.5489
2760.000000 93.857 -136.3295
2800.000000 93.856 -136.0776
2850.000000 93.854 -135.7177
2900.000000 93.853 -135.3118
2950.000000 93.852 -134.8605
3000.000000 93.851 -134.3626
3040.000000 93.852 -133.9307
3070.000000 93.853 -133.5857
3110.000000 93.856 -133.0934
3150.000000 93.860 -132.5568
3200.000000 93.871 -131.8087
3250.000000 93.895 -130.9711
3300.000000 93.939 -130.0804
3350.000000 94.007 -129.2112
3400.000000 94.093 -128.4236
3450.000000 94.189 -127.7232
3500.000000 94.293 -127.0810
3550.000000 94.401 -126.4684
3600.000000 94.511 -125.8710
3650.000000 94.626 -125.2870
3700.000000 94.748 -124.7185
3750.000000 94.879 -124.1682
3820.000000 95.075 -123.4411
3870.000000 95.226 -122.9751
3950.000000 95.488 -122.3927
4000.000000 95.662 -122.1628
4060.000000 95.877 -122.0354
4120.000000 96.097 -122.0765
4180.000000 96.319 -122.3047
4250.000000 96.577 -122.8594
4310.000000 96.781 -123.6342
4370.000000 96.943 -124.6942
4440.000000 97.055 -126.1337
4500.000000 97.081 -127.1957
4550.000000 97.091 -127.7316
4620.000000 97.179 -128.1841
4680.000000 97.331 -128.9376
4750.000000 97.504 -130.6479
4820.000000 97.590 -132.9909
4870.000000 97.586 -134.8168
4940.000000 97.494 -137.3603
5000.000000 97.347 -139.4165
5080.000000 97.070 -141.8674
5150.000000 96.765 -143.6663
5220.000000 96.418 -145.0987
5300.000000 95.984 -146.2764
5380.000000 95.525 -146.9830
5450.000000 95.109 -147.2245
5520.000000 94.686 -147.0991
5600.000000 94.204 -146.4796
5700.000000 93.625 -145.0242
5800.000000 93.088 -142.9550
5900.000000 92.578 -140.1349
6000.000000 92.205 -136.1528
6080.000000 92.118 -133.1484
6150.000000 92.080 -131.2782
6220.000000 91.995 -129.6245
6300.000000 91.876 -127.5272
6400.000000 91.757 -124.5843
6500.000000 91.698 -121.4536
6600.000000 91.704 -118.2506
6700.000000 91.780 -115.0539
6800.000000 91.932 -111.9257
6900.000000 92.176 -108.9203
7000.000000 92.512 -106.0792
7100.000000 92.931 -103.4435
7200.000000 93.435 -101.0793
7300.000000 94.035 -99.1088
7400.000000 94.742 -97.7262
7500.000000 95.559 -97.2095
7620.000000 96.671 -98.2610
7750.000000 97.909 -102.2936
7880.000000 98.866 -110.0102
8000.000000 99.270 -119.9791
8120.000000 99.076 -130.9004
8250.000000 98.221 -141.1836
8380.000000 96.911 -148.1619
8500.000000 95.529 -151.5229
8620.000000 94.144 -152.4435
8750.000000 92.735 -151.4158
8850.000000 91.747 -149.6010
9000.000000 90.435 -145.7089
9120.000000 89.532 -141.8797
9250.000000 88.688 -137.2430
9380.000000 87.974 -132.2537
9500.000000 87.419 -127.4330
9620.000000 86.958 -122.4719
9750.000000 86.565 -116.9993
9880.000000 86.278 -111.4807
10000.000000 86.101 -106.3909
10150.000000 85.994 -100.0951
10300.000000 86.011 -93.9425
10440.000000 86.139 -88.3908
10600.000000 86.425 -82.3406
10750.000000 86.846 -77.0766
10900.000000 87.428 -72.4746
11060.000000 88.216 -68.6686
11200.000000 89.025 -66.5811
11380.000000 90.176 -66.1992
11500.000000 90.945 -67.8507
11720.000000 92.028 -75.6676
11800.000000 92.212 -79.8572
12060.000000 91.751 -94.3768
12200.000000 90.897 -100.1695
12410.000000 89.191 -104.1841
12500.000000 88.413 -104.3068
12650.000000 87.164 -102.8320
12800.000000 86.039 -99.7430
13150.000000 84.093 -89.0959
13200.000000 83.891 -87.4275
13400.000000 83.225 -80.6474
13600.000000 82.758 -73.6463
13800.000000 82.519 -66.5187
14000.000000 82.547 -59.5745
14300.000000 83.155 -51.0046
14500.000000 83.855 -48.8426
14750.000000 84.170 -53.0219
15000.000000 82.664 -49.1959
15250.000000 82.996 -27.4945
15500.000000 85.878 -19.7293
15750.000000 87.926 -27.9449
16000.000000 88.644 -41.5265
16250.000000 88.427 -52.6302
16500.000000 88.024 -61.2014
16750.000000 87.454 -69.9905
17000.000000 86.615 -79.4843
17250.000000 85.306 -89.8728
17500.000000 83.228 -97.9765
17750.000000 80.403 -99.0258
18000.000000 77.324 -91.0338
18250.000000 74.998 -76.5075
18500.000000 74.507 -61.9615
18750.000000 75.423 -54.1731
19000.000000 76.303 -54.8897
19250.000000 76.280 -60.0130
19500.000000 75.155 -63.8398
19750.000000 73.143 -62.9614
20000.000000 70.583 -56.8246
20300.000000 67.221 -43.9950
20600.000000 63.974 -27.5520
20900.000000 60.946 -10.1137
21200.000000 58.005 5.9005
21400.000000 56.003 13.2168
21800.000000 51.494 -39.3237
22000.000000 48.737 91.6573
22400.000000 41.858 113.6238
22700.000000 36.304 13.3828
23000.000000 35.943 100.0312
23300.000000 39.827 1.2188
23600.000000 42.802 168.3984
24000.000000 44.469 27.1406
