* Measurement data measured by REW V5.20.13
* Source: Headset (DS by VECLAN.COM), MICROPHONE (Master Volume), L, volume: 0.720. Timing signal peak level -18.2 dBFS, measurement signal peak level -14.4 dBFS
* Format: 4M Log Swept Sine, 1 sweep at -12.0 dBFS using an acoustic timing reference
* Dated: Dec 5, 2023 10:10:28 AM
* REW Settings:
*  C-weighting compensation: Off
*  Target level: 75.0 dB
* Note: ; Apple + Abigail & KZ Foam tips Delay -0.0615 ms (-21 mm, -0.83 in) using estimated IR delay relative to Acoustic reference played from  L with no timing offset
* Measurement: CCA CRA Foam L
* Smoothing: 1/24 octave
* Frequency Step: 1/48 octave
* Start Frequency: 1.000 Hz
*
* Freq(Hz) SPL(dB) Phase(degrees)
1.000000 72.977 -2.2563
1.015000 73.346 -5.2296
1.030000 73.709 -8.0754
1.044000 74.040 -10.6020
1.060000 74.408 -13.3194
1.075000 74.741 -15.6854
1.090000 75.059 -17.8592
1.106000 75.384 -19.9577
1.120000 75.668 -21.6559
1.138000 76.037 -23.6737
1.150000 76.284 -24.9204
1.172000 76.741 -27.0142
1.180000 76.908 -27.7172
1.206000 77.450 -29.8030
1.220000 77.741 -30.8087
1.241000 78.176 -32.1775
1.250000 78.361 -32.7167
1.265000 78.669 -33.5572
1.280000 78.973 -34.3308
1.315000 79.668 -35.9119
1.320000 79.766 -36.1157
1.340000 80.150 -36.8856
1.360000 80.523 -37.5943
1.380000 80.885 -38.2574
1.400000 81.233 -38.8903
1.430000 81.729 -39.8166
1.450000 82.038 -40.4415
1.475000 82.400 -41.2349
1.500000 82.736 -41.8643
1.525000 83.048 -42.3077
1.550000 83.339 -42.5921
1.575000 83.610 -42.7445
1.600000 83.863 -42.7918
1.625000 84.101 -42.7611
1.650000 84.326 -42.6793
1.675000 84.540 -42.5735
1.700000 84.745 -42.4707
1.725000 84.942 -42.3979
1.750000 85.135 -42.3820
1.775000 85.325 -42.4501
1.800000 85.515 -42.6291
1.825000 85.706 -42.9461
1.850000 85.896 -43.4034
1.875000 86.076 -43.9497
1.900000 86.247 -44.5715
1.925000 86.409 -45.2572
1.950000 86.564 -45.9955
1.975000 86.713 -46.7749
2.000000 86.857 -47.5839
2.030000 87.024 -48.5777
2.060000 87.186 -49.5780
2.090000 87.345 -50.5650
2.120000 87.503 -51.5189
2.140000 87.608 -52.1267
2.180000 87.822 -53.2483
2.200000 87.931 -53.7506
2.240000 88.148 -54.6707
2.270000 88.309 -55.3085
2.300000 88.468 -55.9101
2.330000 88.625 -56.4834
2.360000 88.780 -57.0361
2.400000 88.983 -57.7545
2.430000 89.133 -58.2895
2.470000 89.330 -59.0127
2.500000 89.474 -59.5725
2.540000 89.664 -60.3570
2.580000 89.850 -61.1985
2.620000 90.031 -62.0769
2.650000 90.165 -62.7524
2.690000 90.339 -63.6705
2.720000 90.467 -64.3688
2.760000 90.635 -65.3077
2.800000 90.800 -66.2501
2.850000 91.001 -67.4235
2.900000 91.197 -68.5806
2.950000 91.389 -69.7130
3.000000 91.575 -70.8448
3.040000 91.719 -71.7511
3.070000 91.826 -72.4291
3.110000 91.965 -73.3280
3.150000 92.101 -74.2181
3.200000 92.268 -75.3132
3.250000 92.431 -76.3827
3.300000 92.591 -77.4200
3.350000 92.748 -78.4176
3.400000 92.900 -79.3798
3.450000 93.048 -80.3164
3.500000 93.193 -81.2370
3.550000 93.335 -82.1513
3.600000 93.473 -83.0691
3.650000 93.610 -84.0002
3.700000 93.744 -84.9519
3.750000 93.875 -85.9193
3.820000 94.053 -87.2840
3.870000 94.177 -88.2547
3.950000 94.370 -89.7777
4.000000 94.488 -90.6977
4.060000 94.627 -91.7562
4.120000 94.763 -92.7680
4.180000 94.894 -93.7459
4.250000 95.044 -94.8614
4.310000 95.169 -95.8108
4.370000 95.291 -96.7676
4.440000 95.431 -97.9053
4.500000 95.547 -98.8896
4.550000 95.642 -99.7109
4.620000 95.771 -100.8551
4.680000 95.880 -101.8238
4.750000 96.003 -102.9313
4.820000 96.123 -104.0080
4.870000 96.207 -104.7613
4.940000 96.321 -105.7998
5.000000 96.416 -106.6802
5.080000 96.538 -107.8489
5.150000 96.639 -108.8747
5.220000 96.736 -109.9054
5.300000 96.842 -111.0809
5.380000 96.942 -112.2432
5.450000 97.025 -113.2408
5.520000 97.102 -114.2142
5.600000 97.185 -115.3068
5.700000 97.279 -116.6413
5.800000 97.366 -117.9316
5.900000 97.446 -119.1691
6.000000 97.517 -120.3579
6.080000 97.569 -121.2744
6.150000 97.612 -122.0502
6.220000 97.653 -122.8011
6.300000 97.697 -123.6289
6.400000 97.747 -124.6190
6.500000 97.793 -125.5584
6.600000 97.838 -126.4457
6.700000 97.881 -127.2753
6.800000 97.922 -128.0517
6.900000 97.963 -128.7862
7.000000 98.006 -129.4869
7.100000 98.050 -130.1424
7.200000 98.095 -130.7632
7.300000 98.143 -131.3659
7.400000 98.194 -131.9545
7.500000 98.249 -132.5176
7.620000 98.317 -133.1851
7.750000 98.392 -133.9281
7.880000 98.472 -134.6807
8.000000 98.545 -135.3896
8.120000 98.616 -136.1225
8.250000 98.691 -136.9423
8.380000 98.762 -137.7785
8.500000 98.822 -138.5607
8.620000 98.877 -139.3583
8.750000 98.930 -140.2211
8.850000 98.967 -140.8744
9.000000 99.014 -141.8485
9.120000 99.047 -142.6099
9.250000 99.079 -143.4062
9.380000 99.106 -144.1784
9.500000 99.128 -144.8678
9.620000 99.146 -145.5328
9.750000 99.161 -146.2268
9.880000 99.170 -146.8979
10.000000 99.171 -147.4978
10.150000 99.164 -148.2208
10.300000 99.153 -148.9196
10.440000 99.136 -149.5465
10.600000 99.115 -150.2466
10.750000 99.098 -150.8947
10.900000 99.082 -151.5349
11.060000 99.067 -152.2278
11.200000 99.056 -152.8429
11.380000 99.041 -153.6321
11.500000 99.030 -154.1569
11.720000 99.007 -155.1077
11.800000 98.998 -155.4462
12.060000 98.970 -156.5237
12.200000 98.956 -157.0881
12.410000 98.936 -157.9125
12.500000 98.927 -158.2555
12.650000 98.912 -158.8131
12.800000 98.898 -159.3566
13.150000 98.868 -160.5761
13.200000 98.864 -160.7469
13.400000 98.851 -161.4218
13.600000 98.840 -162.0865
13.800000 98.830 -162.7425
14.000000 98.820 -163.3900
14.300000 98.803 -164.3433
14.500000 98.790 -164.9600
14.750000 98.774 -165.7083
15.000000 98.758 -166.4324
15.250000 98.747 -167.1424
15.500000 98.736 -167.8403
15.750000 98.725 -168.5263
16.000000 98.712 -169.1990
16.250000 98.695 -169.8532
16.500000 98.675 -170.4841
16.750000 98.654 -171.0827
17.000000 98.635 -171.6485
17.250000 98.618 -172.1880
17.500000 98.605 -172.7109
17.750000 98.594 -173.2398
18.000000 98.583 -173.7826
18.250000 98.571 -174.3482
18.500000 98.554 -174.9221
18.750000 98.534 -175.4875
19.000000 98.511 -176.0287
19.250000 98.487 -176.5320
19.500000 98.465 -177.0048
19.750000 98.448 -177.4545
20.000000 98.435 -177.9072
20.299999 98.424 -178.4788
20.600000 98.411 -179.0908
20.900000 98.390 -179.7293
21.200001 98.359 179.6483
21.400000 98.334 179.2716
21.799999 98.283 178.6306
22.000000 98.261 178.3605
22.400000 98.235 177.8636
22.700001 98.230 177.4562
23.000000 98.231 176.9648
23.299999 98.227 176.3895
23.600000 98.213 175.7663
24.000000 98.173 174.9441
24.299999 98.133 174.3923
24.700001 98.074 173.7680
25.000000 98.034 173.3636
25.400000 97.988 172.8649
25.799999 97.947 172.3786
26.200001 97.910 171.9004
26.500000 97.883 171.5468
26.900000 97.852 171.0680
27.200001 97.830 170.6865
27.600000 97.798 170.1369
28.000000 97.755 169.5662
28.500000 97.688 168.9156
29.000000 97.619 168.4138
29.500000 97.568 168.0185
30.000000 97.535 167.6034
30.400000 97.514 167.2071
30.700001 97.496 166.8788
31.100000 97.469 166.4283
31.500000 97.439 165.9846
32.000000 97.402 165.4438
32.500000 97.363 164.9041
33.000000 97.319 164.3690
33.500000 97.268 163.8645
34.000000 97.216 163.4070
34.500000 97.168 162.9862
35.000000 97.123 162.5807
35.500000 97.081 162.1741
36.000000 97.039 161.7637
36.500000 96.994 161.3546
37.000000 96.947 160.9522
37.500000 96.898 160.5641
38.200001 96.834 160.0430
38.700001 96.793 159.6552
39.500000 96.721 158.9603
40.000000 96.666 158.5343
40.599998 96.593 158.1174
41.200001 96.529 157.8006
41.799999 96.479 157.4948
42.500000 96.427 157.0760
43.099998 96.379 156.6958
43.700001 96.328 156.3378
44.400002 96.268 155.9422
45.000000 96.216 155.6075
45.500000 96.172 155.3357
46.200001 96.110 154.9664
46.799999 96.057 154.6479
47.500000 95.994 154.2737
48.200001 95.930 153.9151
48.700001 95.885 153.6685
49.400002 95.824 153.3246
50.000000 95.771 153.0333
50.799999 95.702 152.6640
51.500000 95.643 152.3575
52.200001 95.585 152.0601
53.000000 95.520 151.7268
53.799999 95.454 151.3958
54.500000 95.392 151.1150
55.200001 95.330 150.8455
56.000000 95.260 150.5359
57.000000 95.174 150.1447
58.000000 95.089 149.7337
59.000000 94.996 149.2903
60.000000 94.893 148.9857
60.799999 94.829 148.8224
61.500000 94.785 148.6461
62.200001 94.739 148.4383
63.000000 94.680 148.2103
64.000000 94.605 147.9493
65.000000 94.529 147.7035
66.000000 94.452 147.4575
67.000000 94.374 147.2021
68.000000 94.293 146.9472
69.000000 94.207 146.6940
70.000000 94.120 146.5064
71.000000 94.046 146.3597
72.000000 93.981 146.1551
73.000000 93.912 145.9304
74.000000 93.839 145.7330
75.000000 93.765 145.5534
76.199997 93.676 145.3583
77.500000 93.585 145.1526
78.800003 93.494 144.9397
80.000000 93.409 144.7623
81.199997 93.326 144.6003
82.500000 93.233 144.4433
83.800003 93.142 144.3137
85.000000 93.061 144.1976
86.199997 92.983 144.0659
87.500000 92.898 143.9251
88.500000 92.834 143.8337
90.000000 92.741 143.7058
91.199997 92.667 143.6083
92.500000 92.590 143.5100
93.800003 92.513 143.4133
95.000000 92.441 143.3300
96.199997 92.368 143.2631
97.500000 92.291 143.2180
98.800003 92.217 143.1733
100.000000 92.147 143.1217
101.500000 92.059 143.0499
103.000000 91.973 142.9700
104.400002 91.892 142.8962
106.000000 91.798 142.8441
107.500000 91.711 142.8519
109.000000 91.631 142.8965
110.599998 91.550 142.9099
112.000000 91.476 142.8908
113.800003 91.376 142.8600
115.000000 91.311 142.8558
117.199997 91.202 142.8565
118.000000 91.165 142.8521
120.599998 91.044 142.8204
122.000000 90.975 142.8420
124.099998 90.872 142.9131
125.000000 90.829 142.9476
126.500000 90.758 142.9994
128.000000 90.690 143.0302
131.500000 90.543 143.1132
132.000000 90.524 143.1292
134.000000 90.445 143.2137
136.000000 90.366 143.3401
138.000000 90.290 143.4559
140.000000 90.210 143.5136
143.000000 90.092 143.6301
145.000000 90.019 143.7404
147.500000 89.926 143.8695
150.000000 89.832 144.0261
152.500000 89.741 144.1909
155.000000 89.650 144.3243
157.500000 89.559 144.4673
160.000000 89.475 144.6168
162.500000 89.394 144.7935
165.000000 89.315 144.9958
167.500000 89.235 145.1870
170.000000 89.151 145.3649
172.500000 89.067 145.5350
175.000000 88.987 145.7108
177.500000 88.909 145.9012
180.000000 88.832 146.0999
182.500000 88.756 146.3073
185.000000 88.680 146.5189
187.500000 88.606 146.7159
190.000000 88.534 146.9009
192.500000 88.467 147.1011
195.000000 88.403 147.3371
197.500000 88.339 147.5838
200.000000 88.276 147.8122
203.000000 88.204 148.0648
206.000000 88.133 148.3096
209.000000 88.059 148.5498
212.000000 87.986 148.8126
214.000000 87.939 149.0056
218.000000 87.844 149.3855
220.000000 87.799 149.5693
224.000000 87.712 149.9319
227.000000 87.648 150.2048
230.000000 87.584 150.4804
233.000000 87.522 150.7516
236.000000 87.462 151.0117
240.000000 87.385 151.3707
243.000000 87.329 151.6675
247.000000 87.259 152.0525
250.000000 87.209 152.3304
254.000000 87.141 152.7172
258.000000 87.071 153.1074
262.000000 87.003 153.4818
265.000000 86.954 153.7584
269.000000 86.890 154.1346
272.000000 86.843 154.4179
276.000000 86.787 154.7970
280.000000 86.733 155.1732
285.000000 86.665 155.6414
290.000000 86.599 156.1194
295.000000 86.538 156.6025
300.000000 86.476 157.1067
304.000000 86.419 157.4891
307.000000 86.380 157.7493
311.000000 86.334 158.1029
315.000000 86.293 158.4821
320.000000 86.246 158.9488
325.000000 86.197 159.3896
330.000000 86.148 159.8407
335.000000 86.100 160.3054
340.000000 86.050 160.7675
345.000000 86.000 161.2347
350.000000 85.953 161.6887
355.000000 85.906 162.1471
360.000000 85.858 162.6163
365.000000 85.816 163.0738
370.000000 85.775 163.5156
375.000000 85.735 163.9468
382.000000 85.682 164.5516
387.000000 85.641 164.9877
395.000000 85.575 165.7038
400.000000 85.535 166.1422
406.000000 85.490 166.6752
412.000000 85.448 167.2025
418.000000 85.408 167.7199
425.000000 85.364 168.3359
431.000000 85.326 168.8660
437.000000 85.290 169.3796
444.000000 85.251 169.9729
450.000000 85.217 170.4801
455.000000 85.188 170.9000
462.000000 85.148 171.4916
468.000000 85.113 172.0040
475.000000 85.073 172.5972
482.000000 85.036 173.1869
487.000000 85.015 173.6083
494.000000 84.987 174.1864
500.000000 84.965 174.6813
508.000000 84.932 175.3599
515.000000 84.902 175.9587
522.000000 84.875 176.5559
530.000000 84.848 177.2328
538.000000 84.823 177.8901
545.000000 84.802 178.4779
552.000000 84.782 179.0924
560.000000 84.761 179.7904
570.000000 84.741 -179.3639
580.000000 84.726 -178.4908
590.000000 84.709 -177.6063
600.000000 84.690 -176.7169
608.000000 84.673 -176.0001
615.000000 84.661 -175.3529
622.000000 84.651 -174.6900
630.000000 84.641 -173.9348
640.000000 84.634 -173.0085
650.000000 84.635 -172.0735
660.000000 84.642 -171.1092
670.000000 84.654 -170.1463
680.000000 84.675 -169.2067
690.000000 84.706 -168.2778
700.000000 84.745 -167.3710
710.000000 84.791 -166.4942
720.000000 84.841 -165.6530
730.000000 84.894 -164.8665
740.000000 84.952 -164.1410
750.000000 85.014 -163.4740
762.000000 85.085 -162.7648
775.000000 85.146 -162.0940
788.000000 85.183 -161.3948
800.000000 85.219 -160.6414
812.000000 85.272 -159.8835
825.000000 85.334 -159.1446
838.000000 85.390 -158.4549
850.000000 85.436 -157.8078
862.000000 85.479 -157.1543
875.000000 85.525 -156.4773
885.000000 85.562 -155.9606
900.000000 85.627 -155.1894
912.000000 85.691 -154.5956
925.000000 85.756 -153.9473
938.000000 85.813 -153.2995
950.000000 85.866 -152.7265
962.000000 85.918 -152.1553
975.000000 85.979 -151.5256
988.000000 86.052 -150.9210
1000.000000 86.123 -150.4029
1015.000000 86.203 -149.8203
1030.000000 86.280 -149.2785
1044.000000 86.349 -148.7693
1060.000000 86.430 -148.2061
1075.000000 86.509 -147.7159
1090.000000 86.592 -147.2656
1106.000000 86.691 -146.8209
1120.000000 86.780 -146.4558
1138.000000 86.896 -146.0301
1150.000000 86.971 -145.7637
1172.000000 87.104 -145.2972
1180.000000 87.150 -145.1337
1206.000000 87.292 -144.6448
1220.000000 87.369 -144.4118
1241.000000 87.483 -144.0763
1250.000000 87.533 -143.9316
1265.000000 87.614 -143.6993
1280.000000 87.695 -143.4760
1315.000000 87.875 -142.9796
1320.000000 87.899 -142.9125
1340.000000 87.987 -142.6438
1360.000000 88.052 -142.3679
1380.000000 88.112 -142.0965
1400.000000 88.181 -141.8355
1430.000000 88.289 -141.4466
1450.000000 88.362 -141.1935
1475.000000 88.452 -140.8713
1500.000000 88.541 -140.5486
1525.000000 88.627 -140.2271
1550.000000 88.704 -139.9027
1575.000000 88.776 -139.5748
1600.000000 88.846 -139.2496
1625.000000 88.917 -138.9301
1650.000000 88.989 -138.6051
1675.000000 89.060 -138.2828
1700.000000 89.128 -137.9743
1725.000000 89.190 -137.6689
1750.000000 89.250 -137.3672
1775.000000 89.316 -137.0792
1800.000000 89.381 -136.7899
1825.000000 89.440 -136.5010
1850.000000 89.497 -136.2214
1875.000000 89.555 -135.9414
1900.000000 89.616 -135.6676
1925.000000 89.672 -135.3973
1950.000000 89.723 -135.1217
1975.000000 89.776 -134.8507
2000.000000 89.832 -134.5943
2030.000000 89.893 -134.3064
2060.000000 89.955 -134.0136
2090.000000 90.019 -133.7119
2120.000000 90.079 -133.4163
2140.000000 90.116 -133.2238
2180.000000 90.189 -132.8446
2200.000000 90.223 -132.6580
2240.000000 90.289 -132.2812
2270.000000 90.337 -131.9918
2300.000000 90.384 -131.7119
2330.000000 90.430 -131.4401
2360.000000 90.474 -131.1707
2400.000000 90.531 -130.8054
2430.000000 90.571 -130.5190
2470.000000 90.618 -130.1326
2500.000000 90.652 -129.8333
2540.000000 90.696 -129.4252
2580.000000 90.744 -129.0089
2620.000000 90.788 -128.5752
2650.000000 90.818 -128.2464
2690.000000 90.862 -127.8012
2720.000000 90.895 -127.4559
2760.000000 90.936 -126.9866
2800.000000 90.974 -126.5004
2850.000000 91.030 -125.8940
2900.000000 91.083 -125.2699
2950.000000 91.126 -124.6159
3000.000000 91.180 -123.9448
3040.000000 91.230 -123.4294
3070.000000 91.264 -123.0376
3110.000000 91.313 -122.5033
3150.000000 91.365 -121.9576
3200.000000 91.430 -121.2625
3250.000000 91.496 -120.5712
3300.000000 91.567 -119.8801
3350.000000 91.642 -119.1878
3400.000000 91.724 -118.4992
3450.000000 91.813 -117.8100
3500.000000 91.911 -117.1280
3550.000000 92.020 -116.4579
3600.000000 92.135 -115.7925
3650.000000 92.256 -115.1401
3700.000000 92.382 -114.5154
3750.000000 92.513 -113.9156
3820.000000 92.703 -113.1245
3870.000000 92.844 -112.6061
3950.000000 93.075 -111.8716
4000.000000 93.225 -111.5013
4060.000000 93.411 -111.1678
4120.000000 93.600 -110.9506
4180.000000 93.792 -110.8659
4250.000000 94.018 -110.9656
4310.000000 94.205 -111.2559
4370.000000 94.375 -111.7645
4440.000000 94.538 -112.6827
4500.000000 94.619 -113.7623
4550.000000 94.611 -114.7338
4620.000000 94.455 -115.3733
4680.000000 94.330 -114.3321
4750.000000 94.520 -112.3719
4820.000000 94.942 -112.2295
4870.000000 95.188 -113.2929
4940.000000 95.385 -115.4087
5000.000000 95.449 -117.2964
5080.000000 95.434 -119.6467
5150.000000 95.348 -121.5089
5220.000000 95.210 -123.1654
5300.000000 94.998 -124.7783
5380.000000 94.739 -126.0733
5450.000000 94.482 -126.9330
5520.000000 94.202 -127.5424
5600.000000 93.857 -127.9434
5700.000000 93.366 -127.9004
5800.000000 92.782 -126.4015
5900.000000 92.438 -122.3229
6000.000000 92.626 -119.8673
6080.000000 92.633 -119.9910
6150.000000 92.487 -119.8266
6220.000000 92.312 -119.0970
6300.000000 92.136 -117.8348
6400.000000 91.970 -115.9267
6500.000000 91.863 -113.8351
6600.000000 91.813 -111.6561
6700.000000 91.817 -109.4558
6800.000000 91.883 -107.2924
6900.000000 92.027 -105.2087
7000.000000 92.246 -103.2645
7100.000000 92.525 -101.5347
7200.000000 92.861 -100.0947
7300.000000 93.250 -99.0614
7400.000000 93.682 -98.5618
7500.000000 94.147 -98.7054
7620.000000 94.737 -99.8703
7750.000000 95.350 -102.5273
7880.000000 95.769 -106.7082
8000.000000 95.923 -111.7197
8120.000000 95.816 -117.3169
8250.000000 95.388 -123.2074
8380.000000 94.681 -128.0633
8500.000000 93.850 -131.1510
8620.000000 92.924 -132.7909
8750.000000 91.882 -133.0747
8850.000000 91.087 -132.3883
9000.000000 89.955 -130.1554
9120.000000 89.129 -127.5344
9250.000000 88.323 -124.0558
9380.000000 87.613 -120.0893
9500.000000 87.040 -116.1113
9620.000000 86.547 -111.9062
9750.000000 86.100 -107.1513
9880.000000 85.747 -102.2385
10000.000000 85.501 -97.6375
10150.000000 85.295 -91.8915
10300.000000 85.195 -86.2103
10440.000000 85.197 -80.9984
10600.000000 85.316 -75.2187
10750.000000 85.543 -70.0891
10900.000000 85.886 -65.3829
11060.000000 86.377 -60.9944
11200.000000 86.908 -57.8593
11380.000000 87.710 -55.1613
11500.000000 88.290 -54.4489
11720.000000 89.307 -55.9765
11800.000000 89.611 -57.5163
12060.000000 90.109 -65.3462
12200.000000 89.987 -70.2498
12410.000000 89.296 -76.6310
12500.000000 88.846 -78.5652
12650.000000 87.972 -80.3520
12800.000000 87.035 -80.3860
13150.000000 85.015 -75.3917
13200.000000 84.770 -74.2813
13400.000000 83.916 -69.2340
13600.000000 83.259 -63.5020
13800.000000 82.804 -57.3880
14000.000000 82.570 -51.2795
14300.000000 82.570 -42.9258
14500.000000 82.770 -38.1497
14750.000000 83.230 -33.6249
15000.000000 83.829 -31.4983
15250.000000 84.377 -32.4540
15500.000000 84.631 -36.3111
15750.000000 84.365 -41.2127
16000.000000 83.548 -44.2532
16250.000000 82.412 -43.1200
16500.000000 81.527 -37.7256
16750.000000 81.305 -32.2886
17000.000000 81.320 -29.0762
17250.000000 81.368 -26.9488
17500.000000 81.548 -25.8392
17750.000000 81.846 -26.9615
18000.000000 82.013 -31.6542
18250.000000 81.659 -39.7734
18500.000000 80.481 -48.2091
18750.000000 78.474 -52.4055
19000.000000 75.925 -49.7285
19250.000000 73.266 -39.8903
19500.000000 71.102 -24.2261
19750.000000 70.224 -6.4830
20000.000000 70.643 7.5097
20300.000000 71.591 14.1765
20600.000000 71.891 12.4897
20900.000000 71.153 9.4614
21200.000000 69.612 10.4247
21400.000000 68.385 14.1083
21800.000000 66.159 25.5703
22000.000000 65.369 23.7969
22400.000000 64.006 109.6678
22700.000000 61.479 159.9653
23000.000000 56.299 170.2090
23300.000000 49.264 40.3203
23600.000000 43.669 -45.7188
24000.000000 41.739 50.8281
