* Measurement data measured by REW V5.20.13
* Source: Headset (DS by VECLAN.COM), MICROPHONE (Master Volume), L, volume: 0.500. Timing signal peak level -14.4 dBFS, measurement signal peak level -14.4 dBFS
* Format: 2M Log Swept Sine, 1 sweep at -12.0 dBFS using an acoustic timing reference
* Dated: Oct 30, 2023 5:15:50 PM
* REW Settings:
*  C-weighting compensation: Off
*  Target level: 75.0 dB
* Note: ; Delay -0.0619 ms (-21 mm, -0.84 in) using estimated IR delay relative to Acoustic reference played from HEADPHONE L with no timing offset
* Measurement: CCA CRA S2 L
* Smoothing: 1/24 octave
* Frequency Step: 1/48 octave
* Start Frequency: 1.000 Hz
*
* Freq(Hz) SPL(dB) Phase(degrees)
1.000000 73.164 -30.3793
1.015000 73.484 -30.8765
1.030000 73.795 -31.3601
1.044000 74.076 -31.7978
1.060000 74.384 -32.2800
1.075000 74.658 -32.7127
1.090000 74.915 -33.1250
1.106000 75.172 -33.5410
1.120000 75.390 -33.8884
1.138000 75.666 -34.3146
1.150000 75.846 -34.5869
1.172000 76.170 -35.0631
1.180000 76.286 -35.2295
1.206000 76.654 -35.7477
1.220000 76.848 -36.0139
1.241000 77.132 -36.3985
1.250000 77.252 -36.5585
1.265000 77.448 -36.8198
1.280000 77.641 -37.0751
1.315000 78.077 -37.6532
1.320000 78.138 -37.7343
1.340000 78.378 -38.0569
1.360000 78.612 -38.3780
1.380000 78.840 -38.7002
1.400000 79.063 -39.0258
1.430000 79.388 -39.5262
1.450000 79.598 -39.8713
1.475000 79.854 -40.3182
1.500000 80.095 -40.7700
1.525000 80.322 -41.2226
1.550000 80.537 -41.6752
1.575000 80.740 -42.1271
1.600000 80.934 -42.5777
1.625000 81.120 -43.0262
1.650000 81.299 -43.4719
1.675000 81.473 -43.9141
1.700000 81.643 -44.3520
1.725000 81.811 -44.7850
1.750000 81.978 -45.2123
1.775000 82.146 -45.6333
1.800000 82.316 -46.0471
1.825000 82.489 -46.4532
1.850000 82.666 -46.8489
1.875000 82.840 -47.2308
1.900000 83.013 -47.6009
1.925000 83.183 -47.9612
1.950000 83.351 -48.3139
1.975000 83.518 -48.6612
2.000000 83.683 -49.0051
2.030000 83.879 -49.4164
2.060000 84.074 -49.8296
2.090000 84.266 -50.2484
2.120000 84.458 -50.6765
2.140000 84.584 -50.9690
2.180000 84.837 -51.5755
2.200000 84.962 -51.8917
2.240000 85.213 -52.5452
2.270000 85.399 -53.0496
2.300000 85.584 -53.5645
2.330000 85.768 -54.0879
2.360000 85.951 -54.6182
2.400000 86.191 -55.3330
2.430000 86.368 -55.8725
2.470000 86.602 -56.5931
2.500000 86.774 -57.1323
2.540000 86.998 -57.8462
2.580000 87.218 -58.5516
2.620000 87.432 -59.2557
2.650000 87.590 -59.7842
2.690000 87.797 -60.4895
2.720000 87.949 -61.0189
2.760000 88.149 -61.7253
2.800000 88.344 -62.4323
2.850000 88.583 -63.3167
2.900000 88.816 -64.2020
2.950000 89.044 -65.0883
3.000000 89.266 -65.9772
3.040000 89.438 -66.6900
3.070000 89.565 -67.2251
3.110000 89.731 -67.9387
3.150000 89.893 -68.6519
3.200000 90.092 -69.5421
3.250000 90.285 -70.4294
3.300000 90.474 -71.3128
3.350000 90.657 -72.1971
3.400000 90.835 -73.0838
3.450000 91.008 -73.9695
3.500000 91.175 -74.8510
3.550000 91.338 -75.7249
3.600000 91.497 -76.5879
3.650000 91.653 -77.4365
3.700000 91.804 -78.2689
3.750000 91.951 -79.0874
3.820000 92.149 -80.2142
3.870000 92.286 -81.0081
3.950000 92.497 -82.2652
4.000000 92.626 -83.0458
4.060000 92.776 -83.9807
4.120000 92.922 -84.9132
4.180000 93.062 -85.8399
4.250000 93.220 -86.9090
4.310000 93.352 -87.8110
4.370000 93.480 -88.6960
4.440000 93.626 -89.7032
4.500000 93.747 -90.5458
4.550000 93.845 -91.2359
4.620000 93.978 -92.1874
4.680000 94.089 -92.9928
4.750000 94.215 -93.9251
4.820000 94.339 -94.8513
4.870000 94.424 -95.5069
4.940000 94.541 -96.4151
5.000000 94.638 -97.1840
5.080000 94.764 -98.1941
5.150000 94.872 -99.0624
5.220000 94.977 -99.9147
5.300000 95.093 -100.8716
5.380000 95.205 -101.8135
5.450000 95.300 -102.6281
5.520000 95.393 -103.4360
5.600000 95.496 -104.3491
5.700000 95.620 -105.4738
5.800000 95.739 -106.5800
5.900000 95.854 -107.6679
6.000000 95.963 -108.7377
6.080000 96.048 -109.5802
6.150000 96.119 -110.3074
6.220000 96.189 -111.0250
6.300000 96.266 -111.8331
6.400000 96.358 -112.8254
6.500000 96.446 -113.7989
6.600000 96.532 -114.7546
6.700000 96.613 -115.6929
6.800000 96.692 -116.6130
6.900000 96.767 -117.5146
7.000000 96.840 -118.3970
7.100000 96.910 -119.2594
7.200000 96.978 -120.1034
7.300000 97.043 -120.9313
7.400000 97.107 -121.7438
7.500000 97.168 -122.5395
7.620000 97.239 -123.4743
7.750000 97.313 -124.4647
7.880000 97.385 -125.4300
8.000000 97.449 -126.3020
8.120000 97.510 -127.1587
8.250000 97.575 -128.0680
8.380000 97.637 -128.9594
8.500000 97.693 -129.7678
8.620000 97.746 -130.5616
8.750000 97.802 -131.4062
8.850000 97.843 -132.0459
9.000000 97.902 -132.9886
9.120000 97.947 -133.7281
9.250000 97.995 -134.5144
9.380000 98.042 -135.2852
9.500000 98.082 -135.9847
9.620000 98.119 -136.6735
9.750000 98.155 -137.4069
9.880000 98.184 -138.1276
10.000000 98.202 -138.7832
10.150000 98.215 -139.5876
10.300000 98.220 -140.3681
10.440000 98.217 -141.0734
10.600000 98.208 -141.8570
10.750000 98.201 -142.5703
10.900000 98.193 -143.2646
11.060000 98.185 -143.9947
11.200000 98.179 -144.6245
11.380000 98.170 -145.4171
11.500000 98.164 -145.9339
11.720000 98.153 -146.8588
11.800000 98.149 -147.1878
12.060000 98.139 -148.2326
12.200000 98.136 -148.7855
12.410000 98.132 -149.6002
12.500000 98.130 -149.9428
12.650000 98.126 -150.5053
12.800000 98.122 -151.0575
13.150000 98.111 -152.3069
13.200000 98.110 -152.4815
13.400000 98.105 -153.1704
13.600000 98.100 -153.8452
13.800000 98.097 -154.5056
14.000000 98.093 -155.1557
14.300000 98.086 -156.1112
14.500000 98.080 -156.7329
14.750000 98.071 -157.4908
15.000000 98.064 -158.2268
15.250000 98.058 -158.9446
15.500000 98.054 -159.6423
15.750000 98.051 -160.3201
16.000000 98.047 -160.9798
16.250000 98.043 -161.6281
16.500000 98.038 -162.2667
16.750000 98.033 -162.8963
17.000000 98.029 -163.5141
17.250000 98.023 -164.1174
17.500000 98.017 -164.7029
17.750000 98.011 -165.2681
18.000000 98.004 -165.8151
18.250000 97.998 -166.3468
18.500000 97.994 -166.8696
18.750000 97.990 -167.3882
19.000000 97.987 -167.9068
19.250000 97.984 -168.4286
19.500000 97.980 -168.9489
19.750000 97.973 -169.4639
20.000000 97.964 -169.9641
20.299999 97.950 -170.5383
20.600000 97.935 -171.0802
20.900000 97.920 -171.5915
21.200001 97.908 -172.0807
21.400000 97.900 -172.4013
21.799999 97.887 -173.0398
22.000000 97.881 -173.3616
22.400000 97.869 -174.0120
22.700001 97.858 -174.5006
23.000000 97.845 -174.9841
23.299999 97.831 -175.4602
23.600000 97.817 -175.9283
24.000000 97.798 -176.5402
24.299999 97.782 -176.9900
24.700001 97.761 -177.5757
25.000000 97.745 -178.0023
25.400000 97.723 -178.5524
25.799999 97.701 -179.0845
26.200001 97.680 -179.6066
26.500000 97.665 -179.9957
26.900000 97.644 179.4884
27.200001 97.627 179.1063
27.600000 97.604 178.6079
28.000000 97.581 178.1264
28.500000 97.551 177.5464
29.000000 97.522 176.9814
29.500000 97.492 176.4240
30.000000 97.461 175.8750
30.400000 97.434 175.4449
30.700001 97.413 175.1292
31.100000 97.385 174.7185
31.500000 97.356 174.3192
32.000000 97.321 173.8332
32.500000 97.287 173.3557
33.000000 97.254 172.8812
33.500000 97.220 172.4088
34.000000 97.186 171.9425
34.500000 97.152 171.4872
35.000000 97.119 171.0442
35.500000 97.085 170.6128
36.000000 97.051 170.1934
36.500000 97.016 169.7870
37.000000 96.982 169.3923
37.500000 96.948 169.0045
38.200001 96.900 168.4688
38.700001 96.864 168.0957
39.500000 96.807 167.5206
40.000000 96.773 167.1661
40.599998 96.730 166.7399
41.200001 96.685 166.3286
41.799999 96.639 165.9488
42.500000 96.592 165.5275
43.099998 96.555 165.1545
43.700001 96.516 164.7785
44.400002 96.469 164.3740
45.000000 96.432 164.0501
45.500000 96.405 163.7634
46.200001 96.364 163.3203
46.799999 96.320 162.9409
47.500000 96.266 162.5531
48.200001 96.215 162.2093
48.700001 96.181 161.9647
49.400002 96.134 161.6144
50.000000 96.093 161.3198
50.799999 96.039 160.9419
51.500000 95.992 160.6153
52.200001 95.944 160.2945
53.000000 95.890 159.9459
53.799999 95.836 159.6044
54.500000 95.788 159.3027
55.200001 95.738 159.0159
56.000000 95.681 158.7138
57.000000 95.614 158.3322
58.000000 95.544 157.9501
59.000000 95.476 157.5930
60.000000 95.411 157.2354
60.799999 95.361 156.9388
61.500000 95.315 156.6725
62.200001 95.267 156.4239
63.000000 95.212 156.1793
64.000000 95.149 155.8776
65.000000 95.081 155.5782
66.000000 95.012 155.3479
67.000000 94.951 155.1308
68.000000 94.890 154.8868
69.000000 94.826 154.6358
70.000000 94.760 154.3936
71.000000 94.694 154.1682
72.000000 94.629 153.9531
73.000000 94.565 153.7498
74.000000 94.504 153.5542
75.000000 94.443 153.3532
76.199997 94.368 153.1166
77.500000 94.286 152.8862
78.800003 94.207 152.6638
80.000000 94.135 152.4615
81.199997 94.064 152.2652
82.500000 93.988 152.0604
83.800003 93.911 151.8780
85.000000 93.841 151.7349
86.199997 93.774 151.5980
87.500000 93.701 151.4472
88.500000 93.645 151.3372
90.000000 93.563 151.1839
91.199997 93.500 151.0582
92.500000 93.431 150.9260
93.800003 93.362 150.8163
95.000000 93.300 150.7240
96.199997 93.236 150.6345
97.500000 93.165 150.5498
98.800003 93.096 150.4654
100.000000 93.033 150.3847
101.500000 92.955 150.2853
103.000000 92.878 150.1910
104.400002 92.807 150.1224
106.000000 92.729 150.0604
107.500000 92.657 150.0098
109.000000 92.585 149.9617
110.599998 92.507 149.9241
112.000000 92.439 149.9017
113.800003 92.353 149.8763
115.000000 92.296 149.8548
117.199997 92.194 149.8040
118.000000 92.157 149.7850
120.599998 92.040 149.7723
122.000000 91.982 149.7886
124.099998 91.897 149.8133
125.000000 91.861 149.8287
126.500000 91.801 149.8573
128.000000 91.743 149.8835
131.500000 91.608 149.9496
132.000000 91.589 149.9625
134.000000 91.514 150.0193
136.000000 91.442 150.0764
138.000000 91.372 150.1320
140.000000 91.302 150.1981
143.000000 91.201 150.3241
145.000000 91.135 150.4097
147.500000 91.055 150.5247
150.000000 90.978 150.6492
152.500000 90.900 150.7788
155.000000 90.821 150.9169
157.500000 90.742 151.0551
160.000000 90.666 151.1900
162.500000 90.592 151.3334
165.000000 90.519 151.4859
167.500000 90.448 151.6465
170.000000 90.375 151.8221
172.500000 90.302 152.0031
175.000000 90.230 152.1806
177.500000 90.161 152.3565
180.000000 90.092 152.5322
182.500000 90.023 152.7156
185.000000 89.954 152.9084
187.500000 89.888 153.1060
190.000000 89.825 153.2996
192.500000 89.765 153.4880
195.000000 89.706 153.6779
197.500000 89.648 153.8811
200.000000 89.590 154.0947
203.000000 89.523 154.3473
206.000000 89.460 154.5903
209.000000 89.396 154.8430
212.000000 89.332 155.1116
214.000000 89.291 155.2876
218.000000 89.211 155.6266
220.000000 89.171 155.7986
224.000000 89.092 156.1565
227.000000 89.034 156.4318
230.000000 88.977 156.7037
233.000000 88.923 156.9724
236.000000 88.870 157.2474
240.000000 88.802 157.6218
243.000000 88.753 157.8917
247.000000 88.690 158.2424
250.000000 88.645 158.5109
254.000000 88.585 158.8778
258.000000 88.528 159.2446
262.000000 88.471 159.6113
265.000000 88.429 159.8962
269.000000 88.375 160.2720
272.000000 88.335 160.5380
276.000000 88.284 160.8912
280.000000 88.237 161.2572
285.000000 88.179 161.7221
290.000000 88.121 162.1890
295.000000 88.069 162.6445
300.000000 88.018 163.0909
304.000000 87.978 163.4533
307.000000 87.950 163.7299
311.000000 87.914 164.1013
315.000000 87.879 164.4659
320.000000 87.836 164.9149
325.000000 87.795 165.3660
330.000000 87.755 165.8190
335.000000 87.715 166.2763
340.000000 87.676 166.7495
345.000000 87.638 167.1963
350.000000 87.598 167.6389
355.000000 87.560 168.0858
360.000000 87.522 168.5276
365.000000 87.483 168.9861
370.000000 87.448 169.4566
375.000000 87.418 169.9043
382.000000 87.379 170.4912
387.000000 87.351 170.9301
395.000000 87.303 171.6490
400.000000 87.272 172.0781
406.000000 87.238 172.5933
412.000000 87.207 173.1075
418.000000 87.177 173.6214
425.000000 87.142 174.2194
431.000000 87.113 174.7357
437.000000 87.086 175.2549
444.000000 87.056 175.8530
450.000000 87.032 176.3583
455.000000 87.012 176.7819
462.000000 86.987 177.3763
468.000000 86.966 177.8834
475.000000 86.942 178.4717
482.000000 86.921 179.0568
487.000000 86.908 179.4741
494.000000 86.892 -179.9437
500.000000 86.879 -179.4463
508.000000 86.863 -178.7835
515.000000 86.850 -178.2045
522.000000 86.839 -177.6274
530.000000 86.829 -176.9708
538.000000 86.821 -176.3175
545.000000 86.816 -175.7486
552.000000 86.813 -175.1797
560.000000 86.810 -174.5299
570.000000 86.809 -173.7234
580.000000 86.810 -172.9220
590.000000 86.812 -172.1172
600.000000 86.815 -171.3121
608.000000 86.817 -170.6760
615.000000 86.819 -170.1239
622.000000 86.822 -169.5707
630.000000 86.827 -168.9364
640.000000 86.834 -168.1462
650.000000 86.844 -167.3614
660.000000 86.857 -166.5796
670.000000 86.872 -165.8022
680.000000 86.890 -165.0301
690.000000 86.911 -164.2661
700.000000 86.934 -163.5133
710.000000 86.960 -162.7692
720.000000 86.987 -162.0323
730.000000 87.015 -161.3083
740.000000 87.042 -160.6030
750.000000 87.067 -159.9100
762.000000 87.088 -159.0585
775.000000 87.100 -157.9996
788.000000 87.130 -156.7101
800.000000 87.202 -155.4543
812.000000 87.314 -154.3595
825.000000 87.448 -153.4809
838.000000 87.562 -152.8177
850.000000 87.649 -152.2544
862.000000 87.727 -151.6835
875.000000 87.808 -151.0493
885.000000 87.870 -150.5577
900.000000 87.963 -149.8311
912.000000 88.038 -149.2671
925.000000 88.121 -148.6721
938.000000 88.205 -148.0954
950.000000 88.283 -147.5845
962.000000 88.360 -147.0939
975.000000 88.443 -146.5832
988.000000 88.524 -146.0957
1000.000000 88.600 -145.6672
1015.000000 88.693 -145.1577
1030.000000 88.786 -144.6740
1044.000000 88.873 -144.2475
1060.000000 88.971 -143.7909
1075.000000 89.061 -143.3873
1090.000000 89.155 -143.0052
1106.000000 89.263 -142.6223
1120.000000 89.358 -142.3060
1138.000000 89.479 -141.9210
1150.000000 89.557 -141.6779
1172.000000 89.699 -141.2571
1180.000000 89.750 -141.1106
1206.000000 89.914 -140.6580
1220.000000 90.004 -140.4298
1241.000000 90.140 -140.1012
1250.000000 90.198 -139.9637
1265.000000 90.292 -139.7390
1280.000000 90.385 -139.5219
1315.000000 90.596 -139.0405
1320.000000 90.625 -138.9738
1340.000000 90.733 -138.7121
1360.000000 90.822 -138.4585
1380.000000 90.908 -138.2135
1400.000000 91.007 -137.9773
1430.000000 91.162 -137.6346
1450.000000 91.264 -137.4143
1475.000000 91.392 -137.1526
1500.000000 91.518 -136.9066
1525.000000 91.640 -136.6714
1550.000000 91.756 -136.4491
1575.000000 91.868 -136.2437
1600.000000 91.979 -136.0533
1625.000000 92.089 -135.8798
1650.000000 92.197 -135.7252
1675.000000 92.305 -135.5872
1700.000000 92.412 -135.4671
1725.000000 92.517 -135.3662
1750.000000 92.619 -135.2831
1775.000000 92.720 -135.2184
1800.000000 92.818 -135.1736
1825.000000 92.913 -135.1455
1850.000000 93.007 -135.1334
1875.000000 93.099 -135.1421
1900.000000 93.189 -135.1677
1925.000000 93.275 -135.2058
1950.000000 93.358 -135.2574
1975.000000 93.437 -135.3237
2000.000000 93.514 -135.4041
2030.000000 93.602 -135.5160
2060.000000 93.684 -135.6440
2090.000000 93.761 -135.7893
2120.000000 93.834 -135.9472
2140.000000 93.879 -136.0562
2180.000000 93.963 -136.2809
2200.000000 94.000 -136.3951
2240.000000 94.065 -136.6215
2270.000000 94.107 -136.7866
2300.000000 94.145 -136.9464
2330.000000 94.178 -137.0985
2360.000000 94.207 -137.2385
2400.000000 94.240 -137.4061
2430.000000 94.260 -137.5175
2470.000000 94.280 -137.6382
2500.000000 94.290 -137.7046
2540.000000 94.298 -137.7648
2580.000000 94.303 -137.7941
2620.000000 94.304 -137.7861
2650.000000 94.302 -137.7544
2690.000000 94.297 -137.6822
2720.000000 94.292 -137.6072
2760.000000 94.282 -137.4785
2800.000000 94.270 -137.3227
2850.000000 94.253 -137.1060
2900.000000 94.231 -136.8949
2950.000000 94.179 -136.6495
3000.000000 94.097 -135.9789
3040.000000 94.072 -135.1598
3070.000000 94.081 -134.6104
3110.000000 94.099 -134.0158
3150.000000 94.115 -133.4882
3200.000000 94.132 -132.8231
3250.000000 94.149 -132.1143
3300.000000 94.171 -131.3441
3350.000000 94.204 -130.4970
3400.000000 94.256 -129.5874
3450.000000 94.337 -128.6803
3500.000000 94.443 -127.8467
3550.000000 94.563 -127.1117
3600.000000 94.686 -126.4572
3650.000000 94.813 -125.8587
3700.000000 94.944 -125.3004
3750.000000 95.081 -124.7760
3820.000000 95.281 -124.1099
3870.000000 95.431 -123.6925
3950.000000 95.681 -123.1484
4000.000000 95.845 -122.9026
4060.000000 96.052 -122.7251
4120.000000 96.266 -122.6938
4180.000000 96.485 -122.8186
4250.000000 96.739 -123.1727
4310.000000 96.953 -123.6672
4370.000000 97.157 -124.3515
4440.000000 97.383 -125.4227
4500.000000 97.562 -126.6131
4550.000000 97.694 -127.8132
4620.000000 97.838 -129.7880
4680.000000 97.912 -131.6913
4750.000000 97.936 -134.0568
4820.000000 97.890 -136.4725
4870.000000 97.815 -138.1732
4940.000000 97.655 -140.4523
5000.000000 97.469 -142.2619
5080.000000 97.163 -144.4021
5150.000000 96.850 -145.9765
5220.000000 96.504 -147.2471
5300.000000 96.078 -148.3208
5380.000000 95.631 -149.0049
5450.000000 95.227 -149.3035
5520.000000 94.809 -149.3308
5600.000000 94.301 -148.9549
5700.000000 93.624 -147.2626
5800.000000 93.133 -144.2268
5900.000000 92.814 -141.8564
6000.000000 92.462 -139.4829
6080.000000 92.205 -137.2698
6150.000000 92.014 -135.2007
6220.000000 91.853 -133.0562
6300.000000 91.702 -130.5357
6400.000000 91.560 -127.3034
6500.000000 91.467 -123.9796
6600.000000 91.425 -120.4370
6700.000000 91.497 -116.6346
6800.000000 91.703 -113.2404
6900.000000 91.952 -110.3150
7000.000000 92.259 -107.3921
7100.000000 92.656 -104.4816
7200.000000 93.158 -101.7635
7300.000000 93.776 -99.4233
7400.000000 94.518 -97.6671
7500.000000 95.392 -96.7814
7620.000000 96.616 -97.4760
7750.000000 98.023 -101.4860
7880.000000 99.149 -109.9742
8000.000000 99.625 -121.4541
8120.000000 99.363 -134.0219
8250.000000 98.309 -145.2919
8380.000000 96.768 -152.1800
8500.000000 95.224 -154.8843
8620.000000 93.750 -155.0368
8750.000000 92.311 -153.2915
8850.000000 91.326 -151.0379
9000.000000 90.045 -146.6972
9120.000000 89.173 -142.6679
9250.000000 88.361 -137.9154
9380.000000 87.670 -132.8728
9500.000000 87.132 -128.0385
9620.000000 86.685 -123.0894
9750.000000 86.303 -117.6497
9880.000000 86.025 -112.1749
10000.000000 85.854 -107.1323
10150.000000 85.753 -100.9025
10300.000000 85.780 -94.8246
10440.000000 85.926 -89.3703
10600.000000 86.246 -83.5632
10750.000000 86.690 -78.7824
10900.000000 87.261 -74.8683
11060.000000 87.994 -71.9030
11200.000000 88.712 -70.6557
11380.000000 89.648 -71.4972
11500.000000 90.187 -73.8476
11720.000000 90.713 -81.5329
11800.000000 90.695 -84.9525
12060.000000 89.818 -94.8504
12200.000000 88.951 -97.9477
12410.000000 87.432 -99.0045
12500.000000 86.771 -98.3015
12650.000000 85.722 -95.9134
12800.000000 84.774 -92.3337
13150.000000 83.068 -81.0672
13200.000000 82.884 -79.2495
13400.000000 82.288 -71.6712
13600.000000 81.920 -63.7726
13800.000000 81.788 -55.7951
14000.000000 81.894 -47.9418
14300.000000 82.509 -36.7788
14500.000000 83.266 -30.1641
14750.000000 84.659 -23.8443
15000.000000 86.501 -21.6795
15250.000000 88.352 -26.9795
15500.000000 89.268 -41.0402
15750.000000 88.549 -55.3688
16000.000000 86.814 -60.3316
16250.000000 85.421 -52.4020
16500.000000 86.526 -43.3433
16750.000000 87.746 -50.1523
17000.000000 87.860 -62.7189
17250.000000 87.259 -75.4303
17500.000000 85.995 -87.3721
17750.000000 84.029 -96.2053
18000.000000 81.524 -99.8232
18250.000000 78.811 -97.8698
18500.000000 76.285 -91.0641
18750.000000 74.431 -80.6296
19000.000000 73.638 -68.9100
19250.000000 73.605 -59.3333
19500.000000 73.497 -53.7954
19750.000000 72.797 -50.6060
20000.000000 71.419 -46.7714
20300.000000 69.138 -39.5468
20600.000000 66.559 -30.3172
20900.000000 63.648 -19.8730
21200.000000 60.221 -7.2503
21400.000000 57.673 1.5287
21800.000000 52.299 -20.9637
22000.000000 49.568 -167.5451
22400.000000 43.605 15.0488
22700.000000 38.391 -104.6426
23000.000000 35.154 -19.3125
23300.000000 37.135 60.8750
23600.000000 39.534 -0.6641
24000.000000 40.903 10.6406
