* Measurement data measured by REW V5.20.13
* Source: Headset (DS by VECLAN.COM), MICROPHONE (Master Volume), L, volume: 0.720. Timing signal peak level -17.1 dBFS, measurement signal peak level -15.9 dBFS
* Format: 2M Log Swept Sine, 1 sweep at -12.0 dBFS using an acoustic timing reference
* Dated: Feb 15, 2024 2:47:36 PM
* REW Settings:
*  C-weighting compensation: Off
*  Target level: 75.0 dB
* Note: ; Delay -0.0709 ms (-24 mm, -0.96 in) using estimated IR delay relative to Acoustic reference played from HEADPHONE R with no timing offset
* Measurement: CCA Rhapsody UUUU R
* Smoothing: 1/24 octave
* Frequency Step: 1/48 octave
* Start Frequency: 1.000 Hz
*
* Freq(Hz) SPL(dB) Phase(degrees)
1.000000 80.534 -77.4725
1.015000 81.215 -77.2612
1.030000 81.865 -77.0838
1.044000 82.438 -76.9506
1.060000 83.046 -76.8385
1.075000 83.566 -76.7743
1.090000 84.031 -76.7517
1.106000 84.464 -76.7783
1.120000 84.812 -76.8590
1.138000 85.228 -77.0402
1.150000 85.486 -77.2056
1.172000 85.921 -77.5925
1.180000 86.068 -77.7576
1.206000 86.508 -78.3728
1.220000 86.722 -78.7474
1.241000 87.017 -79.3560
1.250000 87.134 -79.6311
1.265000 87.319 -80.1049
1.280000 87.492 -80.5937
1.315000 87.855 -81.7659
1.320000 87.903 -81.9344
1.340000 88.088 -82.6040
1.360000 88.263 -83.2582
1.380000 88.432 -83.8855
1.400000 88.598 -84.4750
1.430000 88.848 -85.2633
1.450000 89.021 -85.7087
1.475000 89.246 -86.1609
1.500000 89.453 -86.5363
1.525000 89.638 -86.8541
1.550000 89.803 -87.1230
1.575000 89.950 -87.3521
1.600000 90.082 -87.5503
1.625000 90.201 -87.7266
1.650000 90.309 -87.8898
1.675000 90.410 -88.0490
1.700000 90.504 -88.2130
1.725000 90.594 -88.3908
1.750000 90.684 -88.5914
1.775000 90.774 -88.8237
1.800000 90.868 -89.0966
1.825000 90.967 -89.4191
1.850000 91.071 -89.7926
1.875000 91.170 -90.2012
1.900000 91.265 -90.6401
1.925000 91.355 -91.1051
1.950000 91.443 -91.5918
1.975000 91.527 -92.0961
2.000000 91.609 -92.6137
2.030000 91.706 -93.2464
2.060000 91.801 -93.8849
2.090000 91.895 -94.5218
2.120000 91.989 -95.1497
2.140000 92.053 -95.5598
2.180000 92.182 -96.3496
2.200000 92.249 -96.7251
2.240000 92.384 -97.4541
2.270000 92.487 -97.9896
2.300000 92.590 -98.5173
2.330000 92.693 -99.0387
2.360000 92.795 -99.5553
2.400000 92.931 -100.2395
2.430000 93.031 -100.7511
2.470000 93.162 -101.4342
2.500000 93.258 -101.9493
2.540000 93.382 -102.6427
2.580000 93.500 -103.3458
2.620000 93.615 -104.0510
2.650000 93.699 -104.5802
2.690000 93.807 -105.2870
2.720000 93.886 -105.8183
2.760000 93.990 -106.5289
2.800000 94.090 -107.2427
2.850000 94.212 -108.1407
2.900000 94.331 -109.0465
2.950000 94.447 -109.9628
3.000000 94.559 -110.9002
3.040000 94.646 -111.6619
3.070000 94.710 -112.2370
3.110000 94.793 -113.0053
3.150000 94.873 -113.7710
3.200000 94.970 -114.7177
3.250000 95.064 -115.6443
3.300000 95.153 -116.5419
3.350000 95.239 -117.4087
3.400000 95.320 -118.2519
3.450000 95.397 -119.0775
3.500000 95.471 -119.8916
3.550000 95.541 -120.7004
3.600000 95.608 -121.5098
3.650000 95.671 -122.3260
3.700000 95.731 -123.1554
3.750000 95.787 -123.9977
3.820000 95.858 -125.1835
3.870000 95.905 -126.0242
3.950000 95.975 -127.3361
4.000000 96.016 -128.1227
4.060000 96.061 -129.0220
4.120000 96.102 -129.8816
4.180000 96.139 -130.7090
4.250000 96.178 -131.6417
4.310000 96.208 -132.4203
4.370000 96.236 -133.1859
4.440000 96.266 -134.0693
4.500000 96.288 -134.8147
4.550000 96.304 -135.4242
4.620000 96.323 -136.2546
4.680000 96.339 -136.9407
4.750000 96.357 -137.7050
4.820000 96.375 -138.4242
4.870000 96.386 -138.9114
4.940000 96.401 -139.5633
5.000000 96.414 -140.1000
5.080000 96.431 -140.7939
5.150000 96.448 -141.3889
5.220000 96.465 -141.9616
5.300000 96.485 -142.5899
5.380000 96.506 -143.1992
5.450000 96.525 -143.7242
5.520000 96.545 -144.2465
5.600000 96.571 -144.8285
5.700000 96.604 -145.5398
5.800000 96.638 -146.2489
5.900000 96.671 -146.9710
6.000000 96.705 -147.6991
6.080000 96.731 -148.2849
6.150000 96.753 -148.8009
6.220000 96.772 -149.3208
6.300000 96.790 -149.9250
6.400000 96.810 -150.6937
6.500000 96.825 -151.4594
6.600000 96.833 -152.2031
6.700000 96.833 -152.9342
6.800000 96.826 -153.6519
6.900000 96.814 -154.3341
7.000000 96.796 -154.9626
7.100000 96.771 -155.5535
7.200000 96.740 -156.0973
7.300000 96.708 -156.5763
7.400000 96.676 -156.9787
7.500000 96.640 -157.3124
7.620000 96.599 -157.6325
7.750000 96.565 -157.8860
7.880000 96.538 -158.0250
8.000000 96.522 -158.0963
8.120000 96.521 -158.1495
8.250000 96.536 -158.1555
8.380000 96.562 -158.1681
8.500000 96.597 -158.2317
8.620000 96.644 -158.3214
8.750000 96.701 -158.4742
8.850000 96.743 -158.6503
9.000000 96.812 -159.0005
9.120000 96.865 -159.3348
9.250000 96.914 -159.7463
9.380000 96.957 -160.2151
9.500000 96.988 -160.6573
9.620000 97.008 -161.0937
9.750000 97.018 -161.5735
9.880000 97.017 -162.0189
10.000000 97.003 -162.3840
10.150000 96.971 -162.7928
10.300000 96.936 -163.1327
10.440000 96.896 -163.3755
10.600000 96.854 -163.6102
10.750000 96.826 -163.8083
10.900000 96.805 -163.9897
11.060000 96.791 -164.2361
11.200000 96.787 -164.4904
11.380000 96.781 -164.8807
11.500000 96.775 -165.1927
11.720000 96.757 -165.8246
11.800000 96.746 -166.0659
12.060000 96.693 -166.8727
12.200000 96.655 -167.2652
12.410000 96.585 -167.7896
12.500000 96.553 -167.9634
12.650000 96.496 -168.1898
12.800000 96.441 -168.3438
13.150000 96.339 -168.4200
13.200000 96.329 -168.4171
13.400000 96.305 -168.3605
13.600000 96.300 -168.3251
13.800000 96.314 -168.3425
14.000000 96.337 -168.4526
14.300000 96.377 -168.7968
14.500000 96.397 -169.1267
14.750000 96.411 -169.5859
15.000000 96.412 -170.0629
15.250000 96.404 -170.5022
15.500000 96.393 -170.8867
15.750000 96.379 -171.2094
16.000000 96.365 -171.4764
16.250000 96.353 -171.7038
16.500000 96.343 -171.8972
16.750000 96.336 -172.0599
17.000000 96.335 -172.1956
17.250000 96.338 -172.3130
17.500000 96.349 -172.4240
17.750000 96.363 -172.5532
18.000000 96.380 -172.7106
18.250000 96.397 -172.9069
18.500000 96.410 -173.1318
18.750000 96.418 -173.3675
19.000000 96.420 -173.5971
19.250000 96.420 -173.7983
19.500000 96.420 -173.9727
19.750000 96.423 -174.1226
20.000000 96.430 -174.2708
20.299999 96.443 -174.4747
20.600000 96.457 -174.7266
20.900000 96.470 -175.0307
21.200001 96.477 -175.3691
21.400000 96.478 -175.5979
21.799999 96.474 -176.0466
22.000000 96.471 -176.2634
22.400000 96.468 -176.6931
22.700001 96.466 -177.0267
23.000000 96.465 -177.3771
23.299999 96.461 -177.7368
23.600000 96.455 -178.0918
24.000000 96.445 -178.5352
24.299999 96.439 -178.8364
24.700001 96.434 -179.2001
25.000000 96.433 -179.4532
25.400000 96.438 -179.7748
25.799999 96.446 179.9165
26.200001 96.457 179.6188
26.500000 96.468 179.4019
26.900000 96.485 179.1194
27.200001 96.500 178.9089
27.600000 96.522 178.6211
28.000000 96.546 178.3076
28.500000 96.573 177.8572
29.000000 96.587 177.3571
29.500000 96.584 176.8745
30.000000 96.571 176.4759
30.400000 96.562 176.2130
30.700001 96.558 176.0265
31.100000 96.555 175.7632
31.500000 96.553 175.4758
32.000000 96.547 175.1044
32.500000 96.540 174.7436
33.000000 96.534 174.3814
33.500000 96.526 174.0073
34.000000 96.514 173.6611
34.500000 96.506 173.3891
35.000000 96.513 173.1580
35.500000 96.536 172.8572
36.000000 96.558 172.4206
36.500000 96.562 171.9049
37.000000 96.548 171.4333
37.500000 96.529 171.0609
38.200001 96.515 170.6035
38.700001 96.508 170.2370
39.500000 96.484 169.6401
40.000000 96.468 169.3252
40.599998 96.458 168.9743
41.200001 96.457 168.5729
41.799999 96.452 168.1183
42.500000 96.440 167.5978
43.099998 96.430 167.1857
43.700001 96.424 166.7740
44.400002 96.413 166.2831
45.000000 96.398 165.8869
45.500000 96.386 165.5892
46.200001 96.375 165.1905
46.799999 96.369 164.8217
47.500000 96.358 164.3558
48.200001 96.342 163.8923
48.700001 96.330 163.5687
49.400002 96.314 163.1081
50.000000 96.297 162.7067
50.799999 96.273 162.1911
51.500000 96.253 161.7552
52.200001 96.234 161.3134
53.000000 96.209 160.8139
53.799999 96.184 160.3442
54.500000 96.164 159.9382
55.200001 96.144 159.5020
56.000000 96.112 158.9748
57.000000 96.060 158.3819
58.000000 96.011 157.8615
59.000000 95.966 157.3080
60.000000 95.919 156.7668
60.799999 95.886 156.3483
61.500000 95.863 155.9565
62.200001 95.841 155.5247
63.000000 95.812 154.9967
64.000000 95.762 154.3539
65.000000 95.706 153.8145
66.000000 95.656 153.3686
67.000000 95.611 152.9171
68.000000 95.558 152.4886
69.000000 95.512 152.1156
70.000000 95.476 151.6831
71.000000 95.439 151.2086
72.000000 95.415 150.7054
73.000000 95.396 150.0238
74.000000 95.336 149.2328
75.000000 95.226 148.7263
76.199997 95.099 148.6718
77.500000 95.010 148.8938
78.800003 94.982 148.9800
80.000000 94.967 148.4856
81.199997 94.903 147.6095
82.500000 94.792 146.6343
83.800003 94.683 145.8464
85.000000 94.617 145.2374
86.199997 94.567 144.6092
87.500000 94.503 144.0347
88.500000 94.448 143.7082
90.000000 94.364 143.2747
91.199997 94.286 142.9106
92.500000 94.200 142.5260
93.800003 94.118 142.0897
95.000000 94.043 141.6906
96.199997 93.972 141.2869
97.500000 93.885 140.8368
98.800003 93.793 140.4773
100.000000 93.714 140.1246
101.500000 93.609 139.6494
103.000000 93.510 139.2303
104.400002 93.432 138.8218
106.000000 93.339 138.3095
107.500000 93.236 137.8999
109.000000 93.125 137.5811
110.599998 93.010 137.2532
112.000000 92.911 136.9238
113.800003 92.785 136.4532
115.000000 92.703 136.1232
117.199997 92.554 135.5370
118.000000 92.501 135.3402
120.599998 92.322 134.7780
122.000000 92.221 134.5512
124.099998 92.073 134.2942
125.000000 92.014 134.1772
126.500000 91.918 133.9332
128.000000 91.822 133.6591
131.500000 91.588 133.0621
132.000000 91.553 132.9924
134.000000 91.403 132.7723
136.000000 91.255 132.6119
138.000000 91.111 132.4318
140.000000 90.969 132.2129
143.000000 90.759 131.8571
145.000000 90.630 131.5874
147.500000 90.453 131.3882
150.000000 90.273 131.5140
152.500000 90.099 131.6102
155.000000 89.923 131.5229
157.500000 89.760 131.4030
160.000000 89.609 131.3414
162.500000 89.450 131.3388
165.000000 89.277 131.3451
167.500000 89.100 131.3445
170.000000 88.925 131.3376
172.500000 88.751 131.4080
175.000000 88.579 131.5846
177.500000 88.407 131.7640
180.000000 88.226 131.8599
182.500000 88.044 131.9503
185.000000 87.871 132.1274
187.500000 87.711 132.3898
190.000000 87.554 132.7043
192.500000 87.396 133.0575
195.000000 87.237 133.4225
197.500000 87.073 133.7895
200.000000 86.909 134.1660
203.000000 86.720 134.6487
206.000000 86.539 135.1719
209.000000 86.357 135.7309
212.000000 86.175 136.3137
214.000000 86.056 136.7103
218.000000 85.822 137.5668
220.000000 85.709 138.0247
224.000000 85.489 138.9826
227.000000 85.326 139.7608
230.000000 85.164 140.5278
233.000000 85.008 141.2675
236.000000 84.868 142.0369
240.000000 84.691 143.1820
243.000000 84.558 144.1000
247.000000 84.394 145.3383
250.000000 84.271 146.2601
254.000000 84.103 147.4941
258.000000 83.952 148.7368
262.000000 83.822 149.9677
265.000000 83.732 150.9183
269.000000 83.609 152.2465
272.000000 83.518 153.2407
276.000000 83.416 154.5407
280.000000 83.331 155.8624
285.000000 83.227 157.5175
290.000000 83.127 159.1228
295.000000 83.047 160.7429
300.000000 82.981 162.3912
304.000000 82.933 163.6438
307.000000 82.903 164.5579
311.000000 82.871 165.7959
315.000000 82.843 167.0392
320.000000 82.818 168.5789
325.000000 82.811 170.0956
330.000000 82.811 171.5880
335.000000 82.810 173.0085
340.000000 82.816 174.3353
345.000000 82.832 175.6208
350.000000 82.853 176.8917
355.000000 82.865 178.1255
360.000000 82.879 179.3263
365.000000 82.907 -179.5122
370.000000 82.945 -178.4057
375.000000 82.978 -177.3247
382.000000 83.028 -175.8569
387.000000 83.066 -174.8618
395.000000 83.131 -173.3238
400.000000 83.172 -172.3895
406.000000 83.219 -171.3181
412.000000 83.270 -170.2924
418.000000 83.321 -169.2920
425.000000 83.379 -168.1885
431.000000 83.433 -167.2762
437.000000 83.486 -166.3810
444.000000 83.546 -165.3908
450.000000 83.596 -164.5759
455.000000 83.637 -163.9034
462.000000 83.692 -162.9845
468.000000 83.736 -162.2024
475.000000 83.791 -161.3069
482.000000 83.856 -160.4912
487.000000 83.904 -159.9368
494.000000 83.970 -159.1506
500.000000 84.022 -158.4674
508.000000 84.086 -157.5870
515.000000 84.142 -156.8632
522.000000 84.197 -156.1483
530.000000 84.257 -155.3335
538.000000 84.318 -154.5443
545.000000 84.371 -153.8625
552.000000 84.425 -153.1892
560.000000 84.491 -152.4463
570.000000 84.570 -151.5298
580.000000 84.642 -150.6131
590.000000 84.713 -149.6821
600.000000 84.784 -148.7888
608.000000 84.839 -148.1205
615.000000 84.888 -147.5341
622.000000 84.935 -146.9394
630.000000 84.984 -146.2599
640.000000 85.041 -145.4135
650.000000 85.100 -144.5661
660.000000 85.161 -143.7382
670.000000 85.222 -142.9287
680.000000 85.284 -142.1111
690.000000 85.347 -141.2850
700.000000 85.410 -140.4673
710.000000 85.477 -139.6631
720.000000 85.547 -138.8710
730.000000 85.616 -138.0832
740.000000 85.685 -137.2914
750.000000 85.754 -136.4946
762.000000 85.841 -135.5636
775.000000 85.941 -134.6009
788.000000 86.046 -133.6745
800.000000 86.143 -132.8529
812.000000 86.238 -132.0917
825.000000 86.334 -131.3861
838.000000 86.407 -130.8180
850.000000 86.430 -130.2260
862.000000 86.434 -129.2433
875.000000 86.486 -127.7785
885.000000 86.572 -126.6619
900.000000 86.734 -125.2757
912.000000 86.865 -124.3820
925.000000 87.003 -123.5398
938.000000 87.137 -122.7621
950.000000 87.256 -122.0618
962.000000 87.370 -121.3615
975.000000 87.491 -120.6107
988.000000 87.615 -119.8757
1000.000000 87.732 -119.2016
1015.000000 87.883 -118.3676
1030.000000 88.040 -117.5980
1044.000000 88.189 -116.9881
1060.000000 88.358 -116.4152
1075.000000 88.511 -115.9601
1090.000000 88.663 -115.5542
1106.000000 88.827 -115.1526
1120.000000 88.966 -114.8133
1138.000000 89.136 -114.3900
1150.000000 89.246 -114.1248
1172.000000 89.443 -113.6803
1180.000000 89.512 -113.5275
1206.000000 89.731 -113.0400
1220.000000 89.847 -112.7870
1241.000000 90.022 -112.4320
1250.000000 90.097 -112.2838
1265.000000 90.221 -112.0388
1280.000000 90.341 -111.8089
1315.000000 90.597 -111.2465
1320.000000 90.631 -111.1589
1340.000000 90.757 -110.8272
1360.000000 90.868 -110.5131
1380.000000 90.976 -110.1943
1400.000000 91.088 -109.8518
1430.000000 91.257 -109.3033
1450.000000 91.371 -108.9463
1475.000000 91.514 -108.4850
1500.000000 91.651 -108.0029
1525.000000 91.780 -107.4905
1550.000000 91.905 -106.9543
1575.000000 92.034 -106.4150
1600.000000 92.172 -105.8787
1625.000000 92.315 -105.3696
1650.000000 92.458 -104.8918
1675.000000 92.594 -104.4427
1700.000000 92.726 -104.0105
1725.000000 92.855 -103.5926
1750.000000 92.984 -103.1846
1775.000000 93.111 -102.7726
1800.000000 93.236 -102.3604
1825.000000 93.360 -101.9509
1850.000000 93.484 -101.5396
1875.000000 93.607 -101.1207
1900.000000 93.733 -100.7053
1925.000000 93.861 -100.2926
1950.000000 93.989 -99.8708
1975.000000 94.119 -99.4428
2000.000000 94.253 -99.0214
2030.000000 94.423 -98.5481
2060.000000 94.603 -98.1437
2090.000000 94.787 -97.8407
2120.000000 94.967 -97.6321
2140.000000 95.081 -97.5302
2180.000000 95.296 -97.3934
2200.000000 95.396 -97.3517
2240.000000 95.588 -97.2907
2270.000000 95.732 -97.2659
2300.000000 95.875 -97.2575
2330.000000 96.009 -97.2419
2360.000000 96.135 -97.2119
2400.000000 96.295 -97.1470
2430.000000 96.418 -97.0845
2470.000000 96.593 -97.0126
2500.000000 96.734 -96.9923
2540.000000 96.928 -97.0698
2580.000000 97.122 -97.3428
2620.000000 97.306 -97.8192
2650.000000 97.428 -98.2686
2690.000000 97.565 -98.9314
2720.000000 97.648 -99.4414
2760.000000 97.736 -100.1056
2800.000000 97.804 -100.7364
2850.000000 97.866 -101.4560
2900.000000 97.908 -102.0901
2950.000000 97.935 -102.6264
3000.000000 97.954 -103.0613
3040.000000 97.965 -103.3414
3070.000000 97.972 -103.5216
3110.000000 97.980 -103.7402
3150.000000 97.988 -103.9600
3200.000000 97.994 -104.2653
3250.000000 97.992 -104.5931
3300.000000 97.979 -104.9143
3350.000000 97.953 -105.1896
3400.000000 97.913 -105.3713
3450.000000 97.865 -105.4407
3500.000000 97.822 -105.4186
3550.000000 97.792 -105.3399
3600.000000 97.769 -105.2364
3650.000000 97.748 -105.1394
3700.000000 97.726 -105.0743
3750.000000 97.701 -105.0464
3820.000000 97.659 -105.0390
3870.000000 97.615 -105.0272
3950.000000 97.514 -104.9440
4000.000000 97.437 -104.8366
4060.000000 97.341 -104.6450
4120.000000 97.242 -104.3750
4180.000000 97.145 -104.0313
4250.000000 97.032 -103.5544
4310.000000 96.934 -103.1035
4370.000000 96.833 -102.6499
4440.000000 96.713 -102.1434
4500.000000 96.603 -101.7342
4550.000000 96.502 -101.4029
4620.000000 96.344 -100.9303
4680.000000 96.194 -100.4865
4750.000000 96.009 -99.8793
4820.000000 95.820 -99.1399
4870.000000 95.684 -98.5229
4940.000000 95.496 -97.5569
5000.000000 95.338 -96.6588
5080.000000 95.130 -95.3900
5150.000000 94.951 -94.2287
5220.000000 94.775 -93.0139
5300.000000 94.576 -91.5525
5380.000000 94.380 -90.0109
5450.000000 94.214 -88.5920
5520.000000 94.054 -87.1077
5600.000000 93.876 -85.3287
5700.000000 93.661 -82.9804
5800.000000 93.458 -80.5014
5900.000000 93.276 -77.8973
6000.000000 93.110 -75.1645
6080.000000 92.993 -72.8936
6150.000000 92.904 -70.8543
6220.000000 92.828 -68.7721
6300.000000 92.760 -66.3486
6400.000000 92.703 -63.2627
6500.000000 92.677 -60.1205
6600.000000 92.682 -56.9274
6700.000000 92.725 -53.7057
6800.000000 92.820 -50.4946
6900.000000 92.991 -47.3478
7000.000000 93.239 -44.3319
7100.000000 93.551 -41.5276
7200.000000 93.920 -39.0320
7300.000000 94.340 -36.9552
7400.000000 94.800 -35.3989
7500.000000 95.290 -34.4583
7620.000000 95.913 -34.2935
7750.000000 96.564 -35.4833
7880.000000 97.030 -38.1716
8000.000000 97.244 -41.8102
8120.000000 97.214 -46.0850
8250.000000 96.886 -50.6605
8380.000000 96.282 -54.3793
8500.000000 95.546 -56.5959
8620.000000 94.706 -57.5175
8750.000000 93.746 -57.1442
8850.000000 93.007 -56.0150
9000.000000 91.945 -53.2049
9120.000000 91.154 -50.1795
9250.000000 90.362 -46.2938
9380.000000 89.647 -41.9215
9500.000000 89.059 -37.5514
9620.000000 88.534 -32.9275
9750.000000 88.036 -27.6901
9880.000000 87.608 -22.2652
10000.000000 87.275 -17.1297
10150.000000 86.941 -10.5822
10300.000000 86.697 -3.9386
10440.000000 86.549 2.2995
10600.000000 86.479 9.4051
10750.000000 86.507 15.9737
10900.000000 86.631 22.3709
11060.000000 86.878 28.8997
11200.000000 87.197 34.2569
11380.000000 87.747 40.4637
11500.000000 88.200 44.0263
11720.000000 89.178 48.8672
11800.000000 89.564 49.9314
12060.000000 90.757 50.1159
12200.000000 91.229 48.0497
12410.000000 91.501 43.0204
12500.000000 91.435 40.6730
12650.000000 91.105 37.2193
12800.000000 90.565 34.7673
13150.000000 88.922 33.0758
13200.000000 88.666 33.2263
13400.000000 87.606 34.7317
13600.000000 86.520 37.7227
13800.000000 85.478 42.1666
14000.000000 84.544 47.8581
14300.000000 83.424 58.1190
14500.000000 82.905 65.6692
14750.000000 82.540 75.3547
15000.000000 82.495 84.8031
15250.000000 82.789 93.4532
15500.000000 83.465 100.5642
15750.000000 84.478 105.0941
16000.000000 85.627 105.6563
16250.000000 86.568 101.1145
16500.000000 86.893 92.0419
16750.000000 86.370 81.4720
17000.000000 85.080 72.8161
17250.000000 83.304 67.4545
17500.000000 81.337 64.7984
17750.000000 79.303 63.5942
18000.000000 77.123 63.8396
18250.000000 74.836 65.3661
18500.000000 72.421 68.3876
18750.000000 69.925 74.6501
19000.000000 67.740 82.8206
19250.000000 65.753 90.3189
19500.000000 63.197 99.6242
19750.000000 59.840 111.6522
20000.000000 56.182 103.7728
20300.000000 52.458 -19.9182
20600.000000 49.817 -17.9575
20900.000000 47.203 52.0172
21200.000000 44.825 109.1316
21400.000000 45.346 -64.0112
21800.000000 48.760 106.8096
22000.000000 49.003 85.6279
22400.000000 45.655 121.5654
22700.000000 40.755 -170.4395
23000.000000 35.523 165.0645
23300.000000 32.533 -77.6797
23600.000000 31.822 75.3281
24000.000000 31.442 -136.6953
