* Measurement data measured by REW V5.20.13
* Source: Headset (DS by VECLAN.COM), MICROPHONE (Master Volume), L, volume: 0.720. Timing signal peak level -20.7 dBFS, measurement signal peak level -18.4 dBFS
* Format: 2M Log Swept Sine, 1 sweep at -12.0 dBFS using an acoustic timing reference
* Dated: Feb 15, 2024 2:49:14 PM
* REW Settings:
*  C-weighting compensation: Off
*  Target level: 75.0 dB
* Note: ; Delay -0.0697 ms (-24 mm, -0.94 in) using estimated IR delay relative to Acoustic reference played from HEADPHONE R with no timing offset
* Measurement: CCA Rhapsody DDDD R
* Smoothing: 1/24 octave
* Frequency Step: 1/48 octave
* Start Frequency: 1.000 Hz
*
* Freq(Hz) SPL(dB) Phase(degrees)
1.000000 74.029 -51.3013
1.015000 74.646 -52.3845
1.030000 75.237 -53.4430
1.044000 75.761 -54.4049
1.060000 76.320 -55.4687
1.075000 76.801 -56.4271
1.090000 77.235 -57.3434
1.106000 77.644 -58.2741
1.120000 77.979 -59.0717
1.138000 78.387 -60.0809
1.150000 78.646 -60.7435
1.172000 79.092 -61.9368
1.180000 79.246 -62.3638
1.206000 79.720 -63.7255
1.220000 79.958 -64.4421
1.241000 80.295 -65.4948
1.250000 80.433 -65.9378
1.265000 80.654 -66.6651
1.280000 80.866 -67.3784
1.315000 81.327 -68.9879
1.320000 81.389 -69.2115
1.340000 81.633 -70.0897
1.360000 81.867 -70.9420
1.380000 82.093 -71.7680
1.400000 82.314 -72.5674
1.430000 82.640 -73.7158
1.450000 82.857 -74.4473
1.475000 83.128 -75.3197
1.500000 83.381 -76.1225
1.525000 83.611 -76.8571
1.550000 83.821 -77.5313
1.575000 84.013 -78.1532
1.600000 84.190 -78.7307
1.625000 84.354 -79.2717
1.650000 84.506 -79.7841
1.675000 84.650 -80.2759
1.700000 84.788 -80.7551
1.725000 84.921 -81.2295
1.750000 85.053 -81.7072
1.775000 85.185 -82.1960
1.800000 85.319 -82.7039
1.825000 85.458 -83.2389
1.850000 85.600 -83.7979
1.875000 85.737 -84.3585
1.900000 85.870 -84.9191
1.925000 85.998 -85.4790
1.950000 86.122 -86.0377
1.975000 86.242 -86.5946
2.000000 86.360 -87.1491
2.030000 86.498 -87.8106
2.060000 86.633 -88.4668
2.090000 86.766 -89.1168
2.120000 86.898 -89.7595
2.140000 86.985 -90.1834
2.180000 87.161 -91.0191
2.200000 87.250 -91.4303
2.240000 87.427 -92.2366
2.270000 87.558 -92.8285
2.300000 87.689 -93.4112
2.330000 87.818 -93.9860
2.360000 87.945 -94.5546
2.400000 88.112 -95.3058
2.430000 88.234 -95.8659
2.470000 88.394 -96.6114
2.500000 88.511 -97.1715
2.540000 88.662 -97.9225
2.580000 88.808 -98.6809
2.620000 88.948 -99.4414
2.650000 89.051 -100.0118
2.690000 89.183 -100.7721
2.720000 89.279 -101.3417
2.760000 89.404 -102.1000
2.800000 89.525 -102.8565
2.850000 89.672 -103.7986
2.900000 89.813 -104.7358
2.950000 89.950 -105.6679
3.000000 90.081 -106.6005
3.040000 90.182 -107.3462
3.070000 90.255 -107.9042
3.110000 90.350 -108.6453
3.150000 90.441 -109.3815
3.200000 90.551 -110.2925
3.250000 90.656 -111.1902
3.300000 90.756 -112.0715
3.350000 90.851 -112.9376
3.400000 90.941 -113.7912
3.450000 91.026 -114.6329
3.500000 91.106 -115.4634
3.550000 91.181 -116.2834
3.600000 91.253 -117.0937
3.650000 91.321 -117.8949
3.700000 91.385 -118.6891
3.750000 91.444 -119.4786
3.820000 91.519 -120.5701
3.870000 91.568 -121.3356
3.950000 91.641 -122.5273
4.000000 91.682 -123.2465
4.060000 91.730 -124.0793
4.120000 91.772 -124.8825
4.180000 91.809 -125.6591
4.250000 91.848 -126.5349
4.310000 91.879 -127.2623
4.370000 91.907 -127.9710
4.440000 91.937 -128.7755
4.500000 91.959 -129.4430
4.550000 91.975 -129.9837
4.620000 91.995 -130.7171
4.680000 92.011 -131.3241
4.750000 92.029 -132.0075
4.820000 92.046 -132.6607
4.870000 92.057 -133.1069
4.940000 92.072 -133.7078
5.000000 92.083 -134.2054
5.080000 92.098 -134.8513
5.150000 92.110 -135.4059
5.220000 92.123 -135.9430
5.300000 92.136 -136.5357
5.380000 92.149 -137.1122
5.450000 92.160 -137.6086
5.520000 92.170 -138.1011
5.600000 92.181 -138.6536
5.700000 92.195 -139.3293
5.800000 92.206 -139.9930
5.900000 92.214 -140.6498
6.000000 92.219 -141.3013
6.080000 92.221 -141.8147
6.150000 92.221 -142.2552
6.220000 92.219 -142.6851
6.300000 92.213 -143.1671
6.400000 92.203 -143.7582
6.500000 92.188 -144.3235
6.600000 92.171 -144.8483
6.700000 92.150 -145.3353
6.800000 92.125 -145.7872
6.900000 92.099 -146.1967
7.000000 92.075 -146.5566
7.100000 92.050 -146.8663
7.200000 92.025 -147.1323
7.300000 92.004 -147.3611
7.400000 91.989 -147.5506
7.500000 91.977 -147.6943
7.620000 91.969 -147.8347
7.750000 91.972 -147.9778
7.880000 91.987 -148.0916
8.000000 92.009 -148.2010
8.120000 92.038 -148.3458
8.250000 92.079 -148.5262
8.380000 92.125 -148.7446
8.500000 92.168 -148.9955
8.620000 92.214 -149.2903
8.750000 92.263 -149.6448
8.850000 92.297 -149.9373
9.000000 92.345 -150.4195
9.120000 92.380 -150.8165
9.250000 92.414 -151.2395
9.380000 92.445 -151.6656
9.500000 92.469 -152.0475
9.620000 92.491 -152.4090
9.750000 92.511 -152.7841
9.880000 92.526 -153.1490
10.000000 92.535 -153.4752
10.150000 92.541 -153.8717
10.300000 92.542 -154.2805
10.440000 92.540 -154.6699
10.600000 92.533 -155.1378
10.750000 92.525 -155.6173
10.900000 92.513 -156.1251
11.060000 92.489 -156.6822
11.200000 92.461 -157.1947
11.380000 92.410 -157.7969
11.500000 92.364 -158.1576
11.720000 92.265 -158.6743
11.800000 92.227 -158.7888
12.060000 92.097 -158.9199
12.200000 92.039 -158.8117
12.410000 91.971 -158.4488
12.500000 91.955 -158.2553
12.650000 91.947 -157.8496
12.800000 91.960 -157.4446
13.150000 92.080 -156.7292
13.200000 92.102 -156.6787
13.400000 92.208 -156.6225
13.600000 92.313 -156.7942
13.800000 92.406 -157.2149
14.000000 92.471 -157.7611
14.300000 92.509 -158.7214
14.500000 92.493 -159.2964
14.750000 92.445 -159.8204
15.000000 92.379 -160.0780
15.250000 92.326 -160.0667
15.500000 92.297 -159.8994
15.750000 92.298 -159.6570
16.000000 92.328 -159.4784
16.250000 92.370 -159.4286
16.500000 92.416 -159.5166
16.750000 92.454 -159.7237
17.000000 92.481 -159.9779
17.250000 92.499 -160.2493
17.500000 92.512 -160.5032
17.750000 92.523 -160.7499
18.000000 92.534 -161.0062
18.250000 92.544 -161.2926
18.500000 92.549 -161.6121
18.750000 92.545 -161.9361
19.000000 92.531 -162.2372
19.250000 92.510 -162.4557
19.500000 92.491 -162.5768
19.750000 92.480 -162.5936
20.000000 92.486 -162.5439
20.299999 92.519 -162.4886
20.600000 92.576 -162.5262
20.900000 92.645 -162.7236
21.200001 92.708 -163.0853
21.400000 92.739 -163.3775
21.799999 92.777 -163.9820
22.000000 92.786 -164.2464
22.400000 92.795 -164.6398
22.700001 92.806 -164.8331
23.000000 92.825 -164.9896
23.299999 92.850 -165.1522
23.600000 92.876 -165.3304
24.000000 92.906 -165.5681
24.299999 92.925 -165.7095
24.700001 92.952 -165.8249
25.000000 92.979 -165.8775
25.400000 93.027 -165.9648
25.799999 93.081 -166.1371
26.200001 93.127 -166.4008
26.500000 93.152 -166.6242
26.900000 93.174 -166.9009
27.200001 93.184 -167.0656
27.600000 93.197 -167.2218
28.000000 93.214 -167.3266
28.500000 93.245 -167.4242
29.000000 93.289 -167.5194
29.500000 93.350 -167.6624
30.000000 93.423 -167.9375
30.400000 93.479 -168.2931
30.700001 93.514 -168.6332
31.100000 93.544 -169.1357
31.500000 93.555 -169.6229
32.000000 93.552 -170.1108
32.500000 93.548 -170.4369
33.000000 93.558 -170.6826
33.500000 93.581 -170.9523
34.000000 93.605 -171.2755
34.500000 93.621 -171.5874
35.000000 93.636 -171.8241
35.500000 93.661 -172.0062
36.000000 93.699 -172.2206
36.500000 93.740 -172.5154
37.000000 93.774 -172.8539
37.500000 93.804 -173.1833
38.200001 93.851 -173.6724
38.700001 93.883 -174.1177
39.500000 93.898 -174.8922
40.000000 93.892 -175.2611
40.599998 93.893 -175.5689
41.200001 93.911 -175.8715
41.799999 93.932 -176.2358
42.500000 93.947 -176.6481
43.099998 93.963 -176.9334
43.700001 93.988 -177.1979
44.400002 94.025 -177.5337
45.000000 94.059 -177.8661
45.500000 94.085 -178.1897
46.200001 94.110 -178.6917
46.799999 94.118 -179.0934
47.500000 94.129 -179.4807
48.200001 94.150 -179.8579
48.700001 94.167 179.8372
49.400002 94.190 179.3748
50.000000 94.208 178.9658
50.799999 94.228 178.3943
51.500000 94.237 177.9032
52.200001 94.242 177.4720
53.000000 94.249 177.0245
53.799999 94.251 176.6015
54.500000 94.252 176.2812
55.200001 94.258 175.9584
56.000000 94.262 175.5195
57.000000 94.257 174.9572
58.000000 94.259 174.3109
59.000000 94.245 173.5534
60.000000 94.233 172.9013
60.799999 94.239 172.3585
61.500000 94.240 171.8616
62.200001 94.238 171.4353
63.000000 94.243 171.0380
64.000000 94.256 170.5733
65.000000 94.266 170.1334
66.000000 94.272 169.6467
67.000000 94.254 169.1306
68.000000 94.234 168.6952
69.000000 94.227 168.1612
70.000000 94.206 167.5247
71.000000 94.180 167.0442
72.000000 94.190 166.6956
73.000000 94.228 166.1629
74.000000 94.237 165.4981
75.000000 94.223 164.9612
76.199997 94.199 164.3352
77.500000 94.152 163.6369
78.800003 94.094 162.8602
80.000000 94.028 162.1906
81.199997 93.983 161.6804
82.500000 93.974 161.1185
83.800003 93.960 160.4711
85.000000 93.927 160.0170
86.199997 93.895 159.6775
87.500000 93.863 159.2616
88.500000 93.833 158.8712
90.000000 93.789 158.2112
91.199997 93.758 157.6063
92.500000 93.724 156.9354
93.800003 93.687 156.3349
95.000000 93.655 155.8846
96.199997 93.626 155.4390
97.500000 93.580 154.9222
98.800003 93.522 154.4523
100.000000 93.466 154.0323
101.500000 93.396 153.5392
103.000000 93.338 153.0441
104.400002 93.291 152.5051
106.000000 93.224 151.8246
107.500000 93.145 151.2802
109.000000 93.076 150.9737
110.599998 93.040 150.5828
112.000000 92.990 150.0900
113.800003 92.891 149.5042
115.000000 92.824 149.2031
117.199997 92.731 148.4546
118.000000 92.692 148.1356
120.599998 92.576 147.3892
122.000000 92.540 147.0009
124.099998 92.466 146.2421
125.000000 92.422 145.9180
126.500000 92.341 145.4172
128.000000 92.259 145.0139
131.500000 92.106 144.2111
132.000000 92.083 144.1046
134.000000 91.991 143.6929
136.000000 91.895 143.2183
138.000000 91.797 142.6982
140.000000 91.706 142.2057
143.000000 91.588 141.3929
145.000000 91.481 140.9393
147.500000 91.359 140.6546
150.000000 91.265 140.2667
152.500000 91.154 139.6694
155.000000 91.010 139.1604
157.500000 90.883 138.7827
160.000000 90.772 138.4007
162.500000 90.661 138.0738
165.000000 90.566 137.8203
167.500000 90.464 137.5580
170.000000 90.363 137.3646
172.500000 90.225 137.0291
175.000000 90.059 136.8522
177.500000 89.916 136.5680
180.000000 89.766 136.1649
182.500000 89.611 135.8812
185.000000 89.480 135.6808
187.500000 89.367 135.4773
190.000000 89.260 135.3270
192.500000 89.142 135.1640
195.000000 89.008 135.0131
197.500000 88.877 134.9055
200.000000 88.757 134.8070
203.000000 88.613 134.6749
206.000000 88.463 134.5731
209.000000 88.320 134.4734
212.000000 88.176 134.3655
214.000000 88.074 134.3491
218.000000 87.877 134.4005
220.000000 87.782 134.4048
224.000000 87.590 134.4021
227.000000 87.439 134.4344
230.000000 87.288 134.5124
233.000000 87.150 134.6195
236.000000 87.022 134.7165
240.000000 86.846 134.7644
243.000000 86.704 134.8464
247.000000 86.521 135.1500
250.000000 86.380 135.3471
254.000000 86.194 135.5647
258.000000 86.041 135.9568
262.000000 85.887 136.3288
265.000000 85.759 136.5309
269.000000 85.588 136.8857
272.000000 85.464 137.2131
276.000000 85.305 137.6624
280.000000 85.147 138.1022
285.000000 84.954 138.6852
290.000000 84.768 139.2928
295.000000 84.586 139.8851
300.000000 84.402 140.5168
304.000000 84.261 141.0528
307.000000 84.160 141.4743
311.000000 84.029 142.0678
315.000000 83.900 142.6625
320.000000 83.743 143.3750
325.000000 83.587 144.1394
330.000000 83.427 144.9689
335.000000 83.278 145.8607
340.000000 83.137 146.7519
345.000000 82.997 147.6074
350.000000 82.862 148.4706
355.000000 82.737 149.3581
360.000000 82.613 150.2746
365.000000 82.489 151.2246
370.000000 82.372 152.2085
375.000000 82.261 153.1522
382.000000 82.118 154.4348
387.000000 82.021 155.3731
395.000000 81.872 156.9506
400.000000 81.782 157.9705
406.000000 81.681 159.1593
412.000000 81.588 160.3127
418.000000 81.501 161.4810
425.000000 81.408 162.8723
431.000000 81.333 164.0439
437.000000 81.265 165.2047
444.000000 81.193 166.5583
450.000000 81.135 167.7048
455.000000 81.091 168.6587
462.000000 81.035 169.9705
468.000000 80.992 171.0763
475.000000 80.947 172.3752
482.000000 80.906 173.6634
487.000000 80.882 174.5869
494.000000 80.855 175.8760
500.000000 80.835 176.9565
508.000000 80.814 178.3410
515.000000 80.800 179.5200
522.000000 80.790 -179.2862
530.000000 80.777 -177.9062
538.000000 80.774 -176.5674
545.000000 80.774 -175.4718
552.000000 80.771 -174.3551
560.000000 80.784 -173.0625
570.000000 80.810 -171.5236
580.000000 80.831 -170.0242
590.000000 80.853 -168.5413
600.000000 80.882 -167.0902
608.000000 80.908 -165.9711
615.000000 80.932 -165.0048
622.000000 80.956 -164.0385
630.000000 80.983 -162.9352
640.000000 81.017 -161.5781
650.000000 81.057 -160.2670
660.000000 81.103 -158.9966
670.000000 81.154 -157.7430
680.000000 81.204 -156.4954
690.000000 81.258 -155.2736
700.000000 81.316 -154.0896
710.000000 81.376 -152.9232
720.000000 81.437 -151.7488
730.000000 81.500 -150.5880
740.000000 81.565 -149.4611
750.000000 81.635 -148.3742
762.000000 81.724 -147.1212
775.000000 81.822 -145.7810
788.000000 81.922 -144.4538
800.000000 82.019 -143.2919
812.000000 82.119 -142.2155
825.000000 82.231 -141.1811
838.000000 82.324 -140.3170
850.000000 82.365 -139.5323
862.000000 82.370 -138.4321
875.000000 82.406 -136.7870
885.000000 82.484 -135.4676
900.000000 82.652 -133.7793
912.000000 82.792 -132.6664
925.000000 82.939 -131.5913
938.000000 83.081 -130.5996
950.000000 83.208 -129.7379
962.000000 83.329 -128.9008
975.000000 83.454 -127.9905
988.000000 83.579 -127.0775
1000.000000 83.698 -126.2486
1015.000000 83.857 -125.2500
1030.000000 84.028 -124.3330
1044.000000 84.193 -123.5821
1060.000000 84.376 -122.8535
1075.000000 84.538 -122.2614
1090.000000 84.695 -121.7217
1106.000000 84.862 -121.1902
1120.000000 85.005 -120.7464
1138.000000 85.182 -120.1992
1150.000000 85.298 -119.8556
1172.000000 85.506 -119.2666
1180.000000 85.580 -119.0629
1206.000000 85.816 -118.4324
1220.000000 85.937 -118.1119
1241.000000 86.107 -117.6289
1250.000000 86.177 -117.4199
1265.000000 86.294 -117.0844
1280.000000 86.412 -116.7708
1315.000000 86.686 -116.0638
1320.000000 86.723 -115.9618
1340.000000 86.856 -115.5506
1360.000000 86.962 -115.1263
1380.000000 87.063 -114.7026
1400.000000 87.180 -114.2884
1430.000000 87.361 -113.6443
1450.000000 87.479 -113.2086
1475.000000 87.623 -112.6509
1500.000000 87.761 -112.0678
1525.000000 87.897 -111.4697
1550.000000 88.034 -110.8696
1575.000000 88.171 -110.2515
1600.000000 88.305 -109.6217
1625.000000 88.440 -109.0100
1650.000000 88.581 -108.4551
1675.000000 88.727 -107.9510
1700.000000 88.870 -107.4672
1725.000000 89.008 -106.9901
1750.000000 89.139 -106.5162
1775.000000 89.264 -106.0415
1800.000000 89.387 -105.5666
1825.000000 89.510 -105.0972
1850.000000 89.636 -104.6199
1875.000000 89.765 -104.1400
1900.000000 89.896 -103.6674
1925.000000 90.027 -103.1930
1950.000000 90.155 -102.7117
1975.000000 90.284 -102.2250
2000.000000 90.418 -101.7513
2030.000000 90.591 -101.2255
2060.000000 90.772 -100.7580
2090.000000 90.958 -100.3757
2120.000000 91.144 -100.0924
2140.000000 91.267 -99.9486
2180.000000 91.507 -99.7572
2200.000000 91.622 -99.6990
2240.000000 91.836 -99.6062
2270.000000 91.984 -99.5519
2300.000000 92.121 -99.4992
2330.000000 92.250 -99.4404
2360.000000 92.376 -99.3761
2400.000000 92.548 -99.2854
2430.000000 92.683 -99.2019
2470.000000 92.870 -99.0850
2500.000000 93.019 -99.0320
2540.000000 93.227 -99.0938
2580.000000 93.433 -99.3736
2620.000000 93.620 -99.8657
2650.000000 93.744 -100.3424
2690.000000 93.882 -101.0411
2720.000000 93.966 -101.5740
2760.000000 94.056 -102.2685
2800.000000 94.126 -102.9215
2850.000000 94.188 -103.6498
2900.000000 94.224 -104.2659
2950.000000 94.246 -104.7617
3000.000000 94.267 -105.1697
3040.000000 94.288 -105.4685
3070.000000 94.303 -105.6882
3110.000000 94.319 -105.9872
3150.000000 94.326 -106.3019
3200.000000 94.322 -106.7080
3250.000000 94.307 -107.1013
3300.000000 94.274 -107.4269
3350.000000 94.224 -107.6437
3400.000000 94.167 -107.7467
3450.000000 94.120 -107.7438
3500.000000 94.088 -107.6675
3550.000000 94.068 -107.5641
3600.000000 94.052 -107.4804
3650.000000 94.032 -107.4414
3700.000000 94.005 -107.4422
3750.000000 93.971 -107.4637
3820.000000 93.910 -107.4821
3870.000000 93.853 -107.4624
3950.000000 93.735 -107.3446
4000.000000 93.651 -107.2097
4060.000000 93.548 -106.9816
4120.000000 93.442 -106.6673
4180.000000 93.333 -106.2697
4250.000000 93.206 -105.7375
4310.000000 93.100 -105.2567
4370.000000 92.993 -104.7731
4440.000000 92.865 -104.2106
4500.000000 92.748 -103.7161
4550.000000 92.643 -103.2896
4620.000000 92.488 -102.6631
4680.000000 92.354 -102.1069
4750.000000 92.197 -101.4370
4820.000000 92.033 -100.7258
4870.000000 91.909 -100.1853
4940.000000 91.726 -99.3740
5000.000000 91.565 -98.6259
5080.000000 91.349 -97.5490
5150.000000 91.154 -96.5185
5220.000000 90.954 -95.3981
5300.000000 90.719 -93.9877
5380.000000 90.492 -92.4469
5450.000000 90.299 -90.9801
5520.000000 90.113 -89.4108
5600.000000 89.915 -87.5140
5700.000000 89.685 -85.0159
5800.000000 89.460 -82.3795
5900.000000 89.261 -79.6440
6000.000000 89.086 -76.8023
6080.000000 88.960 -74.4521
6150.000000 88.864 -72.3485
6220.000000 88.781 -70.2040
6300.000000 88.703 -67.7116
6400.000000 88.632 -64.5360
6500.000000 88.589 -61.2869
6600.000000 88.573 -57.9563
6700.000000 88.600 -54.5601
6800.000000 88.686 -51.1328
6900.000000 88.850 -47.7327
7000.000000 89.101 -44.4507
7100.000000 89.427 -41.3962
7200.000000 89.818 -38.6775
7300.000000 90.265 -36.4138
7400.000000 90.751 -34.7052
7500.000000 91.268 -33.6422
7620.000000 91.925 -33.3642
7750.000000 92.613 -34.4548
7880.000000 93.119 -37.0900
8000.000000 93.369 -40.7324
8120.000000 93.374 -45.0813
8250.000000 93.075 -49.8065
8380.000000 92.487 -53.7091
8500.000000 91.751 -56.0812
8620.000000 90.903 -57.1122
8750.000000 89.926 -56.7927
8850.000000 89.174 -55.6678
9000.000000 88.103 -52.8260
9120.000000 87.314 -49.7647
9250.000000 86.532 -45.8522
9380.000000 85.824 -41.4633
9500.000000 85.238 -37.0945
9620.000000 84.716 -32.4945
9750.000000 84.225 -27.3045
9880.000000 83.804 -21.9476
10000.000000 83.472 -16.8842
10150.000000 83.128 -10.4143
10300.000000 82.867 -3.8261
10440.000000 82.701 2.3790
10600.000000 82.608 9.4777
10750.000000 82.616 16.0813
10900.000000 82.722 22.5421
11060.000000 82.949 29.1742
11200.000000 83.245 34.6612
11380.000000 83.761 41.0903
11500.000000 84.191 44.8457
11720.000000 85.136 50.1824
11800.000000 85.518 51.4787
12060.000000 86.747 52.6440
12200.000000 87.279 51.1711
12410.000000 87.704 46.7368
12500.000000 87.718 44.4368
12650.000000 87.521 40.7511
12800.000000 87.097 37.7710
13150.000000 85.587 34.4779
13200.000000 85.336 34.4049
13400.000000 84.271 35.0802
13600.000000 83.147 37.3969
13800.000000 82.042 41.3714
14000.000000 81.037 46.7987
14300.000000 79.822 56.9569
14500.000000 79.251 64.5759
14750.000000 78.835 74.4339
15000.000000 78.765 84.0789
15250.000000 79.066 92.8942
15500.000000 79.779 100.0871
15750.000000 80.849 104.5032
16000.000000 82.045 104.6175
16250.000000 82.978 99.2914
16500.000000 83.222 89.4578
16750.000000 82.578 78.6092
17000.000000 81.186 70.1157
17250.000000 79.365 64.9866
17500.000000 77.417 62.2404
17750.000000 75.441 60.1667
18000.000000 73.248 59.1748
18250.000000 70.909 59.2831
18500.000000 68.424 60.1935
18750.000000 65.702 64.5514
19000.000000 63.228 70.6715
19250.000000 61.087 70.1264
19500.000000 58.272 31.9066
19750.000000 54.145 119.9911
20000.000000 48.852 30.7910
20300.000000 42.422 -29.6475
20600.000000 38.815 133.8926
20900.000000 38.664 -44.3496
21200.000000 43.438 -6.5332
21400.000000 46.563 36.4180
21800.000000 49.757 152.6094
22000.000000 49.521 -77.1211
22400.000000 45.429 114.1133
22700.000000 40.198 -7.0742
23000.000000 35.036 123.9922
23300.000000 32.396 -112.1953
23600.000000 31.655 154.5625
24000.000000 30.954 -56.6172
