* Measurement data measured by REW V5.20.13
* Source: Headset (DS by VECLAN.COM), MICROPHONE (Master Volume), L, volume: 0.710. Timing signal peak level -15.8 dBFS, measurement signal peak level -14.6 dBFS
* Format: 2M Log Swept Sine, 1 sweep at -12.0 dBFS using an acoustic timing reference
* Dated: Nov 12, 2023 7:02:27 PM
* REW Settings:
*  C-weighting compensation: Off
*  Target level: 75.0 dB
* Note: ; Delay -0.0642 ms (-22 mm, -0.87 in) using estimated IR delay relative to Acoustic reference played from HEADPHONE L with no timing offset
* Measurement: CCA Pianist L
* Smoothing: 1/24 octave
* Frequency Step: 1/48 octave
* Start Frequency: 1.000 Hz
*
* Freq(Hz) SPL(dB) Phase(degrees)
1.000000 71.775 -78.8382
1.015000 71.986 -77.7234
1.030000 72.193 -76.6370
1.044000 72.382 -75.6520
1.060000 72.590 -74.5641
1.075000 72.779 -73.5846
1.090000 72.960 -72.6479
1.106000 73.144 -71.6981
1.120000 73.301 -70.8999
1.138000 73.500 -69.9135
1.150000 73.631 -69.2795
1.172000 73.865 -68.1626
1.180000 73.949 -67.7702
1.206000 74.216 -66.5408
1.220000 74.357 -65.9056
1.241000 74.564 -64.9839
1.250000 74.652 -64.5994
1.265000 74.796 -63.9708
1.280000 74.937 -63.3562
1.315000 75.260 -61.9664
1.320000 75.305 -61.7719
1.340000 75.484 -61.0016
1.360000 75.659 -60.2401
1.380000 75.831 -59.4831
1.400000 76.000 -58.7266
1.430000 76.248 -57.5829
1.450000 76.411 -56.8085
1.475000 76.609 -55.8192
1.500000 76.800 -54.8022
1.525000 76.981 -53.7655
1.550000 77.154 -52.7183
1.575000 77.321 -51.6702
1.600000 77.482 -50.6305
1.625000 77.638 -49.6087
1.650000 77.791 -48.6140
1.675000 77.941 -47.6560
1.700000 78.090 -46.7440
1.725000 78.239 -45.8875
1.750000 78.389 -45.0958
1.775000 78.540 -44.3783
1.800000 78.694 -43.7445
1.825000 78.852 -43.2037
1.850000 79.014 -42.7624
1.875000 79.177 -42.4138
1.900000 79.340 -42.1496
1.925000 79.503 -41.9615
1.950000 79.667 -41.8416
1.975000 79.831 -41.7814
2.000000 79.994 -41.7729
2.030000 80.191 -41.8194
2.060000 80.387 -41.9143
2.090000 80.582 -42.0435
2.120000 80.776 -42.1929
2.140000 80.905 -42.2967
2.180000 81.162 -42.4955
2.200000 81.289 -42.5824
2.240000 81.544 -42.7846
2.270000 81.735 -42.9769
2.300000 81.927 -43.2011
2.330000 82.118 -43.4543
2.360000 82.308 -43.7335
2.400000 82.559 -44.1416
2.430000 82.746 -44.4708
2.470000 82.991 -44.9352
2.500000 83.171 -45.2988
2.540000 83.407 -45.7988
2.580000 83.635 -46.3129
2.620000 83.859 -46.8606
2.650000 84.023 -47.2947
2.690000 84.238 -47.9009
2.720000 84.397 -48.3736
2.760000 84.604 -49.0244
2.800000 84.808 -49.6946
2.850000 85.057 -50.5527
2.900000 85.301 -51.4254
2.950000 85.540 -52.3081
3.000000 85.772 -53.2293
3.040000 85.953 -53.9921
3.070000 86.087 -54.5750
3.110000 86.261 -55.3615
3.150000 86.433 -56.1525
3.200000 86.642 -57.1377
3.250000 86.846 -58.1072
3.300000 87.046 -59.0482
3.350000 87.241 -59.9634
3.400000 87.430 -60.8634
3.450000 87.614 -61.7527
3.500000 87.794 -62.6358
3.550000 87.969 -63.5169
3.600000 88.140 -64.4006
3.650000 88.307 -65.2912
3.700000 88.471 -66.1942
3.750000 88.630 -67.1107
3.820000 88.845 -68.4032
3.870000 88.995 -69.3234
3.950000 89.227 -70.7705
4.000000 89.369 -71.6480
4.060000 89.536 -72.6636
4.120000 89.698 -73.6443
4.180000 89.855 -74.5984
4.250000 90.034 -75.6879
4.310000 90.183 -76.6099
4.370000 90.329 -77.5289
4.440000 90.496 -78.6042
4.500000 90.635 -79.5235
4.550000 90.748 -80.2846
4.620000 90.903 -81.3382
4.680000 91.032 -82.2263
4.750000 91.180 -83.2397
4.820000 91.325 -84.2248
4.870000 91.426 -84.9130
4.940000 91.565 -85.8583
5.000000 91.681 -86.6549
5.080000 91.831 -87.7021
5.150000 91.960 -88.6091
5.220000 92.085 -89.5060
5.300000 92.224 -90.5156
5.380000 92.358 -91.5070
5.450000 92.473 -92.3578
5.520000 92.585 -93.1922
5.600000 92.708 -94.1271
5.700000 92.857 -95.2678
5.800000 93.001 -96.3757
5.900000 93.139 -97.4491
6.000000 93.272 -98.4883
6.080000 93.375 -99.2956
6.150000 93.462 -99.9848
6.220000 93.549 -100.6580
6.300000 93.645 -101.4075
6.400000 93.761 -102.3144
6.500000 93.875 -103.1894
6.600000 93.988 -104.0341
6.700000 94.099 -104.8427
6.800000 94.209 -105.6189
6.900000 94.318 -106.3751
7.000000 94.428 -107.1213
7.100000 94.538 -107.8471
7.200000 94.649 -108.5599
7.300000 94.759 -109.2725
7.400000 94.870 -109.9890
7.500000 94.981 -110.7015
7.620000 95.114 -111.5647
7.750000 95.254 -112.5272
7.880000 95.393 -113.5137
8.000000 95.516 -114.4436
8.120000 95.633 -115.3942
8.250000 95.753 -116.4510
8.380000 95.865 -117.5190
8.500000 95.959 -118.5057
8.620000 96.044 -119.5018
8.750000 96.127 -120.5660
8.850000 96.184 -121.3608
9.000000 96.258 -122.5302
9.120000 96.309 -123.4252
9.250000 96.360 -124.3366
9.380000 96.405 -125.1965
9.500000 96.444 -125.9429
9.620000 96.480 -126.6381
9.750000 96.516 -127.3365
9.880000 96.549 -127.9992
10.000000 96.577 -128.5801
10.150000 96.610 -129.2668
10.300000 96.643 -129.9544
10.440000 96.674 -130.5889
10.600000 96.712 -131.3390
10.750000 96.752 -132.0956
10.900000 96.794 -132.8951
11.060000 96.835 -133.8157
11.200000 96.869 -134.6833
11.380000 96.901 -135.8335
11.500000 96.912 -136.6239
11.720000 96.916 -138.0662
11.800000 96.912 -138.5706
12.060000 96.878 -140.1347
12.200000 96.852 -140.8792
12.410000 96.807 -141.8693
12.500000 96.789 -142.2354
12.650000 96.759 -142.7633
12.800000 96.736 -143.2190
13.150000 96.725 -144.0535
13.200000 96.729 -144.1692
13.400000 96.763 -144.6146
13.600000 96.815 -145.1275
13.800000 96.885 -145.7428
14.000000 96.957 -146.4874
14.300000 97.059 -147.8411
14.500000 97.109 -148.8642
14.750000 97.148 -150.1792
15.000000 97.160 -151.4797
15.250000 97.154 -152.6678
15.500000 97.140 -153.7123
15.750000 97.125 -154.6081
16.000000 97.122 -155.3852
16.250000 97.132 -156.1293
16.500000 97.156 -156.8879
16.750000 97.188 -157.7248
17.000000 97.217 -158.6506
17.250000 97.237 -159.6439
17.500000 97.239 -160.6706
17.750000 97.221 -161.6487
18.000000 97.189 -162.5378
18.250000 97.146 -163.2944
18.500000 97.105 -163.9065
18.750000 97.073 -164.4053
19.000000 97.057 -164.8208
19.250000 97.058 -165.2300
19.500000 97.073 -165.6754
19.750000 97.096 -166.1890
20.000000 97.118 -166.7888
20.299999 97.133 -167.5871
20.600000 97.131 -168.4180
20.900000 97.111 -169.2105
21.200001 97.077 -169.8983
21.400000 97.054 -170.2829
21.799999 97.015 -170.9066
22.000000 97.006 -171.1788
22.400000 97.010 -171.7476
22.700001 97.027 -172.2753
23.000000 97.044 -172.9332
23.299999 97.049 -173.6994
23.600000 97.036 -174.5163
24.000000 96.990 -175.5675
24.299999 96.944 -176.2523
24.700001 96.882 -177.0076
25.000000 96.848 -177.5070
25.400000 96.821 -178.1922
25.799999 96.802 -178.9873
26.200001 96.773 -179.8678
26.500000 96.741 179.4877
26.900000 96.695 178.7317
27.200001 96.669 178.2459
27.600000 96.657 177.6223
28.000000 96.668 176.8717
28.500000 96.673 175.6384
29.000000 96.621 174.2874
29.500000 96.509 173.2397
30.000000 96.392 172.7443
30.400000 96.338 172.6298
30.700001 96.327 172.5706
31.100000 96.340 172.3705
31.500000 96.359 171.9809
32.000000 96.362 171.3238
32.500000 96.332 170.6767
33.000000 96.286 170.1647
33.500000 96.243 169.7692
34.000000 96.212 169.3995
34.500000 96.193 168.9607
35.000000 96.172 168.4037
35.500000 96.135 167.7622
36.000000 96.080 167.1442
36.500000 96.021 166.6284
37.000000 95.977 166.1669
37.500000 95.949 165.6273
38.200001 95.902 164.6586
38.700001 95.843 163.9680
39.500000 95.743 163.1603
40.000000 95.700 162.7365
40.599998 95.659 162.1501
41.200001 95.601 161.5534
41.799999 95.536 161.1067
42.500000 95.484 160.7114
43.099998 95.459 160.2593
43.700001 95.421 159.6720
44.400002 95.346 159.0104
45.000000 95.275 158.5689
45.500000 95.222 158.2477
46.200001 95.161 157.7671
46.799999 95.108 157.2989
47.500000 95.040 156.7497
48.200001 94.968 156.2794
48.700001 94.923 155.9997
49.400002 94.873 155.6285
50.000000 94.839 155.2745
50.799999 94.790 154.7539
51.500000 94.741 154.3030
52.200001 94.686 153.8768
53.000000 94.618 153.4324
53.799999 94.549 153.0417
54.500000 94.492 152.7026
55.200001 94.435 152.3273
56.000000 94.362 151.8734
57.000000 94.259 151.3486
58.000000 94.159 150.9309
59.000000 94.080 150.5225
60.000000 94.006 149.9959
60.799999 93.938 149.5842
61.500000 93.880 149.2659
62.200001 93.825 148.9492
63.000000 93.758 148.6083
64.000000 93.676 148.2997
65.000000 93.611 148.0270
66.000000 93.549 147.6906
67.000000 93.482 147.3160
68.000000 93.404 146.9141
69.000000 93.318 146.5731
70.000000 93.245 146.2652
71.000000 93.178 145.8748
72.000000 93.105 145.4987
73.000000 93.038 145.1820
74.000000 92.975 144.8578
75.000000 92.905 144.5454
76.199997 92.814 144.2522
77.500000 92.718 143.9734
78.800003 92.614 143.7253
80.000000 92.529 143.6123
81.199997 92.467 143.4507
82.500000 92.393 143.1971
83.800003 92.314 143.0114
85.000000 92.241 142.7574
86.199997 92.148 142.4346
87.500000 92.033 142.1341
88.500000 91.954 141.9886
90.000000 91.885 141.6850
91.199997 91.831 141.2388
92.500000 91.743 140.9241
93.800003 91.672 140.8553
95.000000 91.614 140.7402
96.199997 91.540 140.6414
97.500000 91.465 140.5781
98.800003 91.398 140.3947
100.000000 91.329 140.1844
101.500000 91.243 140.0237
103.000000 91.175 139.9059
104.400002 91.110 139.6990
106.000000 91.015 139.5079
107.500000 90.935 139.3954
109.000000 90.866 139.1972
110.599998 90.778 138.9635
112.000000 90.693 138.8813
113.800003 90.592 138.8406
115.000000 90.527 138.7781
117.199997 90.419 138.6243
118.000000 90.386 138.5432
120.599998 90.276 138.2627
122.000000 90.215 138.2284
124.099998 90.127 138.2198
125.000000 90.087 138.2058
126.500000 90.021 138.1713
128.000000 89.959 138.1033
131.500000 89.824 137.9178
132.000000 89.805 137.9034
134.000000 89.728 137.8680
136.000000 89.650 137.8228
138.000000 89.574 137.7258
140.000000 89.498 137.6092
143.000000 89.400 137.5736
145.000000 89.344 137.6176
147.500000 89.273 137.5502
150.000000 89.174 137.5316
152.500000 89.088 137.5416
155.000000 88.994 137.5613
157.500000 88.918 137.6052
160.000000 88.848 137.3789
162.500000 88.749 137.2843
165.000000 88.677 137.3985
167.500000 88.619 137.5599
170.000000 88.578 137.7343
172.500000 88.528 137.7386
175.000000 88.453 137.7100
177.500000 88.381 137.7295
180.000000 88.317 137.8124
182.500000 88.244 137.9332
185.000000 88.150 137.9307
187.500000 88.061 137.7474
190.000000 88.008 137.5437
192.500000 87.978 137.5706
195.000000 87.935 137.7916
197.500000 87.876 137.9708
200.000000 87.819 137.9673
203.000000 87.754 137.9177
206.000000 87.684 137.9676
209.000000 87.629 138.0605
212.000000 87.579 138.0556
214.000000 87.535 138.0447
218.000000 87.444 138.1628
220.000000 87.410 138.2637
224.000000 87.350 138.3154
227.000000 87.316 138.2927
230.000000 87.290 138.3737
233.000000 87.245 138.5745
236.000000 87.179 138.7730
240.000000 87.091 138.9008
243.000000 87.049 138.9579
247.000000 87.012 139.0862
250.000000 86.966 139.1748
254.000000 86.913 139.2382
258.000000 86.875 139.3800
262.000000 86.828 139.5002
265.000000 86.790 139.5179
269.000000 86.738 139.5893
272.000000 86.703 139.6580
276.000000 86.664 139.7138
280.000000 86.632 139.8138
285.000000 86.593 139.9807
290.000000 86.555 140.1364
295.000000 86.518 140.2640
300.000000 86.474 140.3767
304.000000 86.449 140.4827
307.000000 86.434 140.5575
311.000000 86.413 140.6364
315.000000 86.393 140.7098
320.000000 86.370 140.8241
325.000000 86.347 140.9964
330.000000 86.323 141.1339
335.000000 86.297 141.2234
340.000000 86.275 141.3163
345.000000 86.255 141.4215
350.000000 86.244 141.5853
355.000000 86.229 141.6803
360.000000 86.209 141.7661
365.000000 86.190 141.8447
370.000000 86.175 141.9049
375.000000 86.162 142.0087
382.000000 86.152 142.1579
387.000000 86.141 142.3162
395.000000 86.124 142.5833
400.000000 86.115 142.6593
406.000000 86.104 142.7056
412.000000 86.105 142.7901
418.000000 86.108 142.8964
425.000000 86.109 143.0161
431.000000 86.107 143.1003
437.000000 86.105 143.1759
444.000000 86.106 143.2600
450.000000 86.109 143.3431
455.000000 86.112 143.4337
462.000000 86.126 143.5597
468.000000 86.140 143.6600
475.000000 86.154 143.7395
482.000000 86.167 143.8242
487.000000 86.180 143.9003
494.000000 86.198 144.0013
500.000000 86.209 144.0817
508.000000 86.230 144.1583
515.000000 86.251 144.2186
522.000000 86.277 144.3299
530.000000 86.310 144.4346
538.000000 86.338 144.5224
545.000000 86.364 144.6188
552.000000 86.396 144.7168
560.000000 86.436 144.7949
570.000000 86.486 144.8646
580.000000 86.538 144.9503
590.000000 86.593 145.0429
600.000000 86.648 145.1392
608.000000 86.693 145.1990
615.000000 86.733 145.2605
622.000000 86.776 145.3342
630.000000 86.829 145.3929
640.000000 86.893 145.4212
650.000000 86.954 145.4674
660.000000 87.013 145.5321
670.000000 87.076 145.5774
680.000000 87.149 145.6119
690.000000 87.224 145.6734
700.000000 87.294 145.7354
710.000000 87.367 145.7626
720.000000 87.442 145.7791
730.000000 87.521 145.8080
740.000000 87.601 145.8367
750.000000 87.682 145.8648
762.000000 87.785 145.8554
775.000000 87.891 145.8118
788.000000 87.992 145.7718
800.000000 88.085 145.7879
812.000000 88.187 145.8187
825.000000 88.301 145.8185
838.000000 88.419 145.7857
850.000000 88.529 145.7425
862.000000 88.639 145.7149
875.000000 88.762 145.6985
885.000000 88.857 145.6718
900.000000 89.006 145.5995
912.000000 89.129 145.5159
925.000000 89.260 145.4122
938.000000 89.396 145.2956
950.000000 89.522 145.1492
962.000000 89.651 144.9673
975.000000 89.789 144.7507
988.000000 89.923 144.5180
1000.000000 90.047 144.2863
1015.000000 90.203 143.9550
1030.000000 90.358 143.5874
1044.000000 90.499 143.2313
1060.000000 90.657 142.7874
1075.000000 90.806 142.3414
1090.000000 90.960 141.8692
1106.000000 91.133 141.3293
1120.000000 91.285 140.8435
1138.000000 91.471 140.2071
1150.000000 91.588 139.7675
1172.000000 91.791 138.9611
1180.000000 91.863 138.6658
1206.000000 92.094 137.6786
1220.000000 92.219 137.1490
1241.000000 92.403 136.3471
1250.000000 92.479 136.0079
1265.000000 92.603 135.4554
1280.000000 92.721 134.9076
1315.000000 92.984 133.6601
1320.000000 93.020 133.4858
1340.000000 93.157 132.8041
1360.000000 93.272 132.1544
1380.000000 93.380 131.5228
1400.000000 93.501 130.9166
1430.000000 93.687 130.0388
1450.000000 93.807 129.4934
1475.000000 93.953 128.8403
1500.000000 94.099 128.2079
1525.000000 94.243 127.6041
1550.000000 94.378 127.0397
1575.000000 94.505 126.5061
1600.000000 94.633 125.9981
1625.000000 94.761 125.5032
1650.000000 94.889 125.0575
1675.000000 95.018 124.6348
1700.000000 95.148 124.2397
1725.000000 95.283 123.8764
1750.000000 95.423 123.5308
1775.000000 95.574 123.1849
1800.000000 95.733 122.7689
1825.000000 95.893 122.2903
1850.000000 96.046 121.7543
1875.000000 96.191 121.1879
1900.000000 96.330 120.6285
1925.000000 96.465 120.0712
1950.000000 96.594 119.5383
1975.000000 96.720 119.0209
2000.000000 96.849 118.4978
2030.000000 97.008 117.8578
2060.000000 97.168 117.1992
2090.000000 97.325 116.5308
2120.000000 97.483 115.8220
2140.000000 97.589 115.3333
2180.000000 97.793 114.3472
2200.000000 97.891 113.8302
2240.000000 98.078 112.7629
2270.000000 98.211 111.9310
2300.000000 98.341 111.0643
2330.000000 98.466 110.1697
2360.000000 98.586 109.2395
2400.000000 98.738 107.9590
2430.000000 98.841 106.9716
2470.000000 98.961 105.6249
2500.000000 99.038 104.6106
2540.000000 99.127 103.2436
2580.000000 99.201 101.8836
2620.000000 99.259 100.5441
2650.000000 99.292 99.5562
2690.000000 99.318 98.2644
2720.000000 99.322 97.3423
2760.000000 99.308 96.2202
2800.000000 99.285 95.2581
2850.000000 99.271 94.2793
2900.000000 99.291 93.3580
2950.000000 99.330 92.2112
3000.000000 99.352 90.7527
3040.000000 99.331 89.4883
3070.000000 99.289 88.5604
3110.000000 99.204 87.4309
3150.000000 99.097 86.4556
3200.000000 98.947 85.4743
3250.000000 98.788 84.8013
3300.000000 98.634 84.3810
3350.000000 98.498 84.1732
3400.000000 98.392 84.0515
3450.000000 98.311 83.9027
3500.000000 98.238 83.6746
3550.000000 98.157 83.3795
3600.000000 98.054 83.1288
3650.000000 97.933 82.9926
3700.000000 97.799 83.0412
3750.000000 97.664 83.2967
3820.000000 97.502 83.9588
3870.000000 97.415 84.5780
3950.000000 97.327 85.5606
4000.000000 97.288 86.0777
4060.000000 97.244 86.5687
4120.000000 97.185 87.0139
4180.000000 97.118 87.4843
4250.000000 97.029 88.1704
4310.000000 96.945 88.9070
4370.000000 96.861 89.7798
4440.000000 96.776 90.9539
4500.000000 96.729 92.0468
4550.000000 96.707 93.0072
4620.000000 96.703 94.3588
4680.000000 96.726 95.4803
4750.000000 96.782 96.6992
4820.000000 96.867 97.7562
4870.000000 96.938 98.4006
4940.000000 97.046 99.1113
5000.000000 97.141 99.5263
5080.000000 97.257 99.8267
5150.000000 97.345 99.8682
5220.000000 97.411 99.7440
5300.000000 97.457 99.4287
5380.000000 97.465 98.9729
5450.000000 97.433 98.5150
5520.000000 97.365 98.0518
5600.000000 97.244 97.5880
5700.000000 97.044 97.1735
5800.000000 96.790 97.0242
5900.000000 96.490 97.1860
6000.000000 96.163 97.7050
6080.000000 95.895 98.3860
6150.000000 95.658 99.1929
6220.000000 95.421 100.1914
6300.000000 95.159 101.5529
6400.000000 94.847 103.5804
6500.000000 94.562 105.9364
6600.000000 94.315 108.5841
6700.000000 94.116 111.4802
6800.000000 93.973 114.5901
6900.000000 93.904 117.8875
7000.000000 93.918 121.3429
7100.000000 94.022 124.8935
7200.000000 94.233 128.3835
7300.000000 94.543 131.5853
7400.000000 94.934 134.3219
7500.000000 95.405 136.5040
7620.000000 96.094 138.0829
7750.000000 96.914 137.8003
7880.000000 97.543 134.8508
8000.000000 97.770 130.0826
8120.000000 97.550 124.7877
8250.000000 96.844 120.5309
8380.000000 95.851 119.0896
8500.000000 94.897 120.2075
8620.000000 94.041 123.0625
8750.000000 93.280 127.3470
8850.000000 92.822 131.0818
9000.000000 92.328 136.9164
9120.000000 92.075 141.5200
9250.000000 91.914 146.2658
9380.000000 91.847 150.6410
9500.000000 91.846 154.2795
9620.000000 91.879 157.4917
9750.000000 91.940 160.4702
9880.000000 92.011 162.9534
10000.000000 92.071 164.8065
10150.000000 92.101 166.5405
10300.000000 92.037 167.7838
10440.000000 91.880 168.7318
10600.000000 91.595 169.8817
10750.000000 91.233 171.3085
10900.000000 90.787 173.2756
11060.000000 90.252 176.0637
11200.000000 89.779 179.0726
11380.000000 89.211 -176.3661
11500.000000 88.871 -172.9704
11720.000000 88.336 -166.1951
11800.000000 88.172 -163.6059
12060.000000 87.769 -155.0174
12200.000000 87.622 -150.4260
12410.000000 87.476 -143.7809
12500.000000 87.439 -141.0598
12650.000000 87.407 -136.7256
12800.000000 87.397 -132.6464
13150.000000 87.377 -123.9223
13200.000000 87.373 -122.7322
13400.000000 87.366 -117.9982
13600.000000 87.410 -113.2557
13800.000000 87.567 -108.7652
14000.000000 87.832 -105.2085
14300.000000 88.141 -102.1945
14500.000000 88.172 -100.6987
14750.000000 88.153 -98.3511
15000.000000 88.280 -96.3847
15250.000000 88.497 -96.7370
15500.000000 88.486 -100.2684
15750.000000 87.921 -105.2722
16000.000000 86.716 -108.5446
16250.000000 85.109 -108.0112
16500.000000 83.436 -103.9320
16750.000000 81.906 -97.6281
17000.000000 80.532 -89.9337
17250.000000 79.301 -81.0055
17500.000000 78.255 -70.8995
17750.000000 77.457 -59.9969
18000.000000 76.917 -48.8732
18250.000000 76.581 -37.8025
18500.000000 76.541 -25.6446
18750.000000 77.806 -9.6606
19000.000000 80.985 5.2580
19250.000000 83.591 4.5444
19500.000000 84.284 -8.4241
19750.000000 83.388 -19.2131
20000.000000 81.578 -22.5205
20300.000000 79.073 -18.6189
20600.000000 76.917 -9.8953
20900.000000 75.286 0.7372
21200.000000 74.074 11.3623
21400.000000 73.392 16.7569
21800.000000 71.736 -25.7593
22000.000000 70.210 151.5304
22400.000000 64.668 151.6331
22700.000000 58.579 -150.4688
23000.000000 51.772 41.2402
23300.000000 47.581 -75.1016
23600.000000 47.790 -100.4297
24000.000000 48.793 -127.9453
