* Measurement data measured by REW V5.20.13
* Source: Headset (DS by VECLAN.COM), MICROPHONE (Master Volume), L, volume: 0.720. Timing signal peak level -18.8 dBFS, measurement signal peak level -15.9 dBFS
* Format: 4M Log Swept Sine, 1 sweep at -12.0 dBFS using an acoustic timing reference
* Dated: Dec 5, 2023 11:05:50 AM
* REW Settings:
*  C-weighting compensation: Off
*  Target level: 75.0 dB
* Note: ; Apple + Abigail & KZ Foam tips Delay -0.0628 ms (-22 mm, -0.85 in) using estimated IR delay relative to Acoustic reference played from  R with no timing offset
* Measurement: CCA CRA Foam R
* Smoothing: 1/24 octave
* Frequency Step: 1/48 octave
* Start Frequency: 1.000 Hz
*
* Freq(Hz) SPL(dB) Phase(degrees)
1.000000 62.412 58.0498
1.015000 62.372 55.4469
1.030000 62.362 52.8328
1.044000 62.382 50.3892
1.060000 62.445 47.5996
1.075000 62.543 44.9944
1.090000 62.684 42.4062
1.106000 62.884 39.6510
1.120000 63.108 37.1343
1.138000 63.456 33.7380
1.150000 63.725 31.3848
1.172000 64.283 26.9137
1.180000 64.505 25.2448
1.206000 65.290 19.6976
1.220000 65.747 16.6519
1.241000 66.469 12.0386
1.250000 66.789 10.0535
1.265000 67.334 6.7461
1.280000 67.891 3.4527
1.315000 69.211 -4.0959
1.320000 69.400 -5.1509
1.340000 70.150 -9.2904
1.360000 70.886 -13.2757
1.380000 71.598 -17.0724
1.400000 72.276 -20.6459
1.430000 73.212 -25.5123
1.450000 73.767 -28.3770
1.475000 74.374 -31.4829
1.500000 74.931 -34.1457
1.525000 75.452 -36.4250
1.550000 75.941 -38.3599
1.575000 76.400 -39.9890
1.600000 76.833 -41.3512
1.625000 77.243 -42.4854
1.650000 77.631 -43.4304
1.675000 78.002 -44.2250
1.700000 78.359 -44.9082
1.725000 78.703 -45.5186
1.750000 79.039 -46.0953
1.775000 79.368 -46.6769
1.800000 79.695 -47.3025
1.825000 80.021 -48.0107
1.850000 80.345 -48.7631
1.875000 80.653 -49.4021
1.900000 80.946 -49.9351
1.925000 81.226 -50.3773
1.950000 81.493 -50.7438
1.975000 81.750 -51.0496
2.000000 81.997 -51.3100
2.030000 82.282 -51.5838
2.060000 82.558 -51.8399
2.090000 82.826 -52.1046
2.120000 83.088 -52.4040
2.140000 83.261 -52.6357
2.180000 83.605 -53.2112
2.200000 83.778 -53.5701
2.240000 84.115 -54.3842
2.270000 84.358 -55.0502
2.300000 84.594 -55.7534
2.330000 84.823 -56.4843
2.360000 85.045 -57.2337
2.400000 85.333 -58.2455
2.430000 85.543 -59.0016
2.470000 85.816 -59.9883
2.500000 86.017 -60.7002
2.540000 86.280 -61.5941
2.580000 86.539 -62.4073
2.620000 86.790 -63.1545
2.650000 86.973 -63.6816
2.690000 87.209 -64.3502
2.720000 87.382 -64.8330
2.760000 87.607 -65.4617
2.800000 87.825 -66.0851
2.850000 88.090 -66.8759
2.900000 88.347 -67.7026
2.950000 88.597 -68.5874
3.000000 88.837 -69.5196
3.040000 89.022 -70.2876
3.070000 89.157 -70.8717
3.110000 89.333 -71.6554
3.150000 89.503 -72.4380
3.200000 89.710 -73.4035
3.250000 89.912 -74.3414
3.300000 90.109 -75.2373
3.350000 90.299 -76.0934
3.400000 90.482 -76.9220
3.450000 90.659 -77.7285
3.500000 90.830 -78.5183
3.550000 90.995 -79.2972
3.600000 91.157 -80.0706
3.650000 91.315 -80.8441
3.700000 91.469 -81.6197
3.750000 91.618 -82.3913
3.820000 91.819 -83.4616
3.870000 91.957 -84.2173
3.950000 92.171 -85.4074
4.000000 92.301 -86.1372
4.060000 92.453 -86.9970
4.120000 92.600 -87.8414
4.180000 92.741 -88.6714
4.250000 92.900 -89.6221
4.310000 93.033 -90.4224
4.370000 93.163 -91.2097
4.440000 93.311 -92.1100
4.500000 93.435 -92.8622
4.550000 93.535 -93.4779
4.620000 93.672 -94.3275
4.680000 93.786 -95.0486
4.750000 93.918 -95.8873
4.820000 94.047 -96.7241
4.870000 94.138 -97.3170
4.940000 94.262 -98.1411
5.000000 94.366 -98.8426
5.080000 94.501 -99.7721
5.150000 94.616 -100.5810
5.220000 94.727 -101.3841
5.300000 94.851 -102.2954
5.380000 94.971 -103.2009
5.450000 95.072 -103.9896
5.520000 95.169 -104.7762
5.600000 95.276 -105.6748
5.700000 95.403 -106.7924
5.800000 95.524 -107.8960
5.900000 95.639 -108.9781
6.000000 95.749 -110.0407
6.080000 95.832 -110.8787
6.150000 95.902 -111.6037
6.220000 95.969 -112.3216
6.300000 96.043 -113.1347
6.400000 96.131 -114.1391
6.500000 96.213 -115.1258
6.600000 96.291 -116.0902
6.700000 96.364 -117.0335
6.800000 96.432 -117.9563
6.900000 96.496 -118.8555
7.000000 96.558 -119.7277
7.100000 96.617 -120.5726
7.200000 96.672 -121.3933
7.300000 96.726 -122.1930
7.400000 96.780 -122.9720
7.500000 96.831 -123.7274
7.620000 96.892 -124.6115
7.750000 96.957 -125.5515
7.880000 97.020 -126.4679
8.000000 97.077 -127.2988
8.120000 97.133 -128.1220
8.250000 97.192 -129.0026
8.380000 97.248 -129.8708
8.500000 97.298 -130.6618
8.620000 97.346 -131.4428
8.750000 97.395 -132.2760
8.850000 97.432 -132.9066
9.000000 97.485 -133.8365
9.120000 97.525 -134.5676
9.250000 97.569 -135.3471
9.380000 97.612 -136.1131
9.500000 97.649 -136.8117
9.620000 97.682 -137.5043
9.750000 97.715 -138.2462
9.880000 97.741 -138.9792
10.000000 97.756 -139.6500
10.150000 97.765 -140.4778
10.300000 97.766 -141.2816
10.440000 97.757 -142.0095
10.600000 97.743 -142.8165
10.750000 97.730 -143.5464
10.900000 97.715 -144.2533
11.060000 97.702 -144.9921
11.200000 97.691 -145.6254
11.380000 97.679 -146.4176
11.500000 97.670 -146.9303
11.720000 97.657 -147.8445
11.800000 97.653 -148.1696
12.060000 97.644 -149.2034
12.200000 97.642 -149.7579
12.410000 97.642 -150.5844
12.500000 97.641 -150.9362
12.650000 97.639 -151.5203
12.800000 97.637 -152.0983
13.150000 97.626 -153.4169
13.200000 97.624 -153.6003
13.400000 97.617 -154.3224
13.600000 97.609 -155.0190
13.800000 97.601 -155.6868
14.000000 97.594 -156.3314
14.300000 97.585 -157.2589
14.500000 97.579 -157.8573
14.750000 97.574 -158.5936
15.000000 97.572 -159.3227
15.250000 97.572 -160.0560
15.500000 97.571 -160.7855
15.750000 97.569 -161.5060
16.000000 97.563 -162.2075
16.250000 97.554 -162.8877
16.500000 97.543 -163.5454
16.750000 97.532 -164.1796
17.000000 97.522 -164.7932
17.250000 97.512 -165.3883
17.500000 97.503 -165.9673
17.750000 97.493 -166.5348
18.000000 97.483 -167.0935
18.250000 97.472 -167.6463
18.500000 97.461 -168.1906
18.750000 97.450 -168.7257
19.000000 97.440 -169.2507
19.250000 97.431 -169.7688
19.500000 97.422 -170.2800
19.750000 97.412 -170.7844
20.000000 97.403 -171.2803
20.299999 97.391 -171.8632
20.600000 97.379 -172.4322
20.900000 97.367 -172.9879
21.200001 97.354 -173.5316
21.400000 97.346 -173.8880
21.799999 97.328 -174.5876
22.000000 97.320 -174.9327
22.400000 97.303 -175.6183
22.700001 97.290 -176.1323
23.000000 97.277 -176.6482
23.299999 97.261 -177.1643
23.600000 97.244 -177.6742
24.000000 97.216 -178.3304
24.299999 97.193 -178.7944
24.700001 97.164 -179.3715
25.000000 97.143 -179.7799
25.400000 97.120 179.6904
25.799999 97.099 179.1601
26.200001 97.077 178.6253
26.500000 97.060 178.2284
26.900000 97.034 177.7165
27.200001 97.015 177.3492
27.600000 96.991 176.8761
28.000000 96.969 176.4064
28.500000 96.943 175.8061
29.000000 96.915 175.1984
29.500000 96.885 174.6045
30.000000 96.852 174.0323
30.400000 96.825 173.5844
30.700001 96.804 173.2510
31.100000 96.776 172.8093
31.500000 96.747 172.3737
32.000000 96.710 171.8453
32.500000 96.671 171.3402
33.000000 96.632 170.8576
33.500000 96.592 170.3921
34.000000 96.554 169.9370
34.500000 96.517 169.4890
35.000000 96.482 169.0490
35.500000 96.448 168.6147
36.000000 96.414 168.1828
36.500000 96.379 167.7518
37.000000 96.342 167.3222
37.500000 96.303 166.9005
38.200001 96.248 166.3376
38.700001 96.211 165.9513
39.500000 96.151 165.3422
40.000000 96.115 164.9710
40.599998 96.071 164.5381
41.200001 96.028 164.1109
41.799999 95.983 163.6893
42.500000 95.931 163.2131
43.099998 95.886 162.8158
43.700001 95.839 162.4275
44.400002 95.785 161.9946
45.000000 95.739 161.6379
45.500000 95.702 161.3414
46.200001 95.652 160.9204
46.799999 95.610 160.5468
47.500000 95.559 160.0828
48.200001 95.500 159.6278
48.700001 95.454 159.3561
49.400002 95.395 159.0634
50.000000 95.357 158.8300
50.799999 95.312 158.4595
51.500000 95.267 158.1130
52.200001 95.219 157.7965
53.000000 95.165 157.4518
53.799999 95.110 157.0931
54.500000 95.057 156.7834
55.200001 95.004 156.4910
56.000000 94.949 156.1464
57.000000 94.881 155.6693
58.000000 94.811 155.2064
59.000000 94.742 154.7043
60.000000 94.652 154.2481
60.799999 94.583 154.0471
61.500000 94.540 153.9148
62.200001 94.501 153.7422
63.000000 94.452 153.5196
64.000000 94.386 153.2568
65.000000 94.322 152.9844
66.000000 94.257 152.6882
67.000000 94.188 152.3771
68.000000 94.113 152.0712
69.000000 94.033 151.8120
70.000000 93.959 151.6401
71.000000 93.901 151.4475
72.000000 93.842 151.1646
73.000000 93.775 150.8807
74.000000 93.704 150.6281
75.000000 93.632 150.3974
76.199997 93.548 150.1561
77.500000 93.466 149.9138
78.800003 93.388 149.6545
80.000000 93.314 149.4198
81.199997 93.237 149.2049
82.500000 93.152 149.0032
83.800003 93.068 148.8264
85.000000 92.995 148.6641
86.199997 92.923 148.4936
87.500000 92.847 148.3248
88.500000 92.791 148.2017
90.000000 92.708 148.0095
91.199997 92.641 147.8657
92.500000 92.573 147.7138
93.800003 92.505 147.5564
95.000000 92.441 147.4369
96.199997 92.380 147.3394
97.500000 92.314 147.2151
98.800003 92.239 147.1010
100.000000 92.166 147.0410
101.500000 92.079 146.9650
103.000000 91.996 146.8629
104.400002 91.920 146.7625
106.000000 91.838 146.6610
107.500000 91.763 146.5627
109.000000 91.684 146.5001
110.599998 91.597 146.4872
112.000000 91.524 146.4762
113.800003 91.432 146.4016
115.000000 91.371 146.3279
117.199997 91.264 146.2084
118.000000 91.228 146.1829
120.599998 91.111 146.1479
122.000000 91.046 146.1822
124.099998 90.951 146.1812
125.000000 90.909 146.1589
126.500000 90.837 146.1385
128.000000 90.773 146.1529
131.500000 90.640 146.2518
132.000000 90.621 146.2681
134.000000 90.542 146.3251
136.000000 90.463 146.3741
138.000000 90.389 146.4246
140.000000 90.317 146.4567
143.000000 90.209 146.5282
145.000000 90.137 146.6021
147.500000 90.049 146.6920
150.000000 89.962 146.7826
152.500000 89.873 146.8887
155.000000 89.780 147.0239
157.500000 89.693 147.1663
160.000000 89.611 147.2755
162.500000 89.534 147.3672
165.000000 89.455 147.4787
167.500000 89.373 147.6319
170.000000 89.292 147.8052
172.500000 89.213 147.9604
175.000000 89.137 148.1052
177.500000 89.061 148.2509
180.000000 88.986 148.4001
182.500000 88.912 148.5759
185.000000 88.839 148.7580
187.500000 88.765 148.9252
190.000000 88.693 149.0928
192.500000 88.623 149.2714
195.000000 88.557 149.4715
197.500000 88.493 149.6753
200.000000 88.430 149.8663
203.000000 88.356 150.0905
206.000000 88.284 150.3113
209.000000 88.213 150.5285
212.000000 88.144 150.7648
214.000000 88.096 150.9366
218.000000 88.000 151.2788
220.000000 87.955 151.4498
224.000000 87.870 151.7844
227.000000 87.810 152.0110
230.000000 87.752 152.2328
233.000000 87.697 152.4750
236.000000 87.640 152.7238
240.000000 87.560 153.0513
243.000000 87.502 153.3392
247.000000 87.427 153.7493
250.000000 87.373 154.0281
254.000000 87.304 154.3693
258.000000 87.236 154.7127
262.000000 87.169 155.0628
265.000000 87.117 155.3307
269.000000 87.050 155.6964
272.000000 87.002 155.9694
276.000000 86.944 156.3259
280.000000 86.890 156.6902
285.000000 86.826 157.1375
290.000000 86.763 157.5832
295.000000 86.701 158.0406
300.000000 86.637 158.5419
304.000000 86.586 158.9001
307.000000 86.551 159.1363
311.000000 86.505 159.4642
315.000000 86.461 159.8145
320.000000 86.408 160.2578
325.000000 86.352 160.6959
330.000000 86.298 161.1319
335.000000 86.250 161.5607
340.000000 86.203 161.9946
345.000000 86.155 162.4385
350.000000 86.107 162.8807
355.000000 86.060 163.3279
360.000000 86.014 163.7807
365.000000 85.971 164.2273
370.000000 85.928 164.6666
375.000000 85.886 165.1017
382.000000 85.829 165.7114
387.000000 85.788 166.1440
395.000000 85.723 166.8352
400.000000 85.685 167.2575
406.000000 85.641 167.7824
412.000000 85.598 168.3025
418.000000 85.557 168.8073
425.000000 85.508 169.4176
431.000000 85.466 169.9395
437.000000 85.427 170.4449
444.000000 85.386 171.0309
450.000000 85.351 171.5383
455.000000 85.321 171.9607
462.000000 85.281 172.5477
468.000000 85.248 173.0508
475.000000 85.211 173.6263
482.000000 85.176 174.2035
487.000000 85.150 174.6273
494.000000 85.117 175.2113
500.000000 85.093 175.7062
508.000000 85.062 176.3752
515.000000 85.035 176.9708
522.000000 85.007 177.5698
530.000000 84.979 178.2513
538.000000 84.951 178.9260
545.000000 84.929 179.5223
552.000000 84.909 -179.8685
560.000000 84.887 -179.1689
570.000000 84.863 -178.3084
580.000000 84.841 -177.4314
590.000000 84.820 -176.5429
600.000000 84.802 -175.6573
608.000000 84.786 -174.9367
615.000000 84.775 -174.2833
622.000000 84.766 -173.6143
630.000000 84.758 -172.8515
640.000000 84.751 -171.9099
650.000000 84.750 -170.9599
660.000000 84.755 -169.9978
670.000000 84.764 -169.0215
680.000000 84.782 -168.0608
690.000000 84.810 -167.1154
700.000000 84.846 -166.1956
710.000000 84.892 -165.3079
720.000000 84.943 -164.4785
730.000000 84.993 -163.7365
740.000000 85.034 -163.0502
750.000000 85.066 -162.3323
762.000000 85.106 -161.3553
775.000000 85.172 -160.2493
788.000000 85.264 -159.2141
800.000000 85.366 -158.4852
812.000000 85.451 -157.9577
825.000000 85.514 -157.4223
838.000000 85.562 -156.8462
850.000000 85.604 -156.2651
862.000000 85.650 -155.6630
875.000000 85.704 -155.0090
885.000000 85.744 -154.4991
900.000000 85.808 -153.7333
912.000000 85.864 -153.1136
925.000000 85.925 -152.4566
938.000000 85.986 -151.8122
950.000000 86.043 -151.2248
962.000000 86.102 -150.6494
975.000000 86.169 -150.0243
988.000000 86.239 -149.4077
1000.000000 86.302 -148.8681
1015.000000 86.370 -148.2627
1030.000000 86.441 -147.7003
1044.000000 86.511 -147.1855
1060.000000 86.597 -146.6121
1075.000000 86.677 -146.1001
1090.000000 86.765 -145.6299
1106.000000 86.869 -145.1667
1120.000000 86.961 -144.7843
1138.000000 87.075 -144.3337
1150.000000 87.148 -144.0472
1172.000000 87.277 -143.5427
1180.000000 87.323 -143.3658
1206.000000 87.474 -142.8441
1220.000000 87.558 -142.5962
1241.000000 87.680 -142.2407
1250.000000 87.731 -142.0885
1265.000000 87.809 -141.8411
1280.000000 87.881 -141.5910
1315.000000 88.052 -141.0595
1320.000000 88.077 -140.9898
1340.000000 88.170 -140.7127
1360.000000 88.237 -140.4237
1380.000000 88.297 -140.1328
1400.000000 88.368 -139.8454
1430.000000 88.488 -139.4241
1450.000000 88.573 -139.1454
1475.000000 88.680 -138.7901
1500.000000 88.787 -138.4595
1525.000000 88.878 -138.1166
1550.000000 88.953 -137.7635
1575.000000 89.031 -137.4248
1600.000000 89.115 -137.1027
1625.000000 89.192 -136.7736
1650.000000 89.265 -136.4170
1675.000000 89.351 -136.0794
1700.000000 89.450 -135.7901
1725.000000 89.523 -135.4770
1750.000000 89.572 -135.1382
1775.000000 89.629 -134.8285
1800.000000 89.705 -134.5249
1825.000000 89.798 -134.2723
1850.000000 89.870 -134.0108
1875.000000 89.910 -133.7067
1900.000000 89.949 -133.4241
1925.000000 90.006 -133.1592
1950.000000 90.077 -132.8930
1975.000000 90.160 -132.6360
2000.000000 90.235 -132.3925
2030.000000 90.293 -132.0983
2060.000000 90.349 -131.8124
2090.000000 90.417 -131.5281
2120.000000 90.485 -131.2468
2140.000000 90.529 -131.0679
2180.000000 90.611 -130.7173
2200.000000 90.650 -130.5491
2240.000000 90.730 -130.2108
2270.000000 90.793 -129.9561
2300.000000 90.856 -129.7135
2330.000000 90.914 -129.4686
2360.000000 90.965 -129.2285
2400.000000 91.023 -128.9031
2430.000000 91.063 -128.6472
2470.000000 91.124 -128.3186
2500.000000 91.173 -128.0741
2540.000000 91.226 -127.7360
2580.000000 91.276 -127.3949
2620.000000 91.331 -127.0555
2650.000000 91.373 -126.8026
2690.000000 91.425 -126.4521
2720.000000 91.458 -126.1737
2760.000000 91.495 -125.7881
2800.000000 91.534 -125.3933
2850.000000 91.592 -124.8957
2900.000000 91.657 -124.3799
2950.000000 91.719 -123.8414
3000.000000 91.775 -123.2683
3040.000000 91.821 -122.8291
3070.000000 91.854 -122.4998
3110.000000 91.890 -122.0394
3150.000000 91.914 -121.5551
3200.000000 91.954 -120.9466
3250.000000 92.022 -120.3485
3300.000000 92.108 -119.7433
3350.000000 92.190 -119.1192
3400.000000 92.268 -118.5051
3450.000000 92.353 -117.9108
3500.000000 92.451 -117.3308
3550.000000 92.553 -116.7545
3600.000000 92.658 -116.1885
3650.000000 92.772 -115.6545
3700.000000 92.890 -115.1559
3750.000000 93.011 -114.6891
3820.000000 93.193 -114.0997
3870.000000 93.328 -113.7344
3950.000000 93.541 -113.2524
4000.000000 93.674 -113.0487
4060.000000 93.827 -112.9271
4120.000000 93.968 -112.9430
4180.000000 94.088 -113.0572
4250.000000 94.186 -113.0920
4310.000000 94.260 -112.7327
4370.000000 94.395 -112.0814
4440.000000 94.657 -111.7039
4500.000000 94.899 -112.0299
4550.000000 95.073 -112.6395
4620.000000 95.269 -113.7743
4680.000000 95.400 -114.9108
4750.000000 95.510 -116.3577
4820.000000 95.573 -117.8837
4870.000000 95.589 -119.0053
4940.000000 95.579 -120.6139
5000.000000 95.537 -121.9875
5080.000000 95.427 -123.7107
5150.000000 95.284 -125.0891
5220.000000 95.105 -126.3160
5300.000000 94.866 -127.4853
5380.000000 94.599 -128.3766
5450.000000 94.348 -128.9123
5520.000000 94.085 -129.2192
5600.000000 93.771 -129.2988
5700.000000 93.351 -128.8578
5800.000000 92.965 -127.5085
5900.000000 92.699 -126.0262
6000.000000 92.435 -124.6654
6080.000000 92.223 -123.3721
6150.000000 92.054 -122.0877
6220.000000 91.906 -120.6925
6300.000000 91.764 -118.9951
6400.000000 91.627 -116.7627
6500.000000 91.538 -114.4660
6600.000000 91.497 -112.1439
6700.000000 91.505 -109.8398
6800.000000 91.569 -107.6019
6900.000000 91.704 -105.4602
7000.000000 91.910 -103.4645
7100.000000 92.172 -101.6951
7200.000000 92.485 -100.2302
7300.000000 92.847 -99.1592
7400.000000 93.246 -98.5756
7500.000000 93.670 -98.5754
7620.000000 94.200 -99.4864
7750.000000 94.749 -101.7286
7880.000000 95.119 -105.3251
8000.000000 95.250 -109.6626
8120.000000 95.155 -114.5303
8250.000000 94.779 -119.7062
8380.000000 94.142 -124.0431
8500.000000 93.379 -126.8655
8620.000000 92.514 -128.4086
8750.000000 91.531 -128.6935
8850.000000 90.782 -128.0465
9000.000000 89.713 -125.9033
9120.000000 88.921 -123.3735
9250.000000 88.145 -120.0006
9380.000000 87.464 -116.1189
9500.000000 86.916 -112.1937
9620.000000 86.442 -108.0353
9750.000000 86.010 -103.3494
9880.000000 85.664 -98.5281
10000.000000 85.422 -94.0057
10150.000000 85.224 -88.3188
10300.000000 85.131 -82.6683
10440.000000 85.136 -77.4926
10600.000000 85.256 -71.7684
10750.000000 85.480 -66.6778
10900.000000 85.817 -61.9751
11060.000000 86.299 -57.5508
11200.000000 86.822 -54.3748
11380.000000 87.609 -51.6081
11500.000000 88.181 -50.8265
11720.000000 89.205 -52.1507
11800.000000 89.522 -53.6211
12060.000000 90.066 -61.5466
12200.000000 89.942 -66.7022
12410.000000 89.206 -73.1983
12500.000000 88.737 -75.0717
12650.000000 87.841 -76.7791
12800.000000 86.888 -76.8516
13150.000000 84.815 -72.2692
13200.000000 84.555 -71.2085
13400.000000 83.628 -66.2514
13600.000000 82.894 -60.5036
13800.000000 82.363 -54.3780
14000.000000 82.032 -48.1547
14300.000000 81.890 -39.0911
14500.000000 82.019 -33.6099
14750.000000 82.396 -27.9712
15000.000000 82.937 -24.3323
15250.000000 83.504 -23.3545
15500.000000 83.895 -25.0812
15750.000000 83.895 -28.2000
16000.000000 83.453 -30.2544
16250.000000 82.828 -29.6694
16500.000000 82.334 -27.2278
16750.000000 82.038 -24.4541
17000.000000 81.872 -21.9255
17250.000000 81.842 -19.7720
17500.000000 81.992 -18.5852
17750.000000 82.276 -19.4825
18000.000000 82.482 -23.5807
18250.000000 82.265 -30.8662
18500.000000 81.357 -39.1752
18750.000000 79.721 -45.1429
19000.000000 77.548 -46.3854
19250.000000 75.130 -42.3838
19500.000000 72.784 -33.7091
19750.000000 70.936 -22.1685
20000.000000 69.778 -11.0452
20300.000000 68.730 -1.0606
20600.000000 67.505 7.6351
20900.000000 66.164 18.7077
21200.000000 65.124 32.3958
21400.000000 64.760 41.8472
21800.000000 64.776 57.2402
22000.000000 64.954 56.2414
22400.000000 64.495 -151.6297
22700.000000 61.995 -89.5150
23000.000000 56.721 149.4912
23300.000000 49.582 -23.8711
23600.000000 43.988 144.0449
24000.000000 42.260 117.5312
