* Measurement data measured by REW V5.20.13
* Source: Headset (DS by VECLAN.COM), MICROPHONE (Master Volume), L, volume: 0.720. Timing signal peak level -16.2 dBFS, measurement signal peak level -14.6 dBFS
* Format: 4M Log Swept Sine, 1 sweep at -12.0 dBFS using an acoustic timing reference
* Dated: Dec 5, 2023 10:48:21 AM
* REW Settings:
*  C-weighting compensation: Off
*  Target level: 75.0 dB
* Note: ; Apple + Abigail & Spinfits CP145 tips Delay -0.1133 ms (-39 mm, -1.53 in) using estimated IR delay relative to Acoustic reference played from  L with no timing offset Clock adjustment: -0.1 ppm
* Measurement: CCA CRA CP145 L
* Smoothing: 1/24 octave
* Frequency Step: 1/48 octave
* Start Frequency: 1.000 Hz
*
* Freq(Hz) SPL(dB) Phase(degrees)
1.000000 73.610 -11.4792
1.015000 74.059 -12.2964
1.030000 74.495 -13.1174
1.044000 74.887 -13.8854
1.060000 75.314 -14.7628
1.075000 75.691 -15.5830
1.090000 76.042 -16.3990
1.106000 76.388 -17.2675
1.120000 76.679 -18.0534
1.138000 77.045 -19.1038
1.150000 77.282 -19.8264
1.172000 77.705 -21.1912
1.180000 77.856 -21.6986
1.206000 78.330 -23.3808
1.220000 78.578 -24.3030
1.241000 78.939 -25.7005
1.250000 79.090 -26.3027
1.265000 79.337 -27.3080
1.280000 79.579 -28.3125
1.315000 80.123 -30.6345
1.320000 80.198 -30.9619
1.340000 80.495 -32.2558
1.360000 80.784 -33.5186
1.380000 81.066 -34.7424
1.400000 81.340 -35.9193
1.430000 81.741 -37.5793
1.450000 82.002 -38.6042
1.475000 82.319 -39.7828
1.500000 82.619 -40.8694
1.525000 82.901 -41.8778
1.550000 83.167 -42.8159
1.575000 83.419 -43.6918
1.600000 83.657 -44.5135
1.625000 83.884 -45.2892
1.650000 84.102 -46.0268
1.675000 84.311 -46.7345
1.700000 84.514 -47.4202
1.725000 84.713 -48.0921
1.750000 84.909 -48.7582
1.775000 85.104 -49.4264
1.800000 85.299 -50.1050
1.825000 85.496 -50.8020
1.850000 85.695 -51.5123
1.875000 85.887 -52.2097
1.900000 86.074 -52.8936
1.925000 86.256 -53.5648
1.950000 86.434 -54.2242
1.975000 86.607 -54.8725
2.000000 86.777 -55.5105
2.030000 86.977 -56.2636
2.060000 87.174 -57.0045
2.090000 87.368 -57.7345
2.120000 87.560 -58.4550
2.140000 87.687 -58.9308
2.180000 87.942 -59.8730
2.200000 88.070 -60.3403
2.240000 88.323 -61.2564
2.270000 88.511 -61.9255
2.300000 88.697 -62.5813
2.330000 88.880 -63.2257
2.360000 89.061 -63.8607
2.400000 89.299 -64.6957
2.430000 89.475 -65.3157
2.470000 89.705 -66.1376
2.500000 89.874 -66.7529
2.540000 90.096 -67.5754
2.580000 90.313 -68.4029
2.620000 90.524 -69.2259
2.650000 90.680 -69.8390
2.690000 90.883 -70.6519
2.720000 91.032 -71.2585
2.760000 91.228 -72.0643
2.800000 91.419 -72.8674
2.850000 91.651 -73.8692
2.900000 91.877 -74.8706
2.950000 92.097 -75.8739
3.000000 92.309 -76.8834
3.040000 92.474 -77.6933
3.070000 92.594 -78.3004
3.110000 92.751 -79.1075
3.150000 92.905 -79.9096
3.200000 93.091 -80.9014
3.250000 93.273 -81.8766
3.300000 93.449 -82.8304
3.350000 93.621 -83.7613
3.400000 93.786 -84.6732
3.450000 93.945 -85.5697
3.500000 94.100 -86.4546
3.550000 94.249 -87.3316
3.600000 94.395 -88.2043
3.650000 94.536 -89.0767
3.700000 94.674 -89.9516
3.750000 94.807 -90.8274
3.820000 94.985 -92.0485
3.870000 95.107 -92.9124
3.950000 95.295 -94.2706
4.000000 95.409 -95.0990
4.060000 95.540 -96.0676
4.120000 95.666 -97.0119
4.180000 95.787 -97.9354
4.250000 95.921 -98.9905
4.310000 96.032 -99.8793
4.370000 96.140 -100.7568
4.440000 96.262 -101.7687
4.500000 96.362 -102.6229
4.550000 96.443 -103.3248
4.620000 96.552 -104.2917
4.680000 96.642 -105.1056
4.750000 96.745 -106.0368
4.820000 96.846 -106.9458
4.870000 96.916 -107.5806
4.940000 97.011 -108.4524
5.000000 97.090 -109.1874
5.080000 97.193 -110.1555
5.150000 97.279 -110.9960
5.220000 97.363 -111.8279
5.300000 97.456 -112.7658
5.380000 97.544 -113.6894
5.450000 97.619 -114.4853
5.520000 97.691 -115.2694
5.600000 97.771 -116.1514
5.700000 97.864 -117.2329
5.800000 97.954 -118.2912
5.900000 98.040 -119.3258
6.000000 98.122 -120.3345
6.080000 98.185 -121.1251
6.150000 98.238 -121.8071
6.220000 98.290 -122.4817
6.300000 98.347 -123.2441
6.400000 98.415 -124.1819
6.500000 98.481 -125.1019
6.600000 98.543 -126.0032
6.700000 98.602 -126.8857
6.800000 98.658 -127.7499
6.900000 98.712 -128.5957
7.000000 98.764 -129.4227
7.100000 98.815 -130.2287
7.200000 98.863 -131.0173
7.300000 98.911 -131.7930
7.400000 98.959 -132.5564
7.500000 99.006 -133.3041
7.620000 99.060 -134.1901
7.750000 99.118 -135.1475
7.880000 99.174 -136.0985
8.000000 99.224 -136.9716
8.120000 99.270 -137.8438
8.250000 99.317 -138.7889
8.380000 99.359 -139.7238
8.500000 99.393 -140.5723
8.620000 99.422 -141.4118
8.750000 99.449 -142.2968
8.850000 99.467 -142.9521
9.000000 99.488 -143.9021
9.120000 99.503 -144.6258
9.250000 99.518 -145.3658
9.380000 99.533 -146.0632
9.500000 99.545 -146.6746
9.620000 99.557 -147.2543
9.750000 99.570 -147.8458
9.880000 99.580 -148.4164
10.000000 99.586 -148.9273
10.150000 99.590 -149.5437
10.300000 99.593 -150.1591
10.440000 99.594 -150.7275
10.600000 99.596 -151.3907
10.750000 99.602 -152.0422
10.900000 99.609 -152.7181
11.060000 99.615 -153.4816
11.200000 99.619 -154.1889
11.380000 99.618 -155.1160
11.500000 99.612 -155.7449
11.720000 99.589 -156.8886
11.800000 99.577 -157.2901
12.060000 99.528 -158.5450
12.200000 99.498 -159.1659
12.410000 99.448 -160.0257
12.500000 99.427 -160.3618
12.650000 99.390 -160.8771
12.800000 99.355 -161.3498
13.150000 99.289 -162.3110
13.200000 99.282 -162.4412
13.400000 99.259 -162.9425
13.600000 99.243 -163.4451
13.800000 99.234 -163.9615
14.000000 99.226 -164.5012
14.300000 99.214 -165.3534
14.500000 99.201 -165.9367
14.750000 99.181 -166.6600
15.000000 99.157 -167.3662
15.250000 99.135 -168.0456
15.500000 99.113 -168.6996
15.750000 99.094 -169.3319
16.000000 99.076 -169.9545
16.250000 99.059 -170.5820
16.500000 99.041 -171.2180
16.750000 99.022 -171.8637
17.000000 99.002 -172.5077
17.250000 98.979 -173.1426
17.500000 98.955 -173.7587
17.750000 98.930 -174.3530
18.000000 98.905 -174.9289
18.250000 98.880 -175.4907
18.500000 98.858 -176.0439
18.750000 98.838 -176.5916
19.000000 98.820 -177.1365
19.250000 98.804 -177.6829
19.500000 98.787 -178.2283
19.750000 98.770 -178.7706
20.000000 98.752 -179.3026
20.299999 98.728 -179.9198
20.600000 98.703 179.4938
20.900000 98.677 178.9437
21.200001 98.652 178.4305
21.400000 98.638 178.1054
21.799999 98.613 177.4811
22.000000 98.602 177.1715
22.400000 98.585 176.5338
22.700001 98.572 176.0289
23.000000 98.554 175.5039
23.299999 98.530 174.9771
23.600000 98.500 174.4722
24.000000 98.451 173.8684
24.299999 98.415 173.4794
24.700001 98.373 173.0261
25.000000 98.350 172.6985
25.400000 98.326 172.2254
25.799999 98.303 171.6818
26.200001 98.271 171.0936
26.500000 98.239 170.6618
26.900000 98.190 170.1397
27.200001 98.153 169.7936
27.600000 98.111 169.3628
28.000000 98.076 168.9092
28.500000 98.032 168.2669
29.000000 97.974 167.6110
29.500000 97.906 167.0596
30.000000 97.847 166.6346
30.400000 97.813 166.3119
30.700001 97.795 166.0341
31.100000 97.773 165.5898
31.500000 97.744 165.0822
32.000000 97.693 164.4434
32.500000 97.631 163.8830
33.000000 97.569 163.4136
33.500000 97.514 162.9902
34.000000 97.464 162.5681
34.500000 97.418 162.1363
35.000000 97.371 161.7058
35.500000 97.324 161.2891
36.000000 97.276 160.8929
36.500000 97.227 160.5185
37.000000 97.178 160.1602
37.500000 97.130 159.8129
38.200001 97.065 159.3378
38.700001 97.021 158.9870
39.500000 96.945 158.3860
40.000000 96.892 158.0222
40.599998 96.825 157.6364
41.200001 96.764 157.2819
41.799999 96.708 156.9108
42.500000 96.640 156.4604
43.099998 96.579 156.1049
43.700001 96.523 155.7809
44.400002 96.461 155.3999
45.000000 96.408 155.0608
45.500000 96.361 154.7894
46.200001 96.296 154.4379
46.799999 96.241 154.1402
47.500000 96.175 153.7871
48.200001 96.107 153.4698
48.700001 96.061 153.2676
49.400002 96.003 152.9666
50.000000 95.953 152.6713
50.799999 95.881 152.2846
51.500000 95.819 151.9813
52.200001 95.761 151.6719
53.000000 95.691 151.3151
53.799999 95.616 151.0081
54.500000 95.552 150.7714
55.200001 95.487 150.5521
56.000000 95.415 150.3307
57.000000 95.330 150.0234
58.000000 95.231 149.6916
59.000000 95.129 149.5159
60.000000 95.060 149.3203
60.799999 95.009 149.0099
61.500000 94.953 148.7249
62.200001 94.893 148.4889
63.000000 94.828 148.2422
64.000000 94.746 147.9289
65.000000 94.665 147.6277
66.000000 94.584 147.3396
67.000000 94.505 147.0616
68.000000 94.430 146.8052
69.000000 94.362 146.4923
70.000000 94.275 146.1349
71.000000 94.174 146.0020
72.000000 94.101 146.0161
73.000000 94.045 145.9497
74.000000 93.981 145.8419
75.000000 93.908 145.7189
76.199997 93.811 145.5861
77.500000 93.708 145.4651
78.800003 93.609 145.3108
80.000000 93.520 145.1540
81.199997 93.431 145.0110
82.500000 93.338 144.9057
83.800003 93.251 144.8286
85.000000 93.176 144.7437
86.199997 93.101 144.6307
87.500000 93.017 144.4964
88.500000 92.950 144.4063
90.000000 92.851 144.2995
91.199997 92.773 144.2357
92.500000 92.692 144.1819
93.800003 92.612 144.1349
95.000000 92.536 144.1035
96.199997 92.460 144.0818
97.500000 92.381 144.0688
98.800003 92.307 144.0461
100.000000 92.238 143.9941
101.500000 92.148 143.9216
103.000000 92.059 143.8869
104.400002 91.978 143.8784
106.000000 91.886 143.8726
107.500000 91.801 143.8797
109.000000 91.720 143.8918
110.599998 91.634 143.9091
112.000000 91.558 143.9540
113.800003 91.460 144.0382
115.000000 91.394 144.0944
117.199997 91.272 144.1370
118.000000 91.226 144.1309
120.599998 91.081 144.2001
122.000000 91.020 144.2780
124.099998 90.933 144.3677
125.000000 90.894 144.4059
126.500000 90.825 144.4782
128.000000 90.755 144.5573
131.500000 90.602 144.7521
132.000000 90.581 144.7831
134.000000 90.501 144.9217
136.000000 90.422 145.0634
138.000000 90.342 145.1722
140.000000 90.258 145.2781
143.000000 90.147 145.4928
145.000000 90.074 145.6445
147.500000 89.974 145.8443
150.000000 89.878 146.0629
152.500000 89.788 146.2556
155.000000 89.696 146.4539
157.500000 89.605 146.6801
160.000000 89.516 146.9054
162.500000 89.433 147.1420
165.000000 89.350 147.3752
167.500000 89.267 147.6296
170.000000 89.190 147.8755
172.500000 89.117 148.0755
175.000000 89.043 148.2668
177.500000 88.963 148.5250
180.000000 88.882 148.8517
182.500000 88.800 149.1648
185.000000 88.717 149.4102
187.500000 88.637 149.6161
190.000000 88.564 149.8438
192.500000 88.496 150.1262
195.000000 88.430 150.4277
197.500000 88.365 150.7101
200.000000 88.303 150.9646
203.000000 88.232 151.2590
206.000000 88.160 151.5752
209.000000 88.084 151.9116
212.000000 88.010 152.2693
214.000000 87.963 152.5131
218.000000 87.869 152.9643
220.000000 87.823 153.1775
224.000000 87.736 153.6291
227.000000 87.670 153.9766
230.000000 87.605 154.3105
233.000000 87.542 154.6598
236.000000 87.482 155.0450
240.000000 87.405 155.5455
243.000000 87.350 155.8682
247.000000 87.279 156.3061
250.000000 87.226 156.6533
254.000000 87.156 157.1194
258.000000 87.086 157.5984
262.000000 87.018 158.0743
265.000000 86.967 158.4207
269.000000 86.901 158.8832
272.000000 86.854 159.2397
276.000000 86.797 159.7219
280.000000 86.742 160.1879
285.000000 86.675 160.7560
290.000000 86.612 161.3359
295.000000 86.551 161.8998
300.000000 86.489 162.4729
304.000000 86.436 162.9629
307.000000 86.398 163.3126
311.000000 86.353 163.7611
315.000000 86.311 164.2122
320.000000 86.261 164.7694
325.000000 86.212 165.3103
330.000000 86.165 165.8528
335.000000 86.120 166.3942
340.000000 86.074 166.9474
345.000000 86.026 167.5016
350.000000 85.979 168.0467
355.000000 85.933 168.5994
360.000000 85.885 169.1611
365.000000 85.840 169.7099
370.000000 85.796 170.2479
375.000000 85.753 170.7764
382.000000 85.696 171.5255
387.000000 85.656 172.0695
395.000000 85.593 172.9238
400.000000 85.557 173.4434
406.000000 85.516 174.0915
412.000000 85.475 174.7415
418.000000 85.434 175.3750
425.000000 85.386 176.1238
431.000000 85.342 176.7691
437.000000 85.299 177.4011
444.000000 85.253 178.1278
450.000000 85.214 178.7522
455.000000 85.183 179.2771
462.000000 85.143 -179.9897
468.000000 85.111 -179.3594
475.000000 85.074 -178.6297
482.000000 85.041 -177.9021
487.000000 85.021 -177.3798
494.000000 84.994 -176.6584
500.000000 84.973 -176.0393
508.000000 84.944 -175.2051
515.000000 84.917 -174.4747
522.000000 84.890 -173.7401
530.000000 84.861 -172.8991
538.000000 84.834 -172.0705
545.000000 84.810 -171.3365
552.000000 84.790 -170.5887
560.000000 84.770 -169.7359
570.000000 84.749 -168.6904
580.000000 84.732 -167.6263
590.000000 84.715 -166.5475
600.000000 84.697 -165.4747
608.000000 84.681 -164.6002
615.000000 84.670 -163.8156
622.000000 84.661 -163.0205
630.000000 84.653 -162.1127
640.000000 84.645 -160.9851
650.000000 84.643 -159.8379
660.000000 84.648 -158.6814
670.000000 84.661 -157.5564
680.000000 84.682 -156.4350
690.000000 84.714 -155.3162
700.000000 84.753 -154.2244
710.000000 84.800 -153.1564
720.000000 84.853 -152.1254
730.000000 84.909 -151.1555
740.000000 84.969 -150.2388
750.000000 85.030 -149.3779
762.000000 85.099 -148.4373
775.000000 85.158 -147.5104
788.000000 85.199 -146.5512
800.000000 85.240 -145.5782
812.000000 85.294 -144.6197
825.000000 85.353 -143.6532
838.000000 85.408 -142.7145
850.000000 85.457 -141.8429
862.000000 85.507 -140.9818
875.000000 85.561 -140.0746
885.000000 85.602 -139.3825
900.000000 85.665 -138.3469
912.000000 85.719 -137.5102
925.000000 85.777 -136.6188
938.000000 85.836 -135.7460
950.000000 85.893 -134.9531
962.000000 85.952 -134.1693
975.000000 86.018 -133.3156
988.000000 86.090 -132.4705
1000.000000 86.154 -131.7214
1015.000000 86.223 -130.8536
1030.000000 86.297 -130.0268
1044.000000 86.371 -129.2679
1060.000000 86.458 -128.4153
1075.000000 86.538 -127.6390
1090.000000 86.622 -126.9058
1106.000000 86.720 -126.1617
1120.000000 86.809 -125.5354
1138.000000 86.921 -124.7697
1150.000000 86.993 -124.2728
1172.000000 87.121 -123.3908
1180.000000 87.166 -123.0798
1206.000000 87.311 -122.1126
1220.000000 87.390 -121.6213
1241.000000 87.508 -120.8967
1250.000000 87.557 -120.5844
1265.000000 87.638 -120.0742
1280.000000 87.716 -119.5752
1315.000000 87.886 -118.4407
1320.000000 87.909 -118.2825
1340.000000 87.992 -117.6473
1360.000000 88.054 -117.0034
1380.000000 88.113 -116.3627
1400.000000 88.183 -115.7337
1430.000000 88.293 -114.7961
1450.000000 88.367 -114.1792
1475.000000 88.456 -113.4076
1500.000000 88.541 -112.6358
1525.000000 88.623 -111.8663
1550.000000 88.696 -111.0967
1575.000000 88.766 -110.3261
1600.000000 88.832 -109.5635
1625.000000 88.896 -108.8086
1650.000000 88.959 -108.0394
1675.000000 89.023 -107.2706
1700.000000 89.084 -106.5097
1725.000000 89.139 -105.7461
1750.000000 89.191 -104.9917
1775.000000 89.241 -104.2388
1800.000000 89.287 -103.4796
1825.000000 89.331 -102.7192
1850.000000 89.373 -101.9494
1875.000000 89.413 -101.1566
1900.000000 89.451 -100.3386
1925.000000 89.484 -99.4865
1950.000000 89.516 -98.5955
1975.000000 89.548 -97.6542
2000.000000 89.581 -96.6639
2030.000000 89.624 -95.4152
2060.000000 89.689 -94.0852
2090.000000 89.786 -92.7387
2120.000000 89.910 -91.4987
2140.000000 90.001 -90.7792
2180.000000 90.183 -89.6334
2200.000000 90.264 -89.1854
2240.000000 90.398 -88.4158
2270.000000 90.476 -87.8745
2300.000000 90.537 -87.3198
2330.000000 90.585 -86.7310
2360.000000 90.626 -86.1057
2400.000000 90.673 -85.2120
2430.000000 90.702 -84.4985
2470.000000 90.738 -83.5086
2500.000000 90.763 -82.7316
2540.000000 90.795 -81.6645
2580.000000 90.827 -80.5690
2620.000000 90.858 -79.4488
2650.000000 90.882 -78.5934
2690.000000 90.913 -77.4203
2720.000000 90.935 -76.5150
2760.000000 90.963 -75.2869
2800.000000 90.993 -74.0380
2850.000000 91.037 -72.4517
2900.000000 91.078 -70.8236
2950.000000 91.125 -69.1800
3000.000000 91.184 -67.5241
3040.000000 91.237 -66.2242
3070.000000 91.275 -65.2458
3110.000000 91.324 -63.9273
3150.000000 91.376 -62.5995
3200.000000 91.444 -60.9228
3250.000000 91.519 -59.2424
3300.000000 91.603 -57.5786
3350.000000 91.695 -55.9599
3400.000000 91.792 -54.4014
3450.000000 91.891 -52.8918
3500.000000 91.989 -51.4015
3550.000000 92.081 -49.8887
3600.000000 92.172 -48.3173
3650.000000 92.268 -46.6826
3700.000000 92.376 -45.0099
3750.000000 92.501 -43.3320
3820.000000 92.698 -41.0479
3870.000000 92.850 -39.5012
3950.000000 93.104 -37.1849
4000.000000 93.269 -35.8371
4060.000000 93.475 -34.3215
4120.000000 93.688 -32.9181
4180.000000 93.909 -31.6479
4250.000000 94.174 -30.3841
4310.000000 94.403 -29.5559
4370.000000 94.619 -29.0228
4440.000000 94.833 -28.8475
4500.000000 94.941 -29.0698
4550.000000 94.936 -29.2858
4620.000000 94.780 -28.5482
4680.000000 94.728 -26.2106
4750.000000 95.053 -23.4424
4820.000000 95.515 -23.0144
4870.000000 95.745 -23.8087
4940.000000 95.899 -25.4009
5000.000000 95.911 -26.7621
5080.000000 95.800 -28.3154
5150.000000 95.609 -29.3722
5220.000000 95.348 -30.0889
5300.000000 94.983 -30.4238
5380.000000 94.565 -30.1751
5450.000000 94.173 -29.4498
5520.000000 93.772 -28.2788
5600.000000 93.307 -26.4429
5700.000000 92.709 -23.3756
5800.000000 92.088 -18.7171
5900.000000 91.795 -11.7711
6000.000000 92.004 -6.9381
6080.000000 92.008 -4.9528
6150.000000 91.887 -2.8690
6220.000000 91.760 -0.2768
6300.000000 91.652 3.0297
6400.000000 91.575 7.3961
6500.000000 91.561 11.8666
6600.000000 91.606 16.3681
6700.000000 91.711 20.8497
6800.000000 91.881 25.2613
6900.000000 92.139 29.5595
7000.000000 92.487 33.6870
7100.000000 92.909 37.5634
7200.000000 93.405 41.0782
7300.000000 93.973 44.0795
7400.000000 94.607 46.4179
7500.000000 95.294 47.9220
7620.000000 96.165 48.3342
7750.000000 97.066 46.6954
7880.000000 97.695 42.7083
8000.000000 97.915 37.3686
8120.000000 97.717 31.5263
8250.000000 97.045 26.2085
8380.000000 96.030 23.1472
8500.000000 94.941 22.6158
8620.000000 93.827 24.0544
8750.000000 92.674 27.3754
8850.000000 91.856 30.8702
9000.000000 90.770 37.2178
9120.000000 90.037 42.9874
9250.000000 89.380 49.7222
9380.000000 88.857 56.7912
9500.000000 88.489 63.5009
9620.000000 88.230 70.2981
9750.000000 88.069 77.6930
9880.000000 88.038 85.0713
10000.000000 88.125 91.7854
10150.000000 88.397 99.9018
10300.000000 88.863 107.5241
10440.000000 89.494 113.9308
10600.000000 90.474 119.8988
10750.000000 91.639 123.3406
10900.000000 92.928 123.4370
11060.000000 94.115 118.3924
11200.000000 94.621 109.6454
11380.000000 94.159 96.4752
11500.000000 93.181 89.7923
11720.000000 90.595 85.5862
11800.000000 89.583 86.3699
12060.000000 86.595 94.3289
12200.000000 85.277 100.6498
12410.000000 83.647 111.2117
12500.000000 83.042 116.0047
12650.000000 82.140 124.3030
12800.000000 81.371 132.9057
13150.000000 80.051 153.5281
13200.000000 79.914 156.4830
13400.000000 79.477 168.2344
13600.000000 79.217 179.8247
13800.000000 79.144 -168.8740
14000.000000 79.262 -158.1439
14300.000000 79.694 -143.6004
14500.000000 80.116 -135.0436
14750.000000 80.756 -126.0030
15000.000000 81.412 -119.2029
15250.000000 81.935 -114.6453
15500.000000 82.217 -111.4831
15750.000000 82.237 -108.1210
16000.000000 82.110 -103.1974
16250.000000 82.110 -96.0844
16500.000000 82.787 -87.7928
16750.000000 84.238 -83.5538
17000.000000 85.701 -87.7354
17250.000000 86.365 -101.1035
17500.000000 85.548 -118.4974
17750.000000 83.168 -129.9679
18000.000000 79.838 -131.3349
18250.000000 76.329 -125.1622
18500.000000 73.083 -114.6143
18750.000000 70.174 -100.8273
19000.000000 67.529 -84.0461
19250.000000 65.150 -64.6049
19500.000000 63.350 -49.5721
19750.000000 62.767 -72.9905
20000.000000 63.357 -174.4162
20300.000000 64.407 66.8055
20600.000000 64.855 36.6075
20900.000000 64.420 37.6820
21200.000000 63.330 45.9506
21400.000000 62.496 53.9860
21800.000000 61.217 71.4416
22000.000000 60.869 70.8125
22400.000000 59.986 159.3464
22700.000000 57.550 -81.6094
23000.000000 52.489 -154.1743
23300.000000 46.132 13.5039
23600.000000 42.591 82.1328
24000.000000 42.399 101.3672
