* Measurement data measured by REW V5.20.13
* Source: Microphone (High Definition Audio Device), MICROPHONE (Master Volume), L, volume: 0.850. Timing signal peak level -17.7 dBFS, measurement signal peak level -17.7 dBFS
* Format: 512k Log Swept Sine, 1 sweep at -12.0 dBFS using an acoustic timing reference
* Dated: Dec 13, 2022 10:58:47 AM
* REW Settings:
*  C-weighting compensation: Off
*  Target level: 75.0 dB
* Note: ; Delay -0.0480 ms (-16 mm, -0.65 in) using estimated IR delay relative to Acoustic reference played from HEADPHONE L with no timing offset Clock adjustment: 120.6 ppm
* Measurement: Chu L
* Smoothing: 1/24 octave
* Frequency Step: 1/48 octave
* Start Frequency: 1.000 Hz
*
* Freq(Hz) SPL(dB) Phase(degrees)
1.000000 90.659 111.6800
1.015000 90.718 112.3810
1.030000 90.777 113.0285
1.044000 90.830 113.5806
1.060000 90.890 114.1448
1.075000 90.945 114.6045
1.090000 90.999 114.9924
1.106000 91.055 115.3219
1.120000 91.104 115.5372
1.138000 91.165 115.7196
1.150000 91.205 115.7860
1.172000 91.278 115.8023
1.180000 91.304 115.7768
1.206000 91.386 115.5900
1.220000 91.430 115.4299
1.241000 91.493 115.1224
1.250000 91.520 114.9687
1.265000 91.564 114.6872
1.280000 91.607 114.3781
1.315000 91.702 113.5769
1.320000 91.716 113.4559
1.340000 91.767 112.9628
1.360000 91.816 112.4635
1.380000 91.863 111.9696
1.400000 91.908 111.4925
1.430000 91.970 110.8331
1.450000 92.009 110.4478
1.475000 92.054 110.0387
1.500000 92.098 109.6477
1.525000 92.142 109.2560
1.550000 92.184 108.8618
1.575000 92.225 108.4632
1.600000 92.262 108.0585
1.625000 92.295 107.6457
1.650000 92.324 107.2230
1.675000 92.348 106.7886
1.700000 92.365 106.3407
1.725000 92.376 105.8773
1.750000 92.378 105.3966
1.775000 92.372 104.8967
1.800000 92.357 104.3759
1.825000 92.331 103.8323
1.850000 92.294 103.2569
1.875000 92.241 102.6357
1.900000 92.175 101.9754
1.925000 92.099 101.2832
1.950000 92.012 100.5667
1.975000 91.919 99.8331
2.000000 91.820 99.0899
2.030000 91.696 98.1958
2.060000 91.569 97.3111
2.090000 91.444 96.4488
2.120000 91.323 95.6215
2.140000 91.246 95.0958
2.180000 91.105 94.1232
2.200000 91.044 93.6837
2.240000 90.924 92.8622
2.270000 90.833 92.2820
2.300000 90.742 91.7318
2.330000 90.653 91.2109
2.360000 90.567 90.7184
2.400000 90.460 90.1048
2.430000 90.386 89.6759
2.470000 90.298 89.1444
2.500000 90.243 88.7750
2.540000 90.184 88.3201
2.580000 90.146 87.9092
2.620000 90.130 87.5615
2.650000 90.130 87.3409
2.690000 90.145 87.0929
2.720000 90.164 86.9367
2.760000 90.199 86.7612
2.800000 90.241 86.6148
2.850000 90.300 86.4593
2.900000 90.360 86.3182
2.950000 90.415 86.1796
3.000000 90.472 86.0787
3.040000 90.521 86.0267
3.070000 90.561 86.0011
3.110000 90.616 85.9810
3.150000 90.677 85.9720
3.200000 90.758 85.9690
3.250000 90.848 85.9657
3.300000 90.947 85.9525
3.350000 91.057 85.9541
3.400000 91.178 85.9818
3.450000 91.308 86.0201
3.500000 91.444 86.0534
3.550000 91.583 86.0660
3.600000 91.722 86.0425
3.650000 91.859 85.9672
3.700000 91.994 85.8327
3.750000 92.131 85.6541
3.820000 92.325 85.3426
3.870000 92.464 85.0848
3.950000 92.683 84.6284
4.000000 92.816 84.3253
4.060000 92.971 83.9507
4.120000 93.123 83.5525
4.180000 93.273 83.1285
4.250000 93.444 82.6013
4.310000 93.585 82.1218
4.370000 93.721 81.6169
4.440000 93.872 80.9899
4.500000 93.996 80.4101
4.550000 94.095 79.9045
4.620000 94.229 79.1759
4.680000 94.338 78.5444
4.750000 94.459 77.8157
4.820000 94.572 77.0969
4.870000 94.648 76.5789
4.940000 94.749 75.8507
5.000000 94.830 75.2273
5.080000 94.933 74.4031
5.150000 95.018 73.6929
5.220000 95.098 72.9860
5.300000 95.182 72.1833
5.380000 95.261 71.3927
5.450000 95.326 70.7165
5.520000 95.390 70.0591
5.600000 95.458 69.3285
5.700000 95.537 68.4416
5.800000 95.613 67.5792
5.900000 95.689 66.7384
6.000000 95.763 65.9268
6.080000 95.821 65.2928
6.150000 95.872 64.7437
6.220000 95.923 64.1953
6.300000 95.981 63.5707
6.400000 96.054 62.7989
6.500000 96.127 62.0308
6.600000 96.200 61.2596
6.700000 96.274 60.4863
6.800000 96.347 59.7125
6.900000 96.419 58.9348
7.000000 96.491 58.1498
7.100000 96.561 57.3554
7.200000 96.630 56.5574
7.300000 96.698 55.7625
7.400000 96.763 54.9728
7.500000 96.826 54.1838
7.620000 96.899 53.2465
7.750000 96.975 52.2530
7.880000 97.048 51.2771
8.000000 97.113 50.3976
8.120000 97.178 49.5459
8.250000 97.246 48.6521
8.380000 97.313 47.7861
8.500000 97.376 47.0114
8.620000 97.438 46.2613
8.750000 97.505 45.4709
8.850000 97.556 44.8756
9.000000 97.634 44.0064
9.120000 97.695 43.3285
9.250000 97.763 42.6097
9.380000 97.830 41.9083
9.500000 97.890 41.2733
9.620000 97.946 40.6477
9.750000 98.004 39.9822
9.880000 98.055 39.3322
10.000000 98.092 38.7444
10.150000 98.129 38.0285
10.300000 98.157 37.3490
10.440000 98.174 36.7499
10.600000 98.189 36.0993
10.750000 98.202 35.5228
10.900000 98.214 34.9749
11.060000 98.227 34.4001
11.200000 98.239 33.9067
11.380000 98.252 33.2868
11.500000 98.260 32.8827
11.720000 98.271 32.1592
11.800000 98.274 31.9015
12.060000 98.282 31.0821
12.200000 98.285 30.6476
12.410000 98.286 30.0092
12.500000 98.284 29.7454
12.650000 98.279 29.3173
12.800000 98.272 28.9055
13.150000 98.249 28.0152
13.200000 98.245 27.8937
13.400000 98.233 27.4244
13.600000 98.223 26.9653
13.800000 98.216 26.5130
14.000000 98.211 26.0463
14.300000 98.206 25.3098
14.500000 98.201 24.7860
14.750000 98.193 24.1005
15.000000 98.183 23.3852
15.250000 98.171 22.6530
15.500000 98.157 21.9256
15.750000 98.142 21.2142
16.000000 98.127 20.5296
16.250000 98.115 19.8613
16.500000 98.107 19.2025
16.750000 98.105 18.5427
17.000000 98.107 17.8740
17.250000 98.112 17.1979
17.500000 98.118 16.5174
17.750000 98.122 15.8498
18.000000 98.124 15.2047
18.250000 98.125 14.5929
18.500000 98.127 14.0232
18.750000 98.131 13.4920
19.000000 98.138 12.9961
19.250000 98.148 12.5210
19.500000 98.161 12.0612
19.750000 98.174 11.6120
20.000000 98.185 11.1729
20.299999 98.195 10.6635
20.600000 98.201 10.1776
20.900000 98.204 9.7182
21.200001 98.202 9.2835
21.400000 98.199 9.0036
21.799999 98.189 8.4597
22.000000 98.182 8.1923
22.400000 98.164 7.6637
22.700001 98.147 7.2740
23.000000 98.128 6.8895
23.299999 98.108 6.5041
23.600000 98.088 6.1107
24.000000 98.062 5.5642
24.299999 98.042 5.1357
24.700001 98.014 4.5469
25.000000 97.992 4.1026
25.400000 97.962 3.5197
25.799999 97.935 2.9549
26.200001 97.913 2.4053
26.500000 97.900 1.9992
26.900000 97.886 1.4647
27.200001 97.877 1.0715
27.600000 97.866 0.5641
28.000000 97.856 0.0830
28.500000 97.845 -0.4787
29.000000 97.834 -1.0054
29.500000 97.822 -1.5083
30.000000 97.802 -1.9901
30.400000 97.779 -2.3562
30.700001 97.759 -2.6165
31.100000 97.728 -2.9448
31.500000 97.695 -3.2565
32.000000 97.653 -3.6372
32.500000 97.611 -4.0243
33.000000 97.568 -4.4259
33.500000 97.526 -4.8401
34.000000 97.486 -5.2643
34.500000 97.452 -5.7024
35.000000 97.421 -6.1579
35.500000 97.391 -6.6228
36.000000 97.362 -7.0785
36.500000 97.331 -7.5050
37.000000 97.301 -7.8899
37.500000 97.273 -8.2332
38.200001 97.236 -8.6648
38.700001 97.209 -8.9580
39.500000 97.158 -9.4097
40.000000 97.120 -9.6614
40.599998 97.071 -9.9208
41.200001 97.025 -10.1647
41.799999 96.982 -10.4417
42.500000 96.929 -10.8212
43.099998 96.880 -11.1558
43.700001 96.831 -11.4685
44.400002 96.780 -11.8129
45.000000 96.742 -12.1088
45.500000 96.713 -12.3584
46.200001 96.674 -12.7037
46.799999 96.640 -12.9885
47.500000 96.599 -13.3020
48.200001 96.555 -13.5843
48.700001 96.522 -13.7599
49.400002 96.477 -13.9784
50.000000 96.439 -14.1668
50.799999 96.387 -14.4444
51.500000 96.334 -14.6876
52.200001 96.277 -14.8924
53.000000 96.215 -15.0610
53.799999 96.166 -15.2041
54.500000 96.131 -15.3663
55.200001 96.093 -15.5444
56.000000 96.050 -15.6936
57.000000 96.009 -15.8175
58.000000 95.989 -15.9248
59.000000 95.994 -16.1953
60.000000 95.962 -16.7341
60.799999 95.897 -16.9895
61.500000 95.849 -17.0168
62.200001 95.821 -17.0492
63.000000 95.793 -17.1835
64.000000 95.748 -17.3992
65.000000 95.700 -17.6539
66.000000 95.647 -17.9242
67.000000 95.593 -18.2118
68.000000 95.535 -18.4958
69.000000 95.478 -18.7191
70.000000 95.426 -18.9127
71.000000 95.377 -19.0950
72.000000 95.327 -19.2702
73.000000 95.272 -19.4476
74.000000 95.214 -19.6147
75.000000 95.156 -19.7740
76.199997 95.087 -19.9760
77.500000 95.012 -20.1638
78.800003 94.943 -20.3358
80.000000 94.879 -20.4807
81.199997 94.815 -20.5908
82.500000 94.750 -20.7044
83.800003 94.684 -20.8183
85.000000 94.625 -20.9196
86.199997 94.567 -21.0084
87.500000 94.505 -21.0729
88.500000 94.459 -21.1094
90.000000 94.393 -21.1691
91.199997 94.341 -21.2195
92.500000 94.284 -21.2891
93.800003 94.225 -21.3624
95.000000 94.167 -21.4005
96.199997 94.111 -21.4122
97.500000 94.051 -21.4176
98.800003 93.993 -21.4114
100.000000 93.942 -21.4102
101.500000 93.879 -21.4217
103.000000 93.814 -21.4118
104.400002 93.756 -21.3845
106.000000 93.691 -21.3874
107.500000 93.626 -21.3745
109.000000 93.566 -21.3400
110.599998 93.509 -21.2970
112.000000 93.460 -21.2804
113.800003 93.387 -21.2429
115.000000 93.337 -21.1941
117.199997 93.247 -21.1315
118.000000 93.214 -21.1210
120.599998 93.108 -20.9954
122.000000 93.068 -20.8919
124.099998 93.011 -20.8316
125.000000 92.984 -20.8090
126.500000 92.939 -20.7639
128.000000 92.895 -20.7093
131.500000 92.796 -20.5326
132.000000 92.782 -20.4984
134.000000 92.725 -20.3390
136.000000 92.669 -20.1645
138.000000 92.612 -19.9998
140.000000 92.556 -19.8705
143.000000 92.473 -19.7250
145.000000 92.423 -19.5920
147.500000 92.364 -19.3952
150.000000 92.306 -19.1661
152.500000 92.252 -18.9592
155.000000 92.203 -18.7739
157.500000 92.151 -18.5975
160.000000 92.091 -18.3714
162.500000 92.038 -18.1454
165.000000 91.987 -17.9496
167.500000 91.936 -17.7253
170.000000 91.884 -17.4735
172.500000 91.830 -17.2338
175.000000 91.777 -17.0175
177.500000 91.721 -16.7952
180.000000 91.667 -16.5562
182.500000 91.620 -16.3427
185.000000 91.579 -16.1388
187.500000 91.541 -15.9093
190.000000 91.498 -15.6487
192.500000 91.451 -15.3855
195.000000 91.407 -15.1549
197.500000 91.368 -14.9348
200.000000 91.331 -14.7197
203.000000 91.283 -14.4571
206.000000 91.237 -14.1707
209.000000 91.196 -13.8694
212.000000 91.154 -13.5732
214.000000 91.128 -13.3885
218.000000 91.081 -13.0247
220.000000 91.058 -12.8322
224.000000 91.014 -12.4387
227.000000 90.981 -12.1494
230.000000 90.946 -11.8674
233.000000 90.913 -11.5822
236.000000 90.886 -11.2925
240.000000 90.850 -10.9137
243.000000 90.821 -10.6500
247.000000 90.785 -10.3144
250.000000 90.757 -10.0746
254.000000 90.717 -9.7704
258.000000 90.680 -9.4310
262.000000 90.650 -9.0971
265.000000 90.625 -8.8598
269.000000 90.589 -8.5203
272.000000 90.562 -8.2619
276.000000 90.530 -7.9081
280.000000 90.504 -7.5506
285.000000 90.475 -7.1359
290.000000 90.440 -6.6807
295.000000 90.407 -6.2233
300.000000 90.383 -5.7565
304.000000 90.367 -5.4225
307.000000 90.354 -5.1960
311.000000 90.333 -4.8914
315.000000 90.310 -4.5742
320.000000 90.288 -4.1697
325.000000 90.268 -3.7581
330.000000 90.251 -3.3512
335.000000 90.233 -2.9521
340.000000 90.214 -2.5429
345.000000 90.197 -2.1490
350.000000 90.181 -1.7705
355.000000 90.160 -1.3962
360.000000 90.140 -1.0063
365.000000 90.122 -0.5875
370.000000 90.104 -0.1826
375.000000 90.085 0.1980
382.000000 90.056 0.7191
387.000000 90.041 1.0890
395.000000 90.013 1.6701
400.000000 89.996 2.0482
406.000000 89.980 2.4950
412.000000 89.966 2.9523
418.000000 89.951 3.4067
425.000000 89.929 3.9184
431.000000 89.910 4.3432
437.000000 89.892 4.7835
444.000000 89.875 5.3309
450.000000 89.860 5.7686
455.000000 89.849 6.1194
462.000000 89.835 6.6099
468.000000 89.824 7.0144
475.000000 89.810 7.4939
482.000000 89.797 8.0019
487.000000 89.789 8.3667
494.000000 89.780 8.8711
500.000000 89.775 9.3068
508.000000 89.769 9.8799
515.000000 89.760 10.3683
522.000000 89.752 10.8395
530.000000 89.750 11.3848
538.000000 89.749 11.9463
545.000000 89.748 12.4302
552.000000 89.744 12.9124
560.000000 89.742 13.4692
570.000000 89.743 14.1596
580.000000 89.746 14.8481
590.000000 89.748 15.5722
600.000000 89.747 16.3119
608.000000 89.746 16.8769
615.000000 89.746 17.3594
622.000000 89.745 17.8442
630.000000 89.747 18.3919
640.000000 89.754 19.0709
650.000000 89.759 19.7638
660.000000 89.768 20.4774
670.000000 89.775 21.1702
680.000000 89.784 21.8487
690.000000 89.795 22.5647
700.000000 89.809 23.2773
710.000000 89.824 23.9894
720.000000 89.838 24.7116
730.000000 89.856 25.4173
740.000000 89.876 26.1238
750.000000 89.897 26.8415
762.000000 89.923 27.7023
775.000000 89.955 28.6274
788.000000 89.987 29.5373
800.000000 90.020 30.3837
812.000000 90.058 31.2395
825.000000 90.100 32.1485
838.000000 90.143 33.0686
850.000000 90.187 33.9398
862.000000 90.235 34.8141
875.000000 90.287 35.7844
885.000000 90.329 36.5859
900.000000 90.416 37.9608
912.000000 90.547 39.0998
925.000000 90.747 39.8247
938.000000 90.892 39.8942
950.000000 90.942 39.9697
962.000000 90.964 40.3287
975.000000 90.997 40.9509
988.000000 91.052 41.6592
1000.000000 91.114 42.3000
1015.000000 91.200 43.0538
1030.000000 91.294 43.7624
1044.000000 91.386 44.3785
1060.000000 91.492 45.0389
1075.000000 91.591 45.6131
1090.000000 91.692 46.1370
1106.000000 91.809 46.6451
1120.000000 91.915 47.0619
1138.000000 92.051 47.5648
1150.000000 92.139 47.8807
1172.000000 92.294 48.4192
1180.000000 92.350 48.6013
1206.000000 92.526 49.1586
1220.000000 92.621 49.4407
1241.000000 92.762 49.8439
1250.000000 92.823 50.0093
1265.000000 92.920 50.2670
1280.000000 93.013 50.5208
1315.000000 93.221 51.1577
1320.000000 93.249 51.2529
1340.000000 93.356 51.6247
1360.000000 93.446 51.9829
1380.000000 93.539 52.3321
1400.000000 93.644 52.6535
1430.000000 93.800 53.0865
1450.000000 93.902 53.3819
1475.000000 94.023 53.7579
1500.000000 94.138 54.1394
1525.000000 94.250 54.5355
1550.000000 94.357 54.9439
1575.000000 94.460 55.3874
1600.000000 94.563 55.8487
1625.000000 94.672 56.3105
1650.000000 94.788 56.7700
1675.000000 94.908 57.2030
1700.000000 95.032 57.5815
1725.000000 95.154 57.9064
1750.000000 95.272 58.1957
1775.000000 95.386 58.4666
1800.000000 95.495 58.7316
1825.000000 95.603 58.9914
1850.000000 95.710 59.2535
1875.000000 95.818 59.5173
1900.000000 95.928 59.7655
1925.000000 96.036 59.9835
1950.000000 96.143 60.1806
1975.000000 96.250 60.3622
2000.000000 96.356 60.5220
2030.000000 96.480 60.6894
2060.000000 96.603 60.8424
2090.000000 96.724 60.9759
2120.000000 96.843 61.0900
2140.000000 96.921 61.1583
2180.000000 97.075 61.2798
2200.000000 97.150 61.3264
2240.000000 97.298 61.4015
2270.000000 97.409 61.4427
2300.000000 97.520 61.4558
2330.000000 97.631 61.4215
2360.000000 97.740 61.3402
2400.000000 97.879 61.1655
2430.000000 97.978 60.9883
2470.000000 98.100 60.7099
2500.000000 98.184 60.4762
2540.000000 98.284 60.1424
2580.000000 98.372 59.7842
2620.000000 98.449 59.4142
2650.000000 98.499 59.1444
2690.000000 98.555 58.8051
2720.000000 98.590 58.5678
2760.000000 98.626 58.2807
2800.000000 98.655 58.0480
2850.000000 98.689 57.8364
2900.000000 98.727 57.6679
2950.000000 98.771 57.4736
3000.000000 98.809 57.2102
3040.000000 98.826 56.9661
3070.000000 98.831 56.7908
3110.000000 98.828 56.6030
3150.000000 98.820 56.4855
3200.000000 98.812 56.4335
3250.000000 98.814 56.4419
3300.000000 98.825 56.4230
3350.000000 98.839 56.3293
3400.000000 98.846 56.1677
3450.000000 98.844 55.9831
3500.000000 98.835 55.8142
3550.000000 98.816 55.6697
3600.000000 98.789 55.5587
3650.000000 98.754 55.4799
3700.000000 98.710 55.4537
3750.000000 98.661 55.4967
3820.000000 98.588 55.6767
3870.000000 98.534 55.8914
3950.000000 98.454 56.3282
4000.000000 98.410 56.6225
4060.000000 98.358 56.9819
4120.000000 98.306 57.3561
4180.000000 98.254 57.7514
4250.000000 98.194 58.2431
4310.000000 98.139 58.6958
4370.000000 98.081 59.1694
4440.000000 98.012 59.7433
4500.000000 97.955 60.2492
4550.000000 97.909 60.6722
4620.000000 97.848 61.2620
4680.000000 97.800 61.7620
4750.000000 97.745 62.3340
4820.000000 97.690 62.8937
4870.000000 97.652 63.2906
4940.000000 97.599 63.8450
5000.000000 97.554 64.3207
5080.000000 97.496 64.9547
5150.000000 97.448 65.5104
5220.000000 97.401 66.0627
5300.000000 97.350 66.6823
5380.000000 97.299 67.2877
5450.000000 97.257 67.8115
5520.000000 97.216 68.3281
5600.000000 97.169 68.9208
5700.000000 97.108 69.6761
5800.000000 97.046 70.4916
5900.000000 96.997 71.4137
6000.000000 96.979 72.3399
6080.000000 96.978 72.9724
6150.000000 96.977 73.4720
6220.000000 96.976 73.9641
6300.000000 96.979 74.5294
6400.000000 96.994 75.2347
6500.000000 97.023 75.9260
6600.000000 97.070 76.5695
6700.000000 97.136 77.1356
6800.000000 97.227 77.5932
6900.000000 97.357 77.9165
7000.000000 97.525 78.0849
7100.000000 97.715 78.0779
7200.000000 97.923 77.8761
7300.000000 98.149 77.4319
7400.000000 98.391 76.6806
7500.000000 98.649 75.5601
7620.000000 98.990 73.6073
7750.000000 99.377 70.4942
7880.000000 99.647 65.9806
8000.000000 99.716 60.3693
8120.000000 99.523 53.6311
8250.000000 98.925 46.0576
8380.000000 97.919 39.6043
8500.000000 96.721 35.5458
8620.000000 95.385 33.5441
8750.000000 93.896 33.4467
8850.000000 92.777 34.5585
9000.000000 91.189 37.7196
9120.000000 90.013 41.2501
9250.000000 88.833 45.8796
9380.000000 87.746 51.2145
9500.000000 86.825 56.7145
9620.000000 85.986 62.7618
9750.000000 85.182 69.9256
9880.000000 84.510 77.6910
10000.000000 84.029 85.3101
10150.000000 83.663 95.1927
10300.000000 83.598 104.9076
10440.000000 83.789 113.1288
10600.000000 84.199 120.8100
10750.000000 84.624 126.0825
10900.000000 84.959 129.7953
11060.000000 85.145 132.7662
11200.000000 85.161 135.1800
11380.000000 85.034 138.6927
11500.000000 84.899 141.4259
11720.000000 84.637 147.2031
11800.000000 84.551 149.5146
12060.000000 84.350 157.6095
12200.000000 84.301 162.2219
12410.000000 84.316 169.2859
12500.000000 84.361 172.3239
12650.000000 84.493 177.3652
12800.000000 84.700 -177.6661
13150.000000 85.508 -166.6360
13200.000000 85.666 -165.1564
13400.000000 86.413 -159.5981
13600.000000 87.375 -154.8079
13800.000000 88.588 -151.1307
14000.000000 90.063 -149.1583
14300.000000 92.635 -151.4932
14500.000000 94.295 -158.3968
14750.000000 95.666 -174.0120
15000.000000 95.729 166.9633
15250.000000 94.638 151.9407
15500.000000 93.096 143.2729
15750.000000 91.655 138.7772
16000.000000 90.409 136.0542
16250.000000 89.226 133.9358
16500.000000 87.960 132.3305
16750.000000 86.526 131.7491
17000.000000 84.912 132.7607
17250.000000 83.175 135.0232
17500.000000 81.409 130.6159
17750.000000 79.716 77.4310
18000.000000 78.220 -66.6853
18250.000000 76.756 144.9817
18500.000000 75.115 -5.7587
18750.000000 73.542 -121.0501
19000.000000 72.090 -149.0696
19250.000000 70.785 -141.6306
19500.000000 69.577 -127.8120
19750.000000 68.452 -113.0460
20000.000000 67.433 -98.1814
20300.000000 66.362 -80.8597
20600.000000 65.470 -65.0167
20900.000000 64.604 -51.6532
21200.000000 63.504 -42.2667
21400.000000 62.506 -41.5755
21800.000000 59.485 176.8860
22000.000000 57.435 40.5269
22400.000000 55.921 24.7202
22700.000000 58.080 -77.6592
23000.000000 59.234 134.0898
23300.000000 59.534 -119.9570
23600.000000 59.476 -146.9570
24000.000000 59.693 69.1875
24300.000000 60.090 128.0469
24700.000000 60.251 79.1562
25000.000000 60.301 62.5156
25400.000000 60.649 110.0938
25800.000000 60.893 136.2969
26200.000000 60.600 66.7188
26500.000000 60.619 94.5000
26900.000000 61.171 -137.3594
27200.000000 61.697 -31.6875
27600.000000 62.194 78.4375
28000.000000 62.591 83.1875
28500.000000 63.345 45.7188
29000.000000 64.112 172.9375
29500.000000 64.846 165.3125
30000.000000 65.753 -17.1250
