* Measurement data measured by REW V5.20.13
* Source: Microphone (Realtek(R) Audio), MICROPHONE (Master Volume), L, volume: 0.670. Timing signal peak level -35.1 dBFS, measurement signal peak level -31.4 dBFS
* Format: 2M Log Swept Sine, 1 sweep at -12.0 dBFS using an acoustic timing reference
* Dated: Jul 10, 2023 9:26:17 AM
* REW Settings:
*  C-weighting compensation: Off
*  Target level: 75.0 dB
* Note: ; Delay -0.0524 ms (-18 mm, -0.71 in) using estimated IR delay relative to Acoustic reference played from HEADPHONE L with no timing offset Clock adjustment: 120.9 ppm
* Measurement: CrinZero 10 L
* Smoothing: 1/24 octave
* Frequency Step: 1/48 octave
* Start Frequency: 1.000 Hz
*
* Freq(Hz) SPL(dB) Phase(degrees)
1.000000 66.092 -165.7827
1.015000 66.045 -161.5204
1.030000 66.026 -157.4064
1.044000 66.037 -153.7184
1.060000 66.086 -149.7053
1.075000 66.169 -146.1595
1.090000 66.293 -142.8445
1.106000 66.472 -139.5697
1.120000 66.677 -136.8429
1.138000 67.002 -133.4958
1.150000 67.255 -131.3603
1.172000 67.785 -127.6358
1.180000 67.997 -126.3406
1.206000 68.748 -122.3378
1.220000 69.185 -120.3077
1.241000 69.876 -117.4174
1.250000 70.183 -116.2330
1.265000 70.705 -114.3279
1.280000 71.236 -112.5051
1.315000 72.491 -108.5479
1.320000 72.670 -108.0140
1.340000 73.378 -105.9507
1.360000 74.067 -103.9951
1.380000 74.727 -102.1369
1.400000 75.350 -100.3659
1.430000 76.191 -97.8500
1.450000 76.677 -96.2515
1.475000 77.187 -94.3459
1.500000 77.638 -92.7147
1.525000 78.044 -91.3708
1.550000 78.410 -90.2796
1.575000 78.739 -89.4059
1.600000 79.035 -88.7150
1.625000 79.301 -88.1719
1.650000 79.541 -87.7418
1.675000 79.759 -87.3896
1.700000 79.959 -87.0806
1.725000 80.143 -86.7799
1.750000 80.317 -86.4525
1.775000 80.482 -86.0635
1.800000 80.644 -85.5781
1.825000 80.806 -84.9614
1.850000 80.962 -84.2223
1.875000 81.096 -83.4512
1.900000 81.208 -82.6581
1.925000 81.302 -81.8485
1.950000 81.379 -81.0283
1.975000 81.442 -80.2030
2.000000 81.494 -79.3784
2.030000 81.545 -78.3978
2.060000 81.587 -77.4363
2.090000 81.624 -76.5037
2.120000 81.662 -75.6099
2.140000 81.689 -75.0404
2.180000 81.753 -73.9780
2.200000 81.792 -73.4908
2.240000 81.869 -72.5992
2.270000 81.919 -71.9922
2.300000 81.964 -71.4306
2.330000 82.006 -70.9073
2.360000 82.046 -70.4154
2.400000 82.099 -69.7966
2.430000 82.141 -69.3513
2.470000 82.201 -68.7694
2.500000 82.252 -68.3329
2.540000 82.331 -67.7378
2.580000 82.424 -67.1158
2.620000 82.527 -66.4862
2.650000 82.609 -66.0155
2.690000 82.726 -65.3935
2.720000 82.817 -64.9338
2.760000 82.944 -64.3338
2.800000 83.076 -63.7529
2.850000 83.245 -63.0607
2.900000 83.418 -62.4149
2.950000 83.593 -61.8209
3.000000 83.774 -61.2536
3.040000 83.923 -60.8197
3.070000 84.037 -60.5092
3.110000 84.192 -60.1192
3.150000 84.350 -59.7613
3.200000 84.551 -59.3666
3.250000 84.756 -59.0397
3.300000 84.965 -58.7905
3.350000 85.178 -58.6245
3.400000 85.398 -58.5342
3.450000 85.623 -58.5101
3.500000 85.851 -58.5425
3.550000 86.079 -58.6216
3.600000 86.308 -58.7379
3.650000 86.534 -58.8815
3.700000 86.759 -59.0489
3.750000 86.985 -59.2507
3.820000 87.303 -59.5966
3.870000 87.529 -59.8922
3.950000 87.885 -60.4560
4.000000 88.103 -60.8689
4.060000 88.359 -61.4344
4.120000 88.611 -62.0925
4.180000 88.858 -62.8264
4.250000 89.142 -63.7494
4.310000 89.378 -64.5734
4.370000 89.608 -65.4050
4.440000 89.867 -66.3719
4.500000 90.082 -67.2250
4.550000 90.257 -67.9529
4.620000 90.495 -68.9937
4.680000 90.691 -69.9026
4.750000 90.911 -70.9774
4.820000 91.121 -72.0773
4.870000 91.265 -72.8865
4.940000 91.459 -74.0373
5.000000 91.618 -75.0267
5.080000 91.820 -76.3274
5.150000 91.987 -77.4292
5.220000 92.144 -78.5161
5.300000 92.313 -79.7426
5.380000 92.471 -80.9410
5.450000 92.603 -81.9573
5.520000 92.728 -82.9369
5.600000 92.861 -84.0238
5.700000 93.014 -85.3294
5.800000 93.157 -86.5622
5.900000 93.295 -87.7084
6.000000 93.422 -88.7702
6.080000 93.519 -89.5637
6.150000 93.602 -90.2199
6.220000 93.684 -90.8428
6.300000 93.778 -91.5067
6.400000 93.893 -92.2630
6.500000 94.007 -92.9624
6.600000 94.124 -93.6317
6.700000 94.243 -94.2605
6.800000 94.364 -94.8478
6.900000 94.487 -95.4191
7.000000 94.610 -95.9956
7.100000 94.737 -96.5609
7.200000 94.864 -97.1228
7.300000 94.989 -97.6971
7.400000 95.111 -98.2949
7.500000 95.232 -98.9089
7.620000 95.372 -99.6573
7.750000 95.512 -100.4742
7.880000 95.642 -101.3094
8.000000 95.753 -102.0704
8.120000 95.854 -102.7994
8.250000 95.952 -103.5698
8.380000 96.040 -104.2917
8.500000 96.116 -104.8911
8.620000 96.184 -105.4364
8.750000 96.255 -105.9638
8.850000 96.311 -106.3192
9.000000 96.394 -106.7662
9.120000 96.465 -107.0798
9.250000 96.551 -107.3882
9.380000 96.645 -107.6534
9.500000 96.736 -107.9089
9.620000 96.833 -108.1948
9.750000 96.943 -108.5216
9.880000 97.050 -108.9049
10.000000 97.143 -109.3284
10.150000 97.254 -109.9314
10.300000 97.350 -110.6028
10.440000 97.426 -111.3024
10.600000 97.497 -112.1455
10.750000 97.549 -112.9561
10.900000 97.586 -113.7834
11.060000 97.613 -114.6209
11.200000 97.623 -115.3276
11.380000 97.628 -116.1346
11.500000 97.625 -116.5923
11.720000 97.620 -117.2842
11.800000 97.622 -117.4816
12.060000 97.641 -117.9624
12.200000 97.671 -118.1710
12.410000 97.736 -118.4358
12.500000 97.772 -118.5685
12.650000 97.843 -118.7982
12.800000 97.922 -119.0746
13.150000 98.127 -119.9916
13.200000 98.156 -120.1516
13.400000 98.274 -120.8753
13.600000 98.383 -121.6800
13.800000 98.481 -122.5540
14.000000 98.566 -123.4437
14.300000 98.670 -124.7759
14.500000 98.727 -125.6210
14.750000 98.790 -126.6201
15.000000 98.847 -127.5525
15.250000 98.904 -128.4357
15.500000 98.958 -129.2711
15.750000 99.010 -130.0575
16.000000 99.057 -130.7870
16.250000 99.102 -131.4517
16.500000 99.148 -132.0513
16.750000 99.199 -132.5858
17.000000 99.259 -133.0840
17.250000 99.329 -133.5694
17.500000 99.408 -134.0732
17.750000 99.490 -134.6245
18.000000 99.572 -135.2256
18.250000 99.650 -135.8783
18.500000 99.720 -136.5543
18.750000 99.783 -137.2327
19.000000 99.840 -137.8943
19.250000 99.893 -138.5253
19.500000 99.946 -139.1308
19.750000 100.000 -139.7154
20.000000 100.054 -140.2958
20.299999 100.118 -140.9989
20.600000 100.179 -141.7111
20.900000 100.235 -142.4215
21.200001 100.284 -143.1075
21.400000 100.316 -143.5406
21.799999 100.378 -144.3517
22.000000 100.412 -144.7386
22.400000 100.486 -145.5103
22.700001 100.546 -146.1180
23.000000 100.605 -146.7673
23.299999 100.659 -147.4508
23.600000 100.706 -148.1479
24.000000 100.756 -149.0567
24.299999 100.787 -149.6965
24.700001 100.827 -150.4843
25.000000 100.858 -151.0387
25.400000 100.904 -151.7595
25.799999 100.954 -152.4917
26.200001 101.003 -153.2510
26.500000 101.038 -153.8344
26.900000 101.080 -154.6174
27.200001 101.109 -155.1989
27.600000 101.145 -155.9601
28.000000 101.179 -156.7081
28.500000 101.221 -157.6365
29.000000 101.260 -158.5608
29.500000 101.296 -159.4649
30.000000 101.329 -160.3353
30.400000 101.356 -161.0164
30.700001 101.376 -161.5284
31.100000 101.402 -162.2213
31.500000 101.424 -162.9215
32.000000 101.446 -163.7810
32.500000 101.464 -164.5969
33.000000 101.481 -165.3743
33.500000 101.499 -166.1387
34.000000 101.517 -166.9055
34.500000 101.533 -167.6705
35.000000 101.548 -168.4279
35.500000 101.561 -169.1788
36.000000 101.572 -169.9236
36.500000 101.582 -170.6590
37.000000 101.591 -171.3886
37.500000 101.600 -172.1251
38.200001 101.607 -173.1663
38.700001 101.606 -173.8858
39.500000 101.606 -174.9559
40.000000 101.609 -175.6078
40.599998 101.614 -176.4069
41.200001 101.612 -177.1992
41.799999 101.606 -177.9489
42.500000 101.602 -178.7905
43.099998 101.600 -179.5264
43.700001 101.592 179.7288
44.400002 101.577 178.8840
45.000000 101.562 178.1820
45.500000 101.551 177.5962
46.200001 101.533 176.7650
46.799999 101.516 176.0512
47.500000 101.495 175.2281
48.200001 101.473 174.4215
48.700001 101.457 173.8641
49.400002 101.434 173.1232
50.000000 101.418 172.5177
50.799999 101.401 171.7062
51.500000 101.380 170.9724
52.200001 101.347 170.2726
53.000000 101.307 169.5638
53.799999 101.274 168.8197
54.500000 101.232 168.0580
55.200001 101.164 167.3331
56.000000 101.083 166.7111
57.000000 101.029 166.0128
58.000000 101.010 164.9868
59.000000 100.955 163.6928
60.000000 100.855 162.7302
60.799999 100.812 162.2801
61.500000 100.811 161.8182
62.200001 100.809 161.1976
63.000000 100.785 160.4598
64.000000 100.736 159.6416
65.000000 100.679 158.8991
66.000000 100.619 158.1939
67.000000 100.555 157.4638
68.000000 100.484 156.7226
69.000000 100.410 156.0037
70.000000 100.340 155.3091
71.000000 100.275 154.6140
72.000000 100.208 153.9368
73.000000 100.139 153.2980
74.000000 100.069 152.6716
75.000000 99.995 152.0658
76.199997 99.903 151.3784
77.500000 99.808 150.6344
78.800003 99.712 149.8593
80.000000 99.620 149.1437
81.199997 99.526 148.4649
82.500000 99.427 147.7745
83.800003 99.331 147.0790
85.000000 99.238 146.4363
86.199997 99.142 145.8315
87.500000 99.038 145.2218
88.500000 98.961 144.7612
90.000000 98.842 144.0564
91.199997 98.742 143.5263
92.500000 98.635 142.9940
93.800003 98.533 142.4656
95.000000 98.439 141.9692
96.199997 98.342 141.4728
97.500000 98.230 140.9600
98.800003 98.115 140.5103
100.000000 98.012 140.1417
101.500000 97.890 139.6321
103.000000 97.758 139.0668
104.400002 97.624 138.5936
106.000000 97.480 138.1414
107.500000 97.358 137.7139
109.000000 97.238 137.2650
110.599998 97.106 136.7909
112.000000 96.980 136.3776
113.800003 96.801 135.9457
115.000000 96.688 135.6968
117.199997 96.498 135.0932
118.000000 96.431 134.8485
120.599998 96.207 134.0954
122.000000 96.078 133.9584
124.099998 95.908 133.9224
125.000000 95.833 133.8884
126.500000 95.699 133.7995
128.000000 95.563 133.6763
131.500000 95.265 133.1819
132.000000 95.223 133.1152
134.000000 95.052 132.9053
136.000000 94.871 132.7950
138.000000 94.690 132.7787
140.000000 94.514 132.7845
143.000000 94.259 132.8111
145.000000 94.093 132.8192
147.500000 93.887 132.8607
150.000000 93.687 132.9660
152.500000 93.481 133.1827
155.000000 93.280 133.5100
157.500000 93.092 133.8484
160.000000 92.896 134.1362
162.500000 92.689 134.5240
165.000000 92.502 135.0052
167.500000 92.329 135.5233
170.000000 92.161 135.9856
172.500000 91.986 136.3943
175.000000 91.823 137.0093
177.500000 91.672 137.9800
180.000000 91.532 139.1235
182.500000 91.383 139.7759
185.000000 91.199 140.1582
187.500000 91.044 140.6828
190.000000 90.922 141.3443
192.500000 90.813 142.0717
195.000000 90.710 142.7822
197.500000 90.606 143.5169
200.000000 90.507 144.3282
203.000000 90.405 145.2504
206.000000 90.296 146.0877
209.000000 90.178 146.9998
212.000000 90.080 147.9645
214.000000 90.034 148.5942
218.000000 89.951 149.8329
220.000000 89.904 150.4456
224.000000 89.812 151.6015
227.000000 89.758 152.4036
230.000000 89.705 153.1968
233.000000 89.644 154.0850
236.000000 89.583 155.0145
240.000000 89.522 156.2034
243.000000 89.516 156.8390
247.000000 89.507 157.4994
250.000000 89.498 158.1044
254.000000 89.486 158.9530
258.000000 89.460 159.7672
262.000000 89.439 160.5300
265.000000 89.434 161.0856
269.000000 89.426 161.8198
272.000000 89.410 162.3597
276.000000 89.395 163.0746
280.000000 89.389 163.7039
285.000000 89.382 164.3946
290.000000 89.375 165.2148
295.000000 89.369 166.0396
300.000000 89.385 166.7866
304.000000 89.376 167.2279
307.000000 89.355 167.5348
311.000000 89.340 168.0277
315.000000 89.333 168.5568
320.000000 89.316 169.1603
325.000000 89.315 169.7240
330.000000 89.314 170.2233
335.000000 89.302 170.6619
340.000000 89.297 171.1653
345.000000 89.292 171.6981
350.000000 89.284 172.1661
355.000000 89.264 172.6944
360.000000 89.233 173.2677
365.000000 89.221 173.7653
370.000000 89.217 174.2542
375.000000 89.200 174.7582
382.000000 89.178 175.4453
387.000000 89.160 175.9041
395.000000 89.129 176.5905
400.000000 89.107 177.0469
406.000000 89.085 177.6210
412.000000 89.073 178.1708
418.000000 89.071 178.6593
425.000000 89.054 179.2554
431.000000 89.009 179.8454
437.000000 88.970 -179.5845
444.000000 88.939 -178.9344
450.000000 88.920 -178.3908
455.000000 88.909 -177.9502
462.000000 88.894 -177.2784
468.000000 88.877 -176.6935
475.000000 88.850 -176.0241
482.000000 88.827 -175.3690
487.000000 88.818 -174.8867
494.000000 88.808 -174.2292
500.000000 88.798 -173.6834
508.000000 88.781 -172.9409
515.000000 88.764 -172.2292
522.000000 88.752 -171.5235
530.000000 88.737 -170.7518
538.000000 88.710 -169.9687
545.000000 88.698 -169.3174
552.000000 88.710 -168.6110
560.000000 88.724 -167.7520
570.000000 88.729 -166.7057
580.000000 88.734 -165.6363
590.000000 88.750 -164.6281
600.000000 88.777 -163.6536
608.000000 88.796 -162.8319
615.000000 88.808 -162.0905
622.000000 88.822 -161.3391
630.000000 88.848 -160.4658
640.000000 88.886 -159.4199
650.000000 88.922 -158.4261
660.000000 88.956 -157.4390
670.000000 89.010 -156.5363
680.000000 89.075 -155.6901
690.000000 89.147 -154.8148
700.000000 89.219 -153.9788
710.000000 89.283 -153.2155
720.000000 89.350 -152.5153
730.000000 89.421 -151.7678
740.000000 89.485 -151.0407
750.000000 89.551 -150.3613
762.000000 89.638 -149.5854
775.000000 89.725 -148.8950
788.000000 89.803 -148.2203
800.000000 89.865 -147.5203
812.000000 89.927 -146.8528
825.000000 89.990 -146.1431
838.000000 90.046 -145.4238
850.000000 90.103 -144.8210
862.000000 90.168 -144.2410
875.000000 90.237 -143.5499
885.000000 90.285 -142.9854
900.000000 90.346 -142.1406
912.000000 90.408 -141.4736
925.000000 90.487 -140.7779
938.000000 90.562 -140.1070
950.000000 90.631 -139.4765
962.000000 90.698 -138.8824
975.000000 90.768 -138.2746
988.000000 90.840 -137.6274
1000.000000 90.911 -137.0305
1015.000000 91.003 -136.3459
1030.000000 91.099 -135.7078
1044.000000 91.186 -135.1476
1060.000000 91.280 -134.5433
1075.000000 91.373 -133.9677
1090.000000 91.468 -133.4482
1106.000000 91.565 -132.9454
1120.000000 91.653 -132.5090
1138.000000 91.774 -131.9807
1150.000000 91.854 -131.6168
1172.000000 91.994 -130.9018
1180.000000 92.044 -130.6424
1206.000000 92.204 -129.8491
1220.000000 92.299 -129.4605
1241.000000 92.443 -128.8903
1250.000000 92.505 -128.6451
1265.000000 92.608 -128.2255
1280.000000 92.705 -127.8017
1315.000000 92.926 -126.9106
1320.000000 92.958 -126.7939
1340.000000 93.077 -126.3177
1360.000000 93.177 -125.8239
1380.000000 93.272 -125.3324
1400.000000 93.378 -124.8586
1430.000000 93.547 -124.1128
1450.000000 93.656 -123.6292
1475.000000 93.795 -123.0498
1500.000000 93.936 -122.4605
1525.000000 94.073 -121.8631
1550.000000 94.205 -121.2608
1575.000000 94.333 -120.6686
1600.000000 94.467 -120.0625
1625.000000 94.601 -119.4487
1650.000000 94.735 -118.8525
1675.000000 94.870 -118.3038
1700.000000 95.011 -117.7613
1725.000000 95.153 -117.2167
1750.000000 95.296 -116.6894
1775.000000 95.443 -116.1945
1800.000000 95.590 -115.7136
1825.000000 95.737 -115.2451
1850.000000 95.886 -114.7966
1875.000000 96.035 -114.3819
1900.000000 96.186 -114.0002
1925.000000 96.339 -113.6428
1950.000000 96.494 -113.3278
1975.000000 96.650 -113.0389
2000.000000 96.804 -112.7639
2030.000000 96.988 -112.4767
2060.000000 97.172 -112.2475
2090.000000 97.358 -112.0753
2120.000000 97.546 -111.9560
2140.000000 97.672 -111.9055
2180.000000 97.924 -111.8682
2200.000000 98.046 -111.8809
2240.000000 98.282 -111.9860
2270.000000 98.452 -112.1339
2300.000000 98.620 -112.3335
2330.000000 98.784 -112.5810
2360.000000 98.944 -112.8788
2400.000000 99.144 -113.3544
2430.000000 99.284 -113.7620
2470.000000 99.456 -114.3649
2500.000000 99.576 -114.8539
2540.000000 99.717 -115.5385
2580.000000 99.839 -116.2637
2620.000000 99.949 -117.0234
2650.000000 100.024 -117.6083
2690.000000 100.110 -118.3919
2720.000000 100.161 -118.9695
2760.000000 100.210 -119.7023
2800.000000 100.241 -120.3695
2850.000000 100.264 -121.1211
2900.000000 100.282 -121.8143
2950.000000 100.300 -122.5345
3000.000000 100.303 -123.2622
3040.000000 100.284 -123.7987
3070.000000 100.259 -124.1572
3110.000000 100.217 -124.5636
3150.000000 100.169 -124.8984
3200.000000 100.106 -125.2306
3250.000000 100.037 -125.4651
3300.000000 99.963 -125.6090
3350.000000 99.884 -125.6638
3400.000000 99.806 -125.6270
3450.000000 99.736 -125.4958
3500.000000 99.679 -125.3022
3550.000000 99.629 -125.0779
3600.000000 99.581 -124.8238
3650.000000 99.534 -124.5289
3700.000000 99.490 -124.2030
3750.000000 99.450 -123.8611
3820.000000 99.400 -123.3350
3870.000000 99.367 -122.9105
3950.000000 99.320 -122.1853
4000.000000 99.296 -121.7202
4060.000000 99.275 -121.1619
4120.000000 99.266 -120.6161
4180.000000 99.269 -120.1022
4250.000000 99.284 -119.5788
4310.000000 99.293 -119.2202
4370.000000 99.289 -118.9250
4440.000000 99.277 -118.6301
4500.000000 99.268 -118.4182
4550.000000 99.264 -118.2776
4620.000000 99.263 -118.1513
4680.000000 99.260 -118.1205
4750.000000 99.247 -118.1823
4820.000000 99.223 -118.3421
4870.000000 99.199 -118.5039
4940.000000 99.156 -118.7773
5000.000000 99.109 -119.0522
5080.000000 99.029 -119.4728
5150.000000 98.940 -119.8786
5220.000000 98.832 -120.3073
5300.000000 98.684 -120.7888
5380.000000 98.511 -121.1979
5450.000000 98.341 -121.4750
5520.000000 98.157 -121.6687
5600.000000 97.934 -121.7480
5700.000000 97.640 -121.5946
5800.000000 97.341 -121.1624
5900.000000 97.048 -120.4712
6000.000000 96.765 -119.5129
6080.000000 96.553 -118.5740
6150.000000 96.383 -117.6415
6220.000000 96.228 -116.6077
6300.000000 96.072 -115.3206
6400.000000 95.908 -113.5941
6500.000000 95.783 -111.7632
6600.000000 95.701 -109.8535
6700.000000 95.669 -107.8841
6800.000000 95.692 -105.9085
6900.000000 95.791 -103.9767
7000.000000 95.968 -102.1478
7100.000000 96.209 -100.4973
7200.000000 96.507 -99.0954
7300.000000 96.863 -98.0581
7400.000000 97.268 -97.5266
7500.000000 97.710 -97.6324
7620.000000 98.272 -98.7749
7750.000000 98.849 -101.4594
7880.000000 99.221 -105.6922
8000.000000 99.316 -110.6912
8120.000000 99.133 -116.1456
8250.000000 98.612 -121.6886
8380.000000 97.807 -126.0126
8500.000000 96.897 -128.5296
8620.000000 95.899 -129.5880
8750.000000 94.784 -129.2397
8850.000000 93.938 -128.0742
9000.000000 92.729 -125.1666
9120.000000 91.832 -122.0432
9250.000000 90.935 -118.0429
9380.000000 90.116 -113.5655
9500.000000 89.425 -109.1038
9620.000000 88.800 -104.3906
9750.000000 88.198 -99.0610
9880.000000 87.672 -93.5823
10000.000000 87.248 -88.4465
10150.000000 86.796 -81.9799
10300.000000 86.421 -75.5300
10440.000000 86.141 -69.5981
10600.000000 85.902 -63.0116
10750.000000 85.756 -57.1186
10900.000000 85.675 -51.6531
11060.000000 85.635 -46.4695
11200.000000 85.601 -42.5554
11380.000000 85.481 -38.2122
11500.000000 85.316 -35.3821
11720.000000 84.873 -28.8880
11800.000000 84.721 -25.8176
12060.000000 84.657 -13.5856
12200.000000 85.053 -6.5897
12410.000000 86.260 2.6334
12500.000000 86.998 5.7362
12650.000000 88.504 9.1820
12800.000000 90.268 9.4808
13150.000000 93.660 -9.3246
13200.000000 93.849 -14.0970
13400.000000 93.629 -33.0680
13600.000000 92.263 -45.9887
13800.000000 90.490 -51.5195
14000.000000 88.834 -51.7565
14300.000000 86.976 -46.7334
14500.000000 86.123 -41.4918
14750.000000 85.396 -33.6865
15000.000000 84.982 -24.9791
15250.000000 84.883 -15.7468
15500.000000 85.156 -6.4713
15750.000000 85.829 2.1091
16000.000000 86.885 8.8499
16250.000000 88.225 11.7676
16500.000000 89.440 7.8929
16750.000000 89.788 -3.6432
17000.000000 88.700 -17.3577
17250.000000 86.264 -28.2797
17500.000000 83.130 -62.3354
17750.000000 80.102 125.9574
18000.000000 77.704 126.6736
18250.000000 75.304 107.3248
18500.000000 72.133 38.4150
18750.000000 68.746 -137.5565
19000.000000 65.175 28.3455
19250.000000 63.218 -9.3386
19500.000000 64.530 29.9409
19750.000000 66.521 -18.1226
20000.000000 68.045 -61.7607
20300.000000 69.400 26.0010
20600.000000 70.494 -27.1592
20900.000000 71.410 -19.0908
21200.000000 72.156 -2.6270
21400.000000 72.603 8.9780
21800.000000 73.600 24.9473
22000.000000 74.183 -0.3379
22400.000000 74.764 13.3862
22700.000000 73.396 -119.5078
23000.000000 70.354 113.8711
23300.000000 67.757 51.1875
23600.000000 66.874 -101.5195
24000.000000 66.883 -89.6523
