* Measurement data measured by REW V5.20.13
* Source: Headset (DS by VECLAN.COM), MICROPHONE (Master Volume), L, volume: 1.000
* Format: 2M Log Swept Sine, 1 sweep at -12.0 dBFS with no timing reference
* Dated: Apr 29, 2023 3:34:04 PM
* REW Settings:
*  C-weighting compensation: Off
*  Target level: 75.0 dB
* Note: ; 
* Measurement: Dioko L
* Smoothing: 1/24 octave
* Frequency Step: 1/48 octave
* Start Frequency: 1.000 Hz
*
* Freq(Hz) SPL(dB) Phase(degrees)
1.000000 69.081 -51.3229
1.015000 69.378 -51.9984
1.030000 69.672 -52.6314
1.044000 69.942 -53.1813
1.060000 70.245 -53.7585
1.075000 70.524 -54.2468
1.090000 70.796 -54.6813
1.106000 71.080 -55.0785
1.120000 71.327 -55.3500
1.138000 71.647 -55.5975
1.150000 71.860 -55.7041
1.172000 72.251 -55.7914
1.180000 72.394 -55.7917
1.206000 72.855 -55.6932
1.220000 73.102 -55.5860
1.241000 73.471 -55.3690
1.250000 73.628 -55.2593
1.265000 73.888 -55.0594
1.280000 74.146 -54.8440
1.315000 74.737 -54.3190
1.320000 74.820 -54.2450
1.340000 75.149 -53.9617
1.360000 75.471 -53.7103
1.380000 75.786 -53.5067
1.400000 76.092 -53.3666
1.430000 76.535 -53.3103
1.450000 76.818 -53.3984
1.475000 77.156 -53.6707
1.500000 77.479 -54.0746
1.525000 77.786 -54.5831
1.550000 78.081 -55.1815
1.575000 78.363 -55.8549
1.600000 78.634 -56.5886
1.625000 78.894 -57.3679
1.650000 79.146 -58.1780
1.675000 79.390 -59.0042
1.700000 79.628 -59.8316
1.725000 79.860 -60.6456
1.750000 80.088 -61.4314
1.775000 80.313 -62.1743
1.800000 80.535 -62.8594
1.825000 80.757 -63.4720
1.850000 80.976 -64.0105
1.875000 81.189 -64.5021
1.900000 81.395 -64.9544
1.925000 81.594 -65.3740
1.950000 81.788 -65.7675
1.975000 81.977 -66.1414
2.000000 82.161 -66.5023
2.030000 82.377 -66.9275
2.060000 82.588 -67.3546
2.090000 82.795 -67.7951
2.120000 82.998 -68.2602
2.140000 83.133 -68.5896
2.180000 83.401 -69.3098
2.200000 83.534 -69.7072
2.240000 83.797 -70.5592
2.270000 83.991 -71.2361
2.300000 84.181 -71.9399
2.330000 84.367 -72.6659
2.360000 84.550 -73.4093
2.400000 84.788 -74.4191
2.430000 84.963 -75.1842
2.470000 85.190 -76.2055
2.500000 85.356 -76.9661
2.540000 85.573 -77.9638
2.580000 85.783 -78.9363
2.620000 85.985 -79.9081
2.650000 86.133 -80.6396
2.690000 86.324 -81.6161
2.720000 86.463 -82.3477
2.760000 86.643 -83.3200
2.800000 86.817 -84.2859
2.850000 87.028 -85.4800
2.900000 87.232 -86.6540
2.950000 87.429 -87.8021
3.000000 87.616 -88.9216
3.040000 87.760 -89.8006
3.070000 87.865 -90.4525
3.110000 88.000 -91.3149
3.150000 88.130 -92.1727
3.200000 88.287 -93.2441
3.250000 88.438 -94.3211
3.300000 88.584 -95.4109
3.350000 88.723 -96.5258
3.400000 88.854 -97.6616
3.450000 88.979 -98.8044
3.500000 89.098 -99.9402
3.550000 89.211 -101.0549
3.600000 89.320 -102.1346
3.650000 89.425 -103.1653
3.700000 89.525 -104.1374
3.750000 89.620 -105.0598
3.820000 89.743 -106.2875
3.870000 89.826 -107.1329
3.950000 89.951 -108.4593
4.000000 90.026 -109.2878
4.060000 90.113 -110.2963
4.120000 90.194 -111.3131
4.180000 90.270 -112.3254
4.250000 90.353 -113.4850
4.310000 90.421 -114.4468
4.370000 90.487 -115.3664
4.440000 90.562 -116.3721
4.500000 90.622 -117.1802
4.550000 90.670 -117.8243
4.620000 90.734 -118.6943
4.680000 90.787 -119.4227
4.750000 90.847 -120.2683
4.820000 90.906 -121.1154
4.870000 90.946 -121.7131
4.940000 91.001 -122.5365
5.000000 91.047 -123.2272
5.080000 91.105 -124.1220
5.150000 91.155 -124.8764
5.220000 91.203 -125.6025
5.300000 91.256 -126.4027
5.380000 91.307 -127.1772
5.450000 91.350 -127.8392
5.520000 91.392 -128.4903
5.600000 91.438 -129.2182
5.700000 91.492 -130.1004
5.800000 91.545 -130.9501
5.900000 91.596 -131.7656
6.000000 91.646 -132.5465
6.080000 91.684 -133.1476
6.150000 91.719 -133.6571
6.220000 91.754 -134.1519
6.300000 91.795 -134.6944
6.400000 91.847 -135.3376
6.500000 91.901 -135.9603
6.600000 91.960 -136.5821
6.700000 92.022 -137.1954
6.800000 92.088 -137.7993
6.900000 92.157 -138.4127
7.000000 92.229 -139.0503
7.100000 92.306 -139.6973
7.200000 92.385 -140.3640
7.300000 92.463 -141.0686
7.400000 92.541 -141.8221
7.500000 92.620 -142.6155
7.620000 92.712 -143.6159
7.750000 92.801 -144.7579
7.880000 92.883 -145.9698
8.000000 92.948 -147.1252
8.120000 93.001 -148.2962
8.250000 93.045 -149.6026
8.380000 93.074 -150.9038
8.500000 93.088 -152.0692
8.620000 93.088 -153.2200
8.750000 93.077 -154.4141
8.850000 93.061 -155.2744
9.000000 93.025 -156.4897
9.120000 92.991 -157.3846
9.250000 92.952 -158.2619
9.380000 92.911 -159.0491
9.500000 92.873 -159.7114
9.620000 92.837 -160.3132
9.750000 92.799 -160.8939
9.880000 92.760 -161.4342
10.000000 92.724 -161.9061
10.150000 92.677 -162.4528
10.300000 92.631 -162.9818
10.440000 92.587 -163.4576
10.600000 92.538 -163.9898
10.750000 92.496 -164.4881
10.900000 92.457 -164.9824
11.060000 92.419 -165.5106
11.200000 92.388 -165.9744
11.380000 92.349 -166.5627
11.500000 92.323 -166.9477
11.720000 92.277 -167.6416
11.800000 92.260 -167.8902
12.060000 92.210 -168.6840
12.200000 92.183 -169.1049
12.410000 92.143 -169.7195
12.500000 92.124 -169.9662
12.650000 92.091 -170.3602
12.800000 92.058 -170.7209
13.150000 91.985 -171.3994
13.200000 91.978 -171.4837
13.400000 91.955 -171.7748
13.600000 91.948 -172.0742
13.800000 91.960 -172.3996
14.000000 91.983 -172.8470
14.300000 92.029 -173.7889
14.500000 92.048 -174.6461
14.750000 92.040 -175.8925
15.000000 91.987 -177.2708
15.250000 91.879 -178.5913
15.500000 91.728 -179.6737
15.750000 91.548 179.5772
16.000000 91.366 179.2553
16.250000 91.217 179.2441
16.500000 91.114 179.4321
16.750000 91.069 179.6272
17.000000 91.064 179.6510
17.250000 91.084 179.4667
17.500000 91.107 179.0495
17.750000 91.118 178.5080
18.000000 91.120 177.8996
18.250000 91.114 177.2887
18.500000 91.114 176.6706
18.750000 91.120 175.9926
19.000000 91.131 175.2058
19.250000 91.134 174.2484
19.500000 91.114 173.1670
19.750000 91.059 172.0089
20.000000 90.958 170.9361
20.299999 90.791 169.9632
20.600000 90.600 169.4858
20.900000 90.428 169.5472
21.200001 90.323 169.9964
21.400000 90.302 170.3207
21.799999 90.356 170.6743
22.000000 90.408 170.5625
22.400000 90.495 169.6685
22.700001 90.499 168.5990
23.000000 90.429 167.4961
23.299999 90.298 166.6519
23.600000 90.139 166.2296
24.000000 89.953 166.3360
24.299999 89.882 166.6641
24.700001 89.890 166.9012
25.000000 89.932 166.6207
25.400000 89.955 165.5795
25.799999 89.867 164.2458
26.200001 89.677 163.3501
26.500000 89.524 163.2297
26.900000 89.396 163.6602
27.200001 89.393 164.0163
27.600000 89.483 163.9319
28.000000 89.566 162.9474
28.500000 89.508 161.1471
29.000000 89.287 160.1721
29.500000 89.095 160.6096
30.000000 89.111 161.4851
30.400000 89.239 161.5630
30.700001 89.335 161.0763
31.100000 89.392 159.9549
31.500000 89.349 158.7664
32.000000 89.200 157.8023
32.500000 89.040 157.5493
33.000000 88.933 157.6331
33.500000 88.872 157.6750
34.000000 88.820 157.5832
34.500000 88.763 157.4885
35.000000 88.715 157.4662
35.500000 88.691 157.4022
36.000000 88.675 157.1347
36.500000 88.632 156.7061
37.000000 88.551 156.3794
37.500000 88.459 156.3291
38.200001 88.370 156.4655
38.700001 88.316 156.4608
39.500000 88.185 156.5364
40.000000 88.106 156.7614
40.599998 88.027 156.9366
41.200001 87.911 156.9815
41.799999 87.762 157.4055
42.500000 87.699 158.3584
43.099998 87.780 158.4437
43.700001 87.819 157.3355
44.400002 87.660 155.6790
45.000000 87.423 155.1256
45.500000 87.275 155.2916
46.200001 87.217 155.6203
46.799999 87.242 155.4083
47.500000 87.249 154.6883
48.200001 87.200 153.9322
48.700001 87.140 153.5359
49.400002 87.036 153.2843
50.000000 86.954 153.4061
50.799999 86.907 153.7975
51.500000 86.912 153.8412
52.200001 86.885 153.5704
53.000000 86.815 153.3755
53.799999 86.772 153.2165
54.500000 86.732 152.7949
55.200001 86.646 152.3679
56.000000 86.537 152.2439
57.000000 86.459 152.2916
58.000000 86.409 152.2018
59.000000 86.354 151.9949
60.000000 86.265 151.7753
60.799999 86.183 151.8175
61.500000 86.132 151.9114
62.200001 86.085 151.9185
63.000000 86.011 151.9656
64.000000 85.931 152.3079
65.000000 85.898 152.5188
66.000000 85.826 152.3517
67.000000 85.684 152.3762
68.000000 85.552 152.6211
69.000000 85.441 152.8481
70.000000 85.393 152.9666
71.000000 85.365 152.4223
72.000000 85.260 151.9798
73.000000 85.198 152.1599
74.000000 85.209 152.5163
75.000000 85.294 152.9082
76.199997 85.406 152.5657
77.500000 85.322 151.9580
78.800003 85.151 152.0991
80.000000 85.009 152.4129
81.199997 84.885 152.6146
82.500000 84.769 152.6849
83.800003 84.657 152.6130
85.000000 84.540 152.7201
86.199997 84.453 153.1268
87.500000 84.418 153.5914
88.500000 84.416 153.7631
90.000000 84.397 153.5354
91.199997 84.302 153.2455
92.500000 84.167 153.4828
93.800003 84.098 153.9846
95.000000 84.065 154.1920
96.199997 84.010 154.3162
97.500000 83.950 154.5604
98.800003 83.908 154.8443
100.000000 83.887 155.0515
101.500000 83.862 155.1037
103.000000 83.804 155.0467
104.400002 83.739 155.0579
106.000000 83.678 155.1216
107.500000 83.640 155.2048
109.000000 83.603 155.4164
110.599998 83.560 155.9130
112.000000 83.525 156.4713
113.800003 83.452 156.8010
115.000000 83.349 156.8107
117.199997 83.148 156.9156
118.000000 83.103 156.9858
120.599998 83.126 157.2186
122.000000 83.165 157.1965
124.099998 83.142 157.4092
125.000000 83.100 157.6349
126.500000 83.025 158.1888
128.000000 82.995 158.6287
131.500000 82.935 158.6457
132.000000 82.919 158.7058
134.000000 82.879 159.0861
136.000000 82.844 159.1685
138.000000 82.787 159.1973
140.000000 82.757 159.5725
143.000000 82.750 160.6598
145.000000 82.602 161.4712
147.500000 82.395 162.8496
150.000000 82.396 162.9489
152.500000 82.415 162.2127
155.000000 82.422 162.1970
157.500000 82.416 162.5882
160.000000 82.413 162.8769
162.500000 82.401 163.0997
165.000000 82.330 163.4384
167.500000 82.199 163.9058
170.000000 82.089 164.1196
172.500000 82.046 164.1967
175.000000 82.033 164.4904
177.500000 82.038 164.9624
180.000000 81.994 165.1379
182.500000 81.958 165.6030
185.000000 82.015 165.9754
187.500000 82.027 166.2106
190.000000 82.036 166.4814
192.500000 82.052 166.3574
195.000000 82.019 165.9677
197.500000 81.916 165.9158
200.000000 81.858 166.4088
203.000000 81.890 167.4639
206.000000 82.031 168.9441
209.000000 82.162 168.9755
212.000000 82.012 167.9297
214.000000 81.844 167.8614
218.000000 81.724 169.1317
220.000000 81.745 169.7031
224.000000 81.802 170.3323
227.000000 81.872 170.4103
230.000000 81.873 170.1910
233.000000 81.773 169.9595
236.000000 81.676 169.9004
240.000000 81.692 170.2040
243.000000 81.752 170.7516
247.000000 81.743 171.7833
250.000000 81.689 172.3953
254.000000 81.627 172.8841
258.000000 81.693 173.1229
262.000000 81.762 173.0715
265.000000 81.699 173.2927
269.000000 81.599 173.6810
272.000000 81.592 173.7894
276.000000 81.584 174.0098
280.000000 81.554 174.1183
285.000000 81.528 174.4138
290.000000 81.534 174.9949
295.000000 81.541 175.5403
300.000000 81.534 175.9217
304.000000 81.531 176.2918
307.000000 81.532 176.4456
311.000000 81.517 176.4501
315.000000 81.505 176.6277
320.000000 81.500 177.0989
325.000000 81.485 177.4861
330.000000 81.443 177.8770
335.000000 81.439 178.3759
340.000000 81.447 178.7944
345.000000 81.434 179.1540
350.000000 81.434 179.4322
355.000000 81.456 179.7704
360.000000 81.470 -179.8465
365.000000 81.471 -179.5654
370.000000 81.473 -179.2977
375.000000 81.471 -178.9797
382.000000 81.493 -178.3999
387.000000 81.498 -177.7837
395.000000 81.446 -177.2829
400.000000 81.437 -177.0876
406.000000 81.455 -176.7058
412.000000 81.439 -176.4215
418.000000 81.410 -176.0803
425.000000 81.419 -175.5405
431.000000 81.427 -175.1795
437.000000 81.441 -174.9243
444.000000 81.468 -174.4451
450.000000 81.455 -174.0337
455.000000 81.445 -173.7718
462.000000 81.450 -173.3379
468.000000 81.458 -172.9127
475.000000 81.466 -172.4405
482.000000 81.490 -171.9643
487.000000 81.530 -171.7106
494.000000 81.559 -171.4710
500.000000 81.527 -171.1166
508.000000 81.505 -170.4270
515.000000 81.490 -170.2550
522.000000 81.460 -169.7256
530.000000 81.493 -169.0000
538.000000 81.525 -168.7100
545.000000 81.536 -168.4602
552.000000 81.551 -168.0353
560.000000 81.569 -167.5246
570.000000 81.596 -166.9064
580.000000 81.615 -166.3231
590.000000 81.630 -165.8601
600.000000 81.650 -165.3833
608.000000 81.681 -164.9543
615.000000 81.708 -164.5654
622.000000 81.727 -164.1719
630.000000 81.749 -163.7289
640.000000 81.777 -163.1798
650.000000 81.804 -162.6517
660.000000 81.830 -162.1269
670.000000 81.856 -161.5652
680.000000 81.886 -161.0669
690.000000 81.911 -160.5821
700.000000 81.941 -160.0140
710.000000 81.978 -159.4277
720.000000 82.022 -158.9356
730.000000 82.067 -158.4701
740.000000 82.105 -157.9372
750.000000 82.137 -157.3746
762.000000 82.177 -156.7326
775.000000 82.230 -156.0706
788.000000 82.294 -155.4009
800.000000 82.362 -154.7881
812.000000 82.431 -154.2346
825.000000 82.494 -153.6733
838.000000 82.546 -153.0452
850.000000 82.596 -152.4447
862.000000 82.658 -151.8901
875.000000 82.742 -151.3370
885.000000 82.810 -150.9160
900.000000 82.903 -150.2830
912.000000 82.964 -149.7777
925.000000 83.031 -149.2006
938.000000 83.105 -148.6309
950.000000 83.182 -148.1438
962.000000 83.266 -147.6719
975.000000 83.359 -147.1667
988.000000 83.459 -146.6876
1000.000000 83.558 -146.2966
1015.000000 83.684 -145.8676
1030.000000 83.808 -145.4591
1044.000000 83.922 -145.1227
1060.000000 84.058 -144.8373
1075.000000 84.196 -144.6927
1090.000000 84.344 -144.6716
1106.000000 84.503 -144.7901
1120.000000 84.619 -145.0197
1138.000000 84.735 -145.4939
1150.000000 84.779 -145.9155
1172.000000 84.777 -146.3868
1180.000000 84.763 -146.2997
1206.000000 84.772 -145.2205
1220.000000 84.833 -144.5552
1241.000000 84.983 -143.7695
1250.000000 85.057 -143.4910
1265.000000 85.183 -143.1051
1280.000000 85.312 -142.8303
1315.000000 85.615 -142.4702
1320.000000 85.656 -142.4292
1340.000000 85.806 -142.2863
1360.000000 85.933 -142.2314
1380.000000 86.054 -142.2234
1400.000000 86.188 -142.2141
1430.000000 86.408 -142.3033
1450.000000 86.558 -142.4090
1475.000000 86.740 -142.5925
1500.000000 86.916 -142.8345
1525.000000 87.087 -143.2105
1550.000000 87.251 -143.7616
1575.000000 87.396 -144.5654
1600.000000 87.494 -145.5898
1625.000000 87.504 -146.6000
1650.000000 87.434 -147.0637
1675.000000 87.373 -146.7587
1700.000000 87.403 -146.1134
1725.000000 87.512 -145.6239
1750.000000 87.641 -145.4418
1775.000000 87.756 -145.4959
1800.000000 87.859 -145.6688
1825.000000 87.956 -145.8253
1850.000000 88.059 -145.8969
1875.000000 88.178 -145.9947
1900.000000 88.307 -146.2092
1925.000000 88.427 -146.5173
1950.000000 88.528 -146.8909
1975.000000 88.615 -147.3004
2000.000000 88.698 -147.7285
2030.000000 88.803 -148.2235
2060.000000 88.915 -148.6622
2090.000000 89.042 -149.0846
2120.000000 89.182 -149.6308
2140.000000 89.275 -150.1656
2180.000000 89.430 -151.6149
2200.000000 89.486 -152.4278
2240.000000 89.560 -154.1147
2270.000000 89.584 -155.4651
2300.000000 89.571 -156.8557
2330.000000 89.506 -158.1624
2360.000000 89.393 -159.1948
2400.000000 89.221 -159.9966
2430.000000 89.104 -160.3120
2470.000000 88.969 -160.4268
2500.000000 88.901 -160.2620
2540.000000 88.872 -159.9113
2580.000000 88.897 -159.6684
2620.000000 88.963 -159.6219
2650.000000 89.040 -159.7273
2690.000000 89.169 -160.0329
2720.000000 89.280 -160.4096
2760.000000 89.453 -161.2286
2800.000000 89.665 -162.5398
2850.000000 90.002 -165.2464
2900.000000 90.361 -170.1460
2950.000000 90.451 -178.7432
3000.000000 89.667 170.3625
3040.000000 88.150 165.5062
3070.000000 86.716 166.5970
3110.000000 85.073 173.0071
3150.000000 84.241 -178.8759
3200.000000 84.133 -170.4930
3250.000000 84.452 -165.2660
3300.000000 84.808 -162.7791
3350.000000 84.994 -162.1374
3400.000000 84.927 -161.6793
3450.000000 84.780 -159.9126
3500.000000 84.776 -157.4910
3550.000000 84.908 -155.4797
3600.000000 85.111 -154.2086
3650.000000 85.321 -153.9068
3700.000000 85.407 -154.4929
3750.000000 85.282 -154.8468
3820.000000 85.058 -153.2118
3870.000000 85.055 -151.6172
3950.000000 85.160 -150.0888
4000.000000 85.210 -149.5572
4060.000000 85.247 -148.9962
4120.000000 85.272 -148.4937
4180.000000 85.279 -148.1521
4250.000000 85.238 -147.8910
4310.000000 85.143 -147.5222
4370.000000 85.011 -146.7261
4440.000000 84.904 -145.2085
4500.000000 84.901 -143.8164
4550.000000 84.945 -142.8739
4620.000000 85.028 -141.9909
4680.000000 85.090 -141.5842
4750.000000 85.140 -141.4705
4820.000000 85.149 -141.7589
4870.000000 85.104 -142.1387
4940.000000 84.932 -142.5203
5000.000000 84.701 -142.2644
5080.000000 84.407 -140.9051
5150.000000 84.257 -139.2727
5220.000000 84.196 -137.6900
5300.000000 84.177 -136.1060
5380.000000 84.178 -134.7567
5450.000000 84.185 -133.7378
5520.000000 84.204 -132.8419
5600.000000 84.250 -132.0166
5700.000000 84.335 -131.4970
5800.000000 84.438 -131.7187
5900.000000 84.503 -133.7097
6000.000000 84.147 -137.8470
6080.000000 83.282 -139.6833
6150.000000 82.267 -137.5531
6220.000000 81.439 -132.2525
6300.000000 81.064 -125.1593
6400.000000 81.179 -118.4926
6500.000000 81.257 -114.2264
6600.000000 81.197 -109.0443
6700.000000 81.417 -102.7005
6800.000000 81.959 -97.2622
6900.000000 82.610 -93.4610
7000.000000 83.214 -90.8132
7100.000000 83.768 -88.3935
7200.000000 84.387 -85.7828
7300.000000 85.132 -83.3821
7400.000000 85.986 -81.7309
7500.000000 86.920 -81.2394
7620.000000 88.087 -82.4781
7750.000000 89.277 -86.1366
7880.000000 90.177 -92.3041
8000.000000 90.623 -99.8402
8120.000000 90.626 -107.9956
8250.000000 90.130 -115.6159
8380.000000 89.321 -120.5339
8500.000000 88.532 -122.8276
8620.000000 87.805 -123.7947
8750.000000 87.076 -123.8939
8850.000000 86.550 -123.4273
9000.000000 85.844 -122.1207
9120.000000 85.350 -120.8204
9250.000000 84.865 -119.3296
9380.000000 84.407 -117.8289
9500.000000 83.975 -116.4430
9620.000000 83.494 -114.8593
9750.000000 82.906 -112.3822
9880.000000 82.324 -108.5382
10000.000000 81.930 -103.8804
10150.000000 81.742 -97.8276
10300.000000 81.759 -92.7093
10440.000000 81.805 -88.5730
10600.000000 81.900 -83.7974
10750.000000 82.107 -79.3013
10900.000000 82.423 -75.1088
11060.000000 82.868 -71.0600
11200.000000 83.360 -68.0004
11380.000000 84.116 -65.0562
11500.000000 84.678 -63.8991
11720.000000 85.776 -63.8807
11800.000000 86.167 -64.6525
12060.000000 87.199 -70.1393
12200.000000 87.515 -74.4728
12410.000000 87.649 -81.5944
12500.000000 87.588 -84.7608
12650.000000 87.316 -90.0911
12800.000000 86.816 -95.0770
13150.000000 84.934 -102.1095
13200.000000 84.621 -102.4418
13400.000000 83.372 -102.2500
13600.000000 82.236 -100.1329
13800.000000 81.283 -96.7306
14000.000000 80.507 -92.4841
14300.000000 79.661 -85.0558
14500.000000 79.338 -79.7134
14750.000000 79.200 -73.0777
15000.000000 79.365 -67.0072
15250.000000 79.869 -62.2076
15500.000000 80.691 -59.6097
15750.000000 81.647 -60.1815
16000.000000 82.443 -64.5003
16250.000000 82.801 -71.9346
16500.000000 82.570 -80.3625
16750.000000 81.815 -87.4343
17000.000000 80.779 -92.1086
17250.000000 79.751 -95.0446
17500.000000 78.867 -97.9459
17750.000000 77.983 -102.3622
18000.000000 76.802 -108.3716
18250.000000 75.089 -114.0619
18500.000000 72.804 -116.8002
18750.000000 70.085 -114.6743
19000.000000 67.190 -106.8798
19250.000000 64.517 -94.2053
19500.000000 62.519 -79.5409
19750.000000 61.260 -66.0383
20000.000000 60.291 -54.4192
20300.000000 59.115 -41.3652
20600.000000 57.994 -27.4503
20900.000000 57.134 -12.0159
21200.000000 56.743 4.3076
21400.000000 56.790 14.9545
21800.000000 57.538 33.6543
22000.000000 58.119 40.9548
22400.000000 59.202 50.6682
22700.000000 59.655 54.8829
23000.000000 59.725 58.3459
23300.000000 59.492 62.2633
23600.000000 59.104 66.6471
24000.000000 58.676 70.6163
