* Measurement data measured by REW V5.31
* Source: Headset (DS by VECLAN.COM), MICROPHONE (Master Volume), L, volume: 0.720. Timing signal peak level -12.2 dBFS, measurement signal peak level -12.1 dBFS
* Format: 2M Log Swept Sine, 1 sweep at -12.0 dBFS using an acoustic timing reference
* Dated: Apr 27, 2024 5:25:25 PM
* REW Settings:
*  C-weighting compensation: Off
*  Target level: 85.0 dB
* Note: ; Delay -0.1110 ms (-38 mm, -1.5 in) using estimated IR delay relative to Acoustic reference played from HEADPHONE R with no timing offset
* Measurement: DITA Project M R
* Smoothing: 1/24 octave
* Frequency Step: 1/48 octave
* Start Frequency: 1.000 Hz
*
* Freq(Hz), SPL(dB), Phase(degrees)
1.000000, 77.169, -43.2575
1.015000, 77.681, -43.6756
1.030000, 78.178, -44.1187
1.044000, 78.627, -44.5558
1.060000, 79.120, -45.0843
1.075000, 79.560, -45.6084
1.090000, 79.978, -46.1584
1.106000, 80.401, -46.7586
1.120000, 80.758, -47.2697
1.138000, 81.205, -47.8907
1.150000, 81.495, -48.2819
1.172000, 82.013, -48.9627
1.180000, 82.196, -49.2044
1.206000, 82.774, -49.9487
1.220000, 83.074, -50.3270
1.241000, 83.510, -50.8696
1.250000, 83.692, -51.0943
1.265000, 83.988, -51.4599
1.280000, 84.275, -51.8159
1.315000, 84.912, -52.6192
1.320000, 84.999, -52.7316
1.340000, 85.339, -53.1781
1.360000, 85.664, -53.6200
1.380000, 85.975, -54.0996
1.400000, 86.271, -54.5961
1.430000, 86.688, -55.3503
1.450000, 86.949, -55.8618
1.475000, 87.251, -56.5031
1.500000, 87.517, -57.1203
1.525000, 87.746, -57.7020
1.550000, 87.942, -58.2501
1.575000, 88.109, -58.7901
1.600000, 88.251, -59.3433
1.625000, 88.372, -59.8748
1.650000, 88.477, -60.3885
1.675000, 88.571, -60.8884
1.700000, 88.657, -61.3782
1.725000, 88.739, -61.8614
1.750000, 88.823, -62.3412
1.775000, 88.912, -62.8376
1.800000, 89.011, -63.3696
1.825000, 89.122, -63.9043
1.850000, 89.242, -64.4369
1.875000, 89.363, -64.9580
1.900000, 89.483, -65.4637
1.925000, 89.600, -65.9538
1.950000, 89.716, -66.4283
1.975000, 89.830, -66.9051
2.000000, 89.942, -67.4014
2.030000, 90.075, -67.9797
2.060000, 90.206, -68.5435
2.090000, 90.334, -69.0956
2.120000, 90.461, -69.6385
2.140000, 90.544, -69.9967
2.180000, 90.709, -70.7285
2.200000, 90.791, -71.1116
2.240000, 90.951, -71.8677
2.270000, 91.068, -72.4217
2.300000, 91.184, -72.9630
2.330000, 91.297, -73.4911
2.360000, 91.409, -74.0066
2.400000, 91.555, -74.7229
2.430000, 91.663, -75.2533
2.470000, 91.805, -75.9444
2.500000, 91.909, -76.4523
2.540000, 92.047, -77.1179
2.580000, 92.182, -77.7911
2.620000, 92.315, -78.4906
2.650000, 92.413, -79.0057
2.690000, 92.541, -79.6791
2.720000, 92.635, -80.1736
2.760000, 92.759, -80.8169
2.800000, 92.881, -81.4837
2.850000, 93.029, -82.3015
2.900000, 93.175, -83.0971
2.950000, 93.317, -83.8746
3.000000, 93.455, -84.6699
3.040000, 93.563, -85.3067
3.070000, 93.642, -85.7769
3.110000, 93.746, -86.3928
3.150000, 93.848, -86.9957
3.200000, 93.973, -87.7614
3.250000, 94.095, -88.5215
3.300000, 94.215, -89.2636
3.350000, 94.333, -89.9913
3.400000, 94.449, -90.7409
3.450000, 94.561, -91.4910
3.500000, 94.671, -92.2254
3.550000, 94.779, -92.9420
3.600000, 94.884, -93.6672
3.650000, 94.988, -94.3867
3.700000, 95.089, -95.0935
3.750000, 95.187, -95.7915
3.820000, 95.321, -96.7882
3.870000, 95.414, -97.4935
3.950000, 95.559, -98.5922
4.000000, 95.648, -99.2812
4.060000, 95.752, -100.1035
4.120000, 95.854, -100.9149
4.180000, 95.953, -101.7229
4.250000, 96.066, -102.6810
4.310000, 96.160, -103.4822
4.370000, 96.252, -104.2687
4.440000, 96.355, -105.2017
4.500000, 96.441, -105.9932
4.550000, 96.511, -106.6452
4.620000, 96.606, -107.5707
4.680000, 96.685, -108.3530
4.750000, 96.775, -109.2427
4.820000, 96.862, -110.1374
4.870000, 96.922, -110.7742
4.940000, 97.005, -111.6533
5.000000, 97.073, -112.4076
5.080000, 97.161, -113.4005
5.150000, 97.235, -114.2446
5.220000, 97.306, -115.0960
5.300000, 97.384, -116.0609
5.380000, 97.458, -117.0054
5.450000, 97.521, -117.8270
5.520000, 97.581, -118.6238
5.600000, 97.648, -119.5249
5.700000, 97.727, -120.6407
5.800000, 97.802, -121.7228
5.900000, 97.874, -122.7786
6.000000, 97.943, -123.8065
6.080000, 97.995, -124.6203
6.150000, 98.039, -125.3078
6.220000, 98.082, -125.9881
6.300000, 98.130, -126.7435
6.400000, 98.188, -127.6633
6.500000, 98.245, -128.5632
6.600000, 98.300, -129.4285
6.700000, 98.354, -130.2719
6.800000, 98.407, -131.0874
6.900000, 98.459, -131.8841
7.000000, 98.512, -132.6523
7.100000, 98.565, -133.4020
7.200000, 98.617, -134.1296
7.300000, 98.669, -134.8452
7.400000, 98.722, -135.5432
7.500000, 98.774, -136.2343
7.620000, 98.836, -137.0446
7.750000, 98.903, -137.9050
7.880000, 98.969, -138.7564
8.000000, 99.028, -139.5257
8.120000, 99.086, -140.2888
8.250000, 99.145, -141.1082
8.380000, 99.202, -141.9121
8.500000, 99.250, -142.6453
8.620000, 99.295, -143.3661
8.750000, 99.339, -144.1264
8.850000, 99.369, -144.6943
9.000000, 99.410, -145.5155
9.120000, 99.439, -146.1447
9.250000, 99.467, -146.7943
9.380000, 99.491, -147.4080
9.500000, 99.512, -147.9455
9.620000, 99.532, -148.4459
9.750000, 99.551, -148.9530
9.880000, 99.564, -149.4336
10.000000, 99.567, -149.8463
10.150000, 99.563, -150.3668
10.300000, 99.554, -150.8598
10.440000, 99.542, -151.3004
10.600000, 99.528, -151.7935
10.750000, 99.517, -152.2570
10.900000, 99.507, -152.7231
11.060000, 99.495, -153.2542
11.200000, 99.483, -153.7634
11.380000, 99.460, -154.4116
11.500000, 99.439, -154.8359
11.720000, 99.389, -155.5753
11.800000, 99.369, -155.8250
12.060000, 99.298, -156.5776
12.200000, 99.260, -156.9613
12.410000, 99.207, -157.4562
12.500000, 99.186, -157.6416
12.650000, 99.153, -157.9197
12.800000, 99.125, -158.1758
13.150000, 99.086, -158.8197
13.200000, 99.083, -158.9296
13.400000, 99.076, -159.4020
13.600000, 99.070, -159.9335
13.800000, 99.060, -160.5235
14.000000, 99.042, -161.1512
14.300000, 98.992, -162.1710
14.500000, 98.945, -162.7969
14.750000, 98.878, -163.4669
15.000000, 98.813, -163.9968
15.250000, 98.769, -164.4622
15.500000, 98.746, -164.8698
15.750000, 98.743, -165.2857
16.000000, 98.754, -165.7733
16.250000, 98.769, -166.4001
16.500000, 98.778, -167.1060
16.750000, 98.772, -167.8435
17.000000, 98.753, -168.5549
17.250000, 98.723, -169.2179
17.500000, 98.688, -169.7732
17.750000, 98.655, -170.2154
18.000000, 98.629, -170.5672
18.250000, 98.613, -170.8795
18.500000, 98.606, -171.1609
18.750000, 98.606, -171.4275
19.000000, 98.612, -171.6906
19.250000, 98.623, -171.9822
19.500000, 98.638, -172.2883
19.750000, 98.654, -172.6241
20.000000, 98.670, -173.0064
20.299999, 98.678, -173.5639
20.600000, 98.665, -174.1657
20.900000, 98.623, -174.7337
21.200001, 98.552, -175.1766
21.400000, 98.495, -175.3471
21.799999, 98.389, -175.3247
22.000000, 98.356, -175.1662
22.400000, 98.354, -174.8077
22.700001, 98.405, -174.7032
23.000000, 98.480, -174.9011
23.299999, 98.548, -175.4509
23.600000, 98.583, -176.2555
24.000000, 98.558, -177.4592
24.299999, 98.492, -178.2748
24.700001, 98.374, -179.0288
25.000000, 98.293, -179.3354
25.400000, 98.224, -179.5762
25.799999, 98.202, -179.8404
26.200001, 98.199, 179.7111
26.500000, 98.193, 179.2775
26.900000, 98.170, 178.7106
27.200001, 98.153, 178.3599
27.600000, 98.153, 177.9758
28.000000, 98.194, 177.5072
28.500000, 98.268, 176.4542
29.000000, 98.272, 174.9216
29.500000, 98.146, 173.5091
30.000000, 97.945, 172.9515
30.400000, 97.825, 173.1911
30.700001, 97.795, 173.5564
31.100000, 97.831, 173.9014
31.500000, 97.900, 173.8249
32.000000, 97.945, 173.2912
32.500000, 97.922, 172.7548
33.000000, 97.885, 172.5145
33.500000, 97.882, 172.3594
34.000000, 97.896, 172.0146
34.500000, 97.883, 171.4837
35.000000, 97.833, 170.9883
35.500000, 97.770, 170.6255
36.000000, 97.710, 170.3326
36.500000, 97.644, 170.0478
37.000000, 97.565, 169.8480
37.500000, 97.487, 169.8286
38.200001, 97.434, 170.0156
38.700001, 97.447, 170.0239
39.500000, 97.484, 169.4622
40.000000, 97.473, 168.9130
40.599998, 97.434, 168.3475
41.200001, 97.406, 167.8896
41.799999, 97.388, 167.3151
42.500000, 97.321, 166.5995
43.099998, 97.242, 166.3256
43.700001, 97.209, 166.2831
44.400002, 97.213, 165.9694
45.000000, 97.170, 165.5441
45.500000, 97.104, 165.4189
46.200001, 97.052, 165.6412
46.799999, 97.060, 165.7549
47.500000, 97.065, 165.6330
48.200001, 97.061, 165.5021
48.700001, 97.074, 165.3013
49.400002, 97.077, 164.6429
50.000000, 97.017, 163.9420
50.799999, 96.885, 163.3869
51.500000, 96.800, 163.1870
52.200001, 96.750, 162.9438
53.000000, 96.711, 162.5826
53.799999, 96.689, 162.1523
54.500000, 96.668, 161.7746
55.200001, 96.645, 161.5657
56.000000, 96.654, 161.5347
57.000000, 96.713, 161.2299
58.000000, 96.679, 160.4964
59.000000, 96.523, 160.3425
60.000000, 96.397, 160.8053
60.799999, 96.334, 161.0925
61.500000, 96.289, 161.1517
62.200001, 96.239, 161.0286
63.000000, 96.167, 160.8371
64.000000, 96.107, 160.7195
65.000000, 96.092, 160.3520
66.000000, 96.052, 159.8729
67.000000, 96.001, 159.6461
68.000000, 95.969, 159.4985
69.000000, 95.921, 159.1115
70.000000, 95.806, 158.7315
71.000000, 95.693, 158.7023
72.000000, 95.646, 158.4901
73.000000, 95.578, 157.7989
74.000000, 95.450, 157.4897
75.000000, 95.395, 157.8790
76.199997, 95.440, 158.1206
77.500000, 95.458, 158.0479
78.800003, 95.413, 157.9932
80.000000, 95.331, 157.8641
81.199997, 95.194, 157.6758
82.500000, 95.070, 157.7599
83.800003, 95.023, 157.5422
85.000000, 94.990, 157.2389
86.199997, 94.978, 157.0698
87.500000, 94.967, 157.0397
88.500000, 94.961, 157.1346
90.000000, 94.932, 157.1349
91.199997, 94.869, 157.0242
92.500000, 94.771, 156.8903
93.800003, 94.674, 156.8279
95.000000, 94.611, 156.7686
96.199997, 94.561, 156.6145
97.500000, 94.508, 156.5085
98.800003, 94.457, 156.4709
100.000000, 94.414, 156.5799
101.500000, 94.387, 156.5688
103.000000, 94.315, 156.3844
104.400002, 94.234, 156.4292
106.000000, 94.157, 156.5280
107.500000, 94.074, 156.6266
109.000000, 94.009, 156.8501
110.599998, 93.959, 156.8536
112.000000, 93.910, 156.7802
113.800003, 93.861, 156.7332
115.000000, 93.842, 156.7362
117.199997, 93.818, 156.7660
118.000000, 93.802, 156.8088
120.599998, 93.720, 156.8977
122.000000, 93.640, 156.9839
124.099998, 93.523, 157.1260
125.000000, 93.478, 157.1796
126.500000, 93.419, 157.2588
128.000000, 93.376, 157.3450
131.500000, 93.299, 157.3669
132.000000, 93.279, 157.3728
134.000000, 93.194, 157.5530
136.000000, 93.137, 157.7847
138.000000, 93.095, 157.8310
140.000000, 93.048, 157.8965
143.000000, 92.988, 158.1318
145.000000, 92.951, 158.3493
147.500000, 92.907, 158.5754
150.000000, 92.840, 158.7458
152.500000, 92.771, 158.9185
155.000000, 92.721, 158.9360
157.500000, 92.678, 158.8273
160.000000, 92.622, 158.9333
162.500000, 92.569, 159.1490
165.000000, 92.513, 159.3544
167.500000, 92.458, 159.5426
170.000000, 92.395, 159.7717
172.500000, 92.333, 160.0253
175.000000, 92.276, 160.1485
177.500000, 92.224, 160.2270
180.000000, 92.187, 160.3893
182.500000, 92.150, 160.5586
185.000000, 92.094, 160.8110
187.500000, 92.039, 161.0524
190.000000, 91.990, 161.1222
192.500000, 91.937, 161.3092
195.000000, 91.904, 161.6791
197.500000, 91.890, 161.8471
200.000000, 91.871, 161.8179
203.000000, 91.810, 161.9319
206.000000, 91.690, 162.1364
209.000000, 91.597, 162.0863
212.000000, 91.550, 162.0742
214.000000, 91.534, 162.3259
218.000000, 91.600, 162.5923
220.000000, 91.665, 162.9766
224.000000, 91.630, 164.8170
227.000000, 91.429, 165.1766
230.000000, 91.302, 164.6122
233.000000, 91.286, 164.4461
236.000000, 91.283, 165.3299
240.000000, 91.355, 165.3696
243.000000, 91.330, 165.5282
247.000000, 91.257, 166.2781
250.000000, 91.234, 166.3300
254.000000, 91.224, 166.3781
258.000000, 91.180, 166.3820
262.000000, 91.122, 166.6627
265.000000, 91.089, 166.9650
269.000000, 91.077, 167.3799
272.000000, 91.073, 167.6585
276.000000, 91.028, 168.0771
280.000000, 90.981, 168.5143
285.000000, 90.935, 168.6824
290.000000, 90.913, 169.0098
295.000000, 90.896, 169.5258
300.000000, 90.853, 169.9019
304.000000, 90.812, 170.1632
307.000000, 90.788, 170.3313
311.000000, 90.766, 170.5473
315.000000, 90.748, 170.7845
320.000000, 90.726, 171.1618
325.000000, 90.698, 171.5321
330.000000, 90.675, 171.8967
335.000000, 90.647, 172.2665
340.000000, 90.621, 172.6019
345.000000, 90.600, 172.9492
350.000000, 90.576, 173.4363
355.000000, 90.552, 173.8182
360.000000, 90.525, 174.0146
365.000000, 90.496, 174.3154
370.000000, 90.469, 174.7231
375.000000, 90.442, 175.0893
382.000000, 90.428, 175.5689
387.000000, 90.397, 175.8735
395.000000, 90.356, 176.1174
400.000000, 90.368, 176.4742
406.000000, 90.342, 176.9842
412.000000, 90.312, 177.3874
418.000000, 90.293, 177.8482
425.000000, 90.271, 178.3842
431.000000, 90.244, 178.7375
437.000000, 90.222, 179.0696
444.000000, 90.194, 179.5131
450.000000, 90.173, 179.9319
455.000000, 90.161, -179.7206
462.000000, 90.144, -179.2908
468.000000, 90.131, -178.8900
475.000000, 90.116, -178.4911
482.000000, 90.098, -178.0701
487.000000, 90.086, -177.7184
494.000000, 90.068, -177.3359
500.000000, 90.046, -177.0711
508.000000, 90.026, -176.6259
515.000000, 90.035, -176.1231
522.000000, 90.044, -175.6237
530.000000, 90.025, -175.0880
538.000000, 90.011, -174.5878
545.000000, 90.008, -174.2390
552.000000, 89.987, -173.9199
560.000000, 89.955, -173.4673
570.000000, 89.951, -172.9314
580.000000, 89.948, -172.3150
590.000000, 89.936, -171.5200
600.000000, 89.938, -170.8527
608.000000, 89.929, -170.3330
615.000000, 89.919, -169.9168
622.000000, 89.914, -169.4975
630.000000, 89.909, -169.0219
640.000000, 89.904, -168.4203
650.000000, 89.886, -167.7627
660.000000, 89.867, -167.1213
670.000000, 89.860, -166.5064
680.000000, 89.863, -165.8752
690.000000, 89.882, -165.2444
700.000000, 89.896, -164.6394
710.000000, 89.895, -163.9454
720.000000, 89.883, -163.2676
730.000000, 89.877, -162.6439
740.000000, 89.881, -162.0473
750.000000, 89.891, -161.4504
762.000000, 89.915, -160.7159
775.000000, 89.937, -159.8366
788.000000, 89.958, -158.9597
800.000000, 89.987, -158.2613
812.000000, 90.018, -157.5491
825.000000, 90.053, -156.8432
838.000000, 90.098, -156.0641
850.000000, 90.124, -155.2702
862.000000, 90.158, -154.5930
875.000000, 90.199, -153.8736
885.000000, 90.231, -153.2978
900.000000, 90.280, -152.4361
912.000000, 90.318, -151.7623
925.000000, 90.372, -151.0508
938.000000, 90.436, -150.3986
950.000000, 90.498, -149.8458
962.000000, 90.554, -149.2842
975.000000, 90.605, -148.6455
988.000000, 90.654, -148.0682
1000.000000, 90.708, -147.5794
1015.000000, 90.783, -146.9810
1030.000000, 90.857, -146.4303
1044.000000, 90.921, -145.9330
1060.000000, 90.991, -145.3569
1075.000000, 91.058, -144.9025
1090.000000, 91.133, -144.4962
1106.000000, 91.219, -144.0363
1120.000000, 91.296, -143.6852
1138.000000, 91.393, -143.2978
1150.000000, 91.457, -143.0338
1172.000000, 91.571, -142.5750
1180.000000, 91.608, -142.4372
1206.000000, 91.724, -141.9252
1220.000000, 91.789, -141.6626
1241.000000, 91.886, -141.3174
1250.000000, 91.925, -141.1524
1265.000000, 91.987, -140.8838
1280.000000, 92.051, -140.6272
1315.000000, 92.193, -140.0038
1320.000000, 92.212, -139.9045
1340.000000, 92.283, -139.5563
1360.000000, 92.332, -139.2288
1380.000000, 92.390, -138.8835
1400.000000, 92.467, -138.5020
1430.000000, 92.586, -137.9701
1450.000000, 92.662, -137.6625
1475.000000, 92.760, -137.3411
1500.000000, 92.855, -137.1071
1525.000000, 92.941, -136.9190
1550.000000, 93.006, -136.7618
1575.000000, 93.055, -136.5504
1600.000000, 93.102, -136.3869
1625.000000, 93.143, -136.1639
1650.000000, 93.175, -135.8741
1675.000000, 93.206, -135.5797
1700.000000, 93.235, -135.2223
1725.000000, 93.263, -134.8345
1750.000000, 93.295, -134.4110
1775.000000, 93.328, -133.9929
1800.000000, 93.360, -133.5070
1825.000000, 93.398, -133.0250
1850.000000, 93.443, -132.5506
1875.000000, 93.492, -132.0447
1900.000000, 93.547, -131.5459
1925.000000, 93.604, -131.0542
1950.000000, 93.662, -130.5323
1975.000000, 93.726, -130.0348
2000.000000, 93.799, -129.5649
2030.000000, 93.893, -129.0065
2060.000000, 93.993, -128.4655
2090.000000, 94.099, -127.9538
2120.000000, 94.209, -127.4747
2140.000000, 94.288, -127.1894
2180.000000, 94.463, -126.6542
2200.000000, 94.556, -126.4392
2240.000000, 94.743, -126.0570
2270.000000, 94.892, -125.8374
2300.000000, 95.051, -125.7433
2330.000000, 95.215, -125.7120
2360.000000, 95.386, -125.7789
2400.000000, 95.619, -126.1000
2430.000000, 95.788, -126.4276
2470.000000, 96.014, -127.0854
2500.000000, 96.182, -127.7447
2540.000000, 96.401, -128.8370
2580.000000, 96.606, -130.1944
2620.000000, 96.787, -131.8175
2650.000000, 96.899, -133.1930
2690.000000, 97.020, -135.1911
2720.000000, 97.088, -136.8773
2760.000000, 97.129, -139.2287
2800.000000, 97.108, -141.6657
2850.000000, 97.001, -144.7766
2900.000000, 96.797, -147.7537
2950.000000, 96.512, -150.4914
3000.000000, 96.160, -152.8715
3040.000000, 95.833, -154.4223
3070.000000, 95.574, -155.3941
3110.000000, 95.219, -156.4328
3150.000000, 94.860, -157.1628
3200.000000, 94.416, -157.7708
3250.000000, 93.977, -158.0423
3300.000000, 93.534, -157.9229
3350.000000, 93.105, -157.5246
3400.000000, 92.698, -156.8183
3450.000000, 92.314, -155.8222
3500.000000, 91.960, -154.5629
3550.000000, 91.639, -153.0605
3600.000000, 91.353, -151.3937
3650.000000, 91.101, -149.5273
3700.000000, 90.890, -147.5168
3750.000000, 90.716, -145.3590
3820.000000, 90.541, -142.1814
3870.000000, 90.469, -139.8367
3950.000000, 90.456, -136.0224
4000.000000, 90.513, -133.6144
4060.000000, 90.656, -130.8273
4120.000000, 90.880, -128.1840
4180.000000, 91.186, -125.8141
4250.000000, 91.640, -123.5889
4310.000000, 92.090, -122.2231
4370.000000, 92.585, -121.5407
4440.000000, 93.197, -121.7199
4500.000000, 93.709, -122.8595
4550.000000, 94.100, -124.4846
4620.000000, 94.544, -127.7860
4680.000000, 94.776, -131.2851
4750.000000, 94.828, -135.7109
4820.000000, 94.654, -139.9822
4870.000000, 94.402, -142.6457
4940.000000, 93.917, -145.5410
5000.000000, 93.429, -147.2013
5080.000000, 92.729, -148.1666
5150.000000, 92.121, -148.0066
5220.000000, 91.551, -147.0318
5300.000000, 90.961, -145.1566
5380.000000, 90.445, -142.5501
5450.000000, 90.064, -139.8812
5520.000000, 89.752, -136.9452
5600.000000, 89.467, -133.2946
5700.000000, 89.214, -128.4491
5800.000000, 89.061, -123.3936
5900.000000, 88.990, -118.1784
6000.000000, 89.005, -112.9283
6080.000000, 89.076, -108.6564
6150.000000, 89.175, -104.8948
6220.000000, 89.309, -101.1696
6300.000000, 89.503, -96.8957
6400.000000, 89.804, -91.6218
6500.000000, 90.176, -86.4264
6600.000000, 90.611, -81.3339
6700.000000, 91.107, -76.3962
6800.000000, 91.680, -71.6451
6900.000000, 92.345, -67.1233
7000.000000, 93.095, -62.8788
7100.000000, 93.929, -59.0254
7200.000000, 94.843, -55.7138
7300.000000, 95.829, -53.0188
7400.000000, 96.886, -51.2396
7500.000000, 97.993, -50.6031
7620.000000, 99.333, -51.7947
7750.000000, 100.630, -55.7455
7880.000000, 101.467, -62.0571
8000.000000, 101.719, -68.7001
8120.000000, 101.510, -74.5837
8250.000000, 100.926, -78.8422
8380.000000, 100.184, -80.5032
8500.000000, 99.517, -80.1858
8620.000000, 98.924, -78.6012
8750.000000, 98.368, -76.1177
8850.000000, 97.999, -73.8590
9000.000000, 97.514, -70.1765
9120.000000, 97.155, -67.0050
9250.000000, 96.787, -63.3967
9380.000000, 96.439, -59.5427
9500.000000, 96.132, -55.8052
9620.000000, 95.847, -51.8228
9750.000000, 95.572, -47.2874
9880.000000, 95.325, -42.5943
10000.000000, 95.126, -38.0856
10150.000000, 94.919, -32.3527
10300.000000, 94.750, -26.5255
10440.000000, 94.626, -20.9995
10600.000000, 94.528, -14.7164
10750.000000, 94.470, -8.8552
10900.000000, 94.441, -3.1670
11060.000000, 94.436, 2.6832
11200.000000, 94.421, 7.7396
11380.000000, 94.409, 14.3765
11500.000000, 94.440, 18.7426
11720.000000, 94.529, 26.2129
11800.000000, 94.554, 28.8364
12060.000000, 94.612, 37.0555
12200.000000, 94.625, 41.3851
12410.000000, 94.602, 47.7720
12500.000000, 94.584, 50.4845
12650.000000, 94.546, 55.0521
12800.000000, 94.500, 59.6889
13150.000000, 94.418, 71.0225
13200.000000, 94.418, 72.7137
13400.000000, 94.470, 79.5429
13600.000000, 94.651, 86.4287
13800.000000, 95.040, 92.9348
