* Measurement data measured by REW V5.20.13
* Source: Headset (DS by VECLAN.COM), MICROPHONE (Master Volume), L, volume: 0.710. Timing signal peak level -15.8 dBFS, measurement signal peak level -13.0 dBFS
* Format: 2M Log Swept Sine, 1 sweep at -12.0 dBFS using an acoustic timing reference
* Dated: Nov 11, 2023 3:31:28 PM
* REW Settings:
*  C-weighting compensation: Off
*  Target level: 75.0 dB
* Note: ; Delay -0.0635 ms (-22 mm, -0.86 in) using estimated IR delay relative to Acoustic reference played from HEADPHONE L with no timing offset
* Measurement: DUNU Titan S CP145 L
* Smoothing: 1/24 octave
* Frequency Step: 1/48 octave
* Start Frequency: 1.000 Hz
*
* Freq(Hz) SPL(dB) Phase(degrees)
1.000000 68.162 -110.3836
1.015000 68.225 -108.1264
1.030000 68.295 -105.9340
1.044000 68.364 -103.9543
1.060000 68.450 -101.7802
1.075000 68.537 -99.8369
1.090000 68.629 -97.9948
1.106000 68.736 -96.1441
1.120000 68.841 -94.5837
1.138000 68.992 -92.6445
1.150000 69.102 -91.3923
1.172000 69.322 -89.1777
1.180000 69.407 -88.3976
1.206000 69.699 -85.9514
1.220000 69.865 -84.6885
1.241000 70.123 -82.8616
1.250000 70.236 -82.1026
1.265000 70.426 -80.8680
1.280000 70.619 -79.6701
1.315000 71.070 -77.0090
1.320000 71.135 -76.6432
1.340000 71.388 -75.2138
1.360000 71.636 -73.8353
1.380000 71.874 -72.5039
1.400000 72.101 -71.2156
1.430000 72.414 -69.3558
1.450000 72.601 -68.1586
1.475000 72.805 -66.7086
1.500000 72.990 -65.3487
1.525000 73.159 -64.0846
1.550000 73.314 -62.9113
1.575000 73.457 -61.8240
1.600000 73.588 -60.8178
1.625000 73.710 -59.8877
1.650000 73.823 -59.0287
1.675000 73.931 -58.2361
1.700000 74.033 -57.5048
1.725000 74.131 -56.8299
1.750000 74.228 -56.2065
1.775000 74.324 -55.6298
1.800000 74.421 -55.0947
1.825000 74.520 -54.5964
1.850000 74.620 -54.4723
1.875000 74.716 -54.4378
1.900000 74.807 -54.3804
1.925000 74.894 -54.3041
1.950000 74.977 -54.2132
1.975000 75.058 -54.1117
2.000000 75.135 -54.0038
2.030000 75.226 -53.8715
2.060000 75.314 -53.7430
2.090000 75.402 -53.6255
2.120000 75.488 -53.5258
2.140000 75.547 -53.4729
2.180000 75.665 -53.4090
2.200000 75.725 -53.3999
2.240000 75.846 -53.3838
2.270000 75.936 -53.3896
2.300000 76.025 -53.4087
2.330000 76.113 -53.4394
2.360000 76.201 -53.4799
2.400000 76.317 -53.5460
2.430000 76.402 -53.6025
2.470000 76.515 -53.6835
2.500000 76.599 -53.7464
2.540000 76.709 -53.8295
2.580000 76.817 -53.9099
2.620000 76.922 -54.0001
2.650000 76.999 -54.0749
2.690000 77.098 -54.1816
2.720000 77.172 -54.2654
2.760000 77.270 -54.3798
2.800000 77.369 -54.4944
2.850000 77.494 -54.6335
2.900000 77.623 -54.7628
2.950000 77.758 -54.8777
3.000000 77.894 -54.9846
3.040000 78.004 -55.0663
3.070000 78.088 -55.1253
3.110000 78.201 -55.2014
3.150000 78.316 -55.2745
3.200000 78.464 -55.3621
3.250000 78.617 -55.4456
3.300000 78.777 -55.5255
3.350000 78.942 -55.5838
3.400000 79.112 -55.6179
3.450000 79.287 -55.6424
3.500000 79.467 -55.6723
3.550000 79.651 -55.7224
3.600000 79.839 -55.8075
3.650000 80.030 -55.9423
3.700000 80.225 -56.1302
3.750000 80.426 -56.3509
3.820000 80.716 -56.7137
3.870000 80.926 -57.0113
3.950000 81.265 -57.5545
4.000000 81.476 -57.9360
4.060000 81.728 -58.4360
4.120000 81.982 -58.9797
4.180000 82.239 -59.5688
4.250000 82.536 -60.3163
4.310000 82.787 -61.0111
4.370000 83.032 -61.7583
4.440000 83.307 -62.7056
4.500000 83.540 -63.5935
4.550000 83.730 -64.3762
4.620000 83.989 -65.5193
4.680000 84.203 -66.5257
4.750000 84.441 -67.7090
4.820000 84.666 -68.9074
4.870000 84.820 -69.7911
4.940000 85.026 -71.0520
5.000000 85.193 -72.1404
5.080000 85.401 -73.5789
5.150000 85.570 -74.8075
5.220000 85.724 -76.0425
5.300000 85.884 -77.4521
5.380000 86.029 -78.8241
5.450000 86.146 -79.9645
5.520000 86.254 -81.0280
5.600000 86.360 -82.1868
5.700000 86.474 -83.5393
5.800000 86.577 -84.7444
5.900000 86.677 -85.7612
6.000000 86.764 -86.5927
6.080000 86.829 -87.1422
6.150000 86.890 -87.5491
6.220000 86.960 -87.8957
6.300000 87.049 -88.1925
6.400000 87.166 -88.4071
6.500000 87.299 -88.5384
6.600000 87.455 -88.6829
6.700000 87.639 -88.7970
6.800000 87.845 -88.8809
6.900000 88.064 -89.0408
7.000000 88.292 -89.3672
7.100000 88.539 -89.8093
7.200000 88.794 -90.3715
7.300000 89.041 -91.0834
7.400000 89.273 -91.9757
7.500000 89.501 -93.0402
7.620000 89.754 -94.4770
7.750000 89.979 -96.1664
7.880000 90.163 -98.0622
8.000000 90.291 -99.8578
8.120000 90.369 -101.5811
8.250000 90.399 -103.4680
8.380000 90.379 -105.1759
8.500000 90.318 -106.4531
8.620000 90.209 -107.5320
8.750000 90.068 -108.3122
8.850000 89.955 -108.5277
9.000000 89.755 -108.2889
9.120000 89.623 -107.6870
9.250000 89.545 -106.5930
9.380000 89.515 -105.0226
9.500000 89.554 -103.5112
9.620000 89.683 -102.0622
9.750000 89.907 -100.4487
9.880000 90.176 -99.1824
10.000000 90.458 -98.4791
10.150000 90.856 -98.0770
10.300000 91.223 -98.2806
10.440000 91.542 -99.0904
10.600000 91.857 -100.4815
10.750000 92.080 -102.1111
10.900000 92.240 -104.0414
11.060000 92.334 -106.0780
11.200000 92.350 -107.9035
11.380000 92.301 -109.9875
11.500000 92.221 -111.1618
11.720000 92.018 -112.7933
11.800000 91.936 -113.1522
12.060000 91.656 -113.5843
12.200000 91.543 -113.3904
12.410000 91.426 -112.6407
12.500000 91.408 -112.2921
12.650000 91.423 -111.5950
12.800000 91.479 -110.9551
13.150000 91.745 -110.1641
13.200000 91.788 -110.1398
13.400000 91.975 -110.3032
13.600000 92.157 -110.7488
13.800000 92.322 -111.4489
14.000000 92.471 -112.2717
14.300000 92.664 -113.6831
14.500000 92.782 -114.7008
14.750000 92.918 -116.1137
15.000000 93.039 -117.7020
15.250000 93.129 -119.5017
15.500000 93.166 -121.3893
15.750000 93.143 -123.2455
16.000000 93.051 -124.8292
16.250000 92.921 -125.8946
16.500000 92.782 -126.3624
16.750000 92.683 -126.1584
17.000000 92.684 -125.5762
17.250000 92.792 -124.8800
17.500000 93.014 -124.4288
17.750000 93.291 -124.5560
18.000000 93.583 -125.2823
18.250000 93.846 -126.6165
18.500000 94.041 -128.2955
18.750000 94.168 -130.1105
19.000000 94.224 -131.8646
19.250000 94.231 -133.3319
19.500000 94.212 -134.4735
19.750000 94.185 -135.2631
20.000000 94.177 -135.7791
20.299999 94.200 -136.2031
20.600000 94.260 -136.5749
20.900000 94.344 -137.0304
21.200001 94.434 -137.6313
21.400000 94.487 -138.1074
21.799999 94.568 -139.1960
22.000000 94.589 -139.7721
22.400000 94.581 -140.8810
22.700001 94.532 -141.5360
23.000000 94.453 -141.8704
23.299999 94.375 -141.7715
23.600000 94.337 -141.2657
24.000000 94.410 -140.2592
24.299999 94.573 -139.6965
24.700001 94.889 -139.7889
25.000000 95.125 -140.6898
25.400000 95.343 -142.8334
25.799999 95.394 -145.3965
26.200001 95.295 -147.5862
26.500000 95.171 -148.6879
26.900000 95.022 -149.4497
27.200001 94.961 -149.7426
27.600000 94.951 -150.1856
28.000000 94.966 -150.9523
28.500000 94.936 -152.1141
29.000000 94.855 -152.8120
29.500000 94.825 -152.8396
30.000000 94.912 -152.7690
30.400000 95.033 -153.0801
30.700001 95.119 -153.5725
31.100000 95.194 -154.3928
31.500000 95.224 -155.1530
32.000000 95.235 -155.7854
32.500000 95.263 -156.1436
33.000000 95.318 -156.4966
33.500000 95.378 -156.9938
34.000000 95.419 -157.6140
34.500000 95.435 -158.2656
35.000000 95.426 -158.8637
35.500000 95.404 -159.3397
36.000000 95.387 -159.6972
36.500000 95.389 -160.0434
37.000000 95.405 -160.5230
37.500000 95.413 -161.1717
38.200001 95.385 -162.1367
38.700001 95.346 -162.6719
39.500000 95.314 -163.2071
40.000000 95.330 -163.4978
40.599998 95.379 -163.9999
41.200001 95.423 -164.7460
41.799999 95.432 -165.5793
42.500000 95.402 -166.3055
43.099998 95.387 -166.6518
43.700001 95.398 -166.9719
44.400002 95.410 -167.4528
45.000000 95.404 -167.8196
45.500000 95.404 -168.0474
46.200001 95.418 -168.4092
46.799999 95.426 -168.8398
47.500000 95.415 -169.3279
48.200001 95.407 -169.7602
48.700001 95.404 -170.1255
49.400002 95.383 -170.7092
50.000000 95.349 -171.1262
50.799999 95.319 -171.5407
51.500000 95.313 -171.9621
52.200001 95.306 -172.4604
53.000000 95.300 -173.0282
53.799999 95.299 -173.6638
54.500000 95.286 -174.2643
55.200001 95.259 -174.7552
56.000000 95.237 -175.1514
57.000000 95.226 -175.6181
58.000000 95.206 -175.9935
59.000000 95.211 -176.2496
60.000000 95.232 -176.7944
60.799999 95.211 -177.4014
61.500000 95.163 -177.8354
62.200001 95.114 -178.1273
63.000000 95.066 -178.3812
64.000000 95.020 -178.5542
65.000000 95.031 -178.6562
66.000000 95.066 -179.1860
67.000000 95.036 -179.7949
68.000000 95.004 179.9381
69.000000 94.997 179.6234
70.000000 94.976 179.2200
71.000000 94.948 178.8090
72.000000 94.913 178.3342
73.000000 94.860 177.8282
74.000000 94.793 177.4439
75.000000 94.745 177.2075
76.199997 94.726 176.8665
77.500000 94.712 176.3112
78.800003 94.673 175.8623
80.000000 94.650 175.6694
81.199997 94.631 175.4180
82.500000 94.582 175.1792
83.800003 94.526 174.9845
85.000000 94.472 174.7142
86.199997 94.422 174.4209
87.500000 94.401 173.9946
88.500000 94.388 173.5576
90.000000 94.372 173.0175
91.199997 94.359 172.5499
92.500000 94.289 172.2156
93.800003 94.216 172.3300
95.000000 94.183 172.4624
96.199997 94.155 172.4045
97.500000 94.110 172.2122
98.800003 94.058 171.9778
100.000000 94.004 171.6974
101.500000 93.920 171.3906
103.000000 93.855 171.2078
104.400002 93.828 170.9576
106.000000 93.799 170.6207
107.500000 93.767 170.5179
109.000000 93.737 170.6336
110.599998 93.696 170.7753
112.000000 93.635 170.7850
113.800003 93.533 170.6478
115.000000 93.476 170.4680
117.199997 93.414 169.9706
118.000000 93.398 169.8147
120.599998 93.352 169.6039
122.000000 93.306 169.6345
124.099998 93.234 169.7506
125.000000 93.206 169.6987
126.500000 93.150 169.5489
128.000000 93.104 169.5260
131.500000 93.059 169.5417
132.000000 93.040 169.5595
134.000000 92.953 169.8732
136.000000 92.913 170.1386
138.000000 92.900 169.9573
140.000000 92.878 169.8411
143.000000 92.911 169.9082
145.000000 92.899 169.7840
147.500000 92.848 169.6788
150.000000 92.801 169.5255
152.500000 92.741 169.3403
155.000000 92.678 169.3281
157.500000 92.635 169.3353
160.000000 92.601 169.4612
162.500000 92.569 169.4614
165.000000 92.494 169.1681
167.500000 92.397 168.9045
170.000000 92.323 168.9279
172.500000 92.278 169.1464
175.000000 92.226 169.3012
177.500000 92.163 169.4738
180.000000 92.134 169.6113
182.500000 92.109 169.5528
185.000000 92.054 169.5260
187.500000 91.998 169.6896
190.000000 91.946 169.9047
192.500000 91.875 170.1093
195.000000 91.803 170.2507
197.500000 91.758 170.1672
200.000000 91.738 169.9635
203.000000 91.720 169.8828
206.000000 91.680 170.0536
209.000000 91.624 170.2889
212.000000 91.588 170.4939
214.000000 91.572 170.6361
218.000000 91.523 170.9066
220.000000 91.490 171.0344
224.000000 91.441 171.3005
227.000000 91.407 171.3256
230.000000 91.361 171.2710
233.000000 91.310 171.3980
236.000000 91.248 171.7092
240.000000 91.184 172.1902
243.000000 91.176 172.5160
247.000000 91.127 172.8412
250.000000 91.072 172.9817
254.000000 91.034 173.1435
258.000000 91.001 173.4855
262.000000 90.944 173.8954
265.000000 90.926 174.1546
269.000000 90.918 174.2379
272.000000 90.893 174.2717
276.000000 90.845 174.4547
280.000000 90.788 174.7950
285.000000 90.745 175.2446
290.000000 90.717 175.6932
295.000000 90.675 176.0175
300.000000 90.636 176.1369
304.000000 90.612 176.3154
307.000000 90.590 176.6125
311.000000 90.537 177.0805
315.000000 90.485 177.5068
320.000000 90.461 178.0068
325.000000 90.455 178.2851
330.000000 90.429 178.4027
335.000000 90.393 178.8359
340.000000 90.370 179.2995
345.000000 90.343 179.7819
350.000000 90.327 -179.7505
355.000000 90.308 -179.4783
360.000000 90.283 -179.2314
365.000000 90.271 -178.8481
370.000000 90.263 -178.4540
375.000000 90.256 -178.1049
382.000000 90.231 -177.6204
387.000000 90.194 -177.1394
395.000000 90.135 -176.5813
400.000000 90.092 -176.2001
406.000000 90.078 -175.7739
412.000000 90.082 -175.5728
418.000000 90.023 -175.0441
425.000000 89.980 -174.1860
431.000000 90.001 -173.7197
437.000000 90.030 -173.4930
444.000000 90.044 -173.1267
450.000000 90.036 -172.7572
455.000000 90.020 -172.5092
462.000000 89.993 -172.2090
468.000000 89.945 -171.8443
475.000000 89.862 -171.1948
482.000000 89.815 -170.3346
487.000000 89.820 -169.7600
494.000000 89.839 -169.1918
500.000000 89.843 -168.7468
508.000000 89.807 -168.0259
515.000000 89.774 -167.5900
522.000000 89.783 -167.2479
530.000000 89.793 -166.6594
538.000000 89.785 -166.0121
545.000000 89.774 -165.4615
552.000000 89.770 -164.9484
560.000000 89.773 -164.3716
570.000000 89.777 -163.6566
580.000000 89.791 -162.9943
590.000000 89.813 -162.1974
600.000000 89.830 -161.2993
608.000000 89.824 -160.6823
615.000000 89.810 -160.1883
622.000000 89.799 -159.7480
630.000000 89.790 -159.2407
640.000000 89.792 -158.5290
650.000000 89.817 -157.7251
660.000000 89.823 -156.8677
670.000000 89.823 -156.1101
680.000000 89.829 -155.4067
690.000000 89.849 -154.7262
700.000000 89.880 -153.9378
710.000000 89.893 -153.0499
720.000000 89.904 -152.2902
730.000000 89.927 -151.5467
740.000000 89.956 -150.7796
750.000000 89.976 -150.0002
762.000000 90.002 -149.0995
775.000000 90.043 -148.1315
788.000000 90.095 -147.2124
800.000000 90.140 -146.3476
812.000000 90.182 -145.4068
825.000000 90.229 -144.3881
838.000000 90.282 -143.4752
850.000000 90.337 -142.6624
862.000000 90.395 -141.7886
875.000000 90.457 -140.8069
885.000000 90.504 -140.0765
900.000000 90.586 -139.0875
912.000000 90.664 -138.3477
925.000000 90.754 -137.5053
938.000000 90.841 -136.6525
950.000000 90.919 -135.9000
962.000000 90.994 -135.1902
975.000000 91.077 -134.4649
988.000000 91.167 -133.7764
1000.000000 91.256 -133.1577
1015.000000 91.361 -132.3834
1030.000000 91.458 -131.6557
1044.000000 91.547 -131.0503
1060.000000 91.655 -130.3981
1075.000000 91.761 -129.8047
1090.000000 91.870 -129.3110
1106.000000 91.988 -128.8152
1120.000000 92.078 -128.3299
1138.000000 92.185 -127.6384
1150.000000 92.260 -127.1739
1172.000000 92.426 -126.4004
1180.000000 92.489 -126.1545
1206.000000 92.698 -125.4127
1220.000000 92.809 -125.0267
1241.000000 92.964 -124.4829
1250.000000 93.023 -124.2513
1265.000000 93.115 -123.8605
1280.000000 93.206 -123.4791
1315.000000 93.448 -122.6856
1320.000000 93.485 -122.5757
1340.000000 93.615 -122.1148
1360.000000 93.709 -121.6299
1380.000000 93.794 -121.1796
1400.000000 93.900 -120.7346
1430.000000 94.075 -120.0264
1450.000000 94.201 -119.6052
1475.000000 94.359 -119.1248
1500.000000 94.498 -118.5395
1525.000000 94.624 -117.9599
1550.000000 94.758 -117.4342
1575.000000 94.903 -116.9674
1600.000000 95.035 -116.4486
1625.000000 95.158 -115.9394
1650.000000 95.285 -115.4913
1675.000000 95.414 -115.0394
1700.000000 95.540 -114.5676
1725.000000 95.672 -114.1179
1750.000000 95.808 -113.7181
1775.000000 95.937 -113.3227
1800.000000 96.053 -112.9216
1825.000000 96.170 -112.5250
1850.000000 96.301 -112.1851
1875.000000 96.439 -111.8832
1900.000000 96.571 -111.5699
1925.000000 96.690 -111.2608
1950.000000 96.804 -110.9551
1975.000000 96.919 -110.6722
2000.000000 97.035 -110.4001
2030.000000 97.175 -110.0325
2060.000000 97.328 -109.6851
2090.000000 97.491 -109.3293
2120.000000 97.658 -108.9692
2140.000000 97.770 -108.7452
2180.000000 97.994 -108.3965
2200.000000 98.109 -108.3274
2240.000000 98.342 -108.3846
2270.000000 98.513 -108.5596
2300.000000 98.676 -108.8056
2330.000000 98.826 -109.0884
2360.000000 98.954 -109.3839
2400.000000 99.084 -109.7213
2430.000000 99.172 -109.9755
2470.000000 99.297 -110.3394
2500.000000 99.393 -110.6038
2540.000000 99.514 -110.9398
2580.000000 99.625 -111.2357
2620.000000 99.733 -111.5454
2650.000000 99.811 -111.7790
2690.000000 99.911 -112.1298
2720.000000 99.984 -112.4379
2760.000000 100.071 -112.8799
2800.000000 100.144 -113.3512
2850.000000 100.222 -113.9351
2900.000000 100.288 -114.5082
2950.000000 100.341 -115.0222
3000.000000 100.392 -115.5361
3040.000000 100.424 -115.9220
3070.000000 100.442 -116.2128
3110.000000 100.460 -116.6015
3150.000000 100.474 -116.9613
3200.000000 100.499 -117.3996
3250.000000 100.532 -117.8277
3300.000000 100.557 -118.2333
3350.000000 100.577 -118.6802
3400.000000 100.601 -119.2410
3450.000000 100.626 -119.9427
3500.000000 100.644 -120.7736
3550.000000 100.638 -121.6949
3600.000000 100.599 -122.6577
3650.000000 100.527 -123.6287
3700.000000 100.419 -124.5231
3750.000000 100.282 -125.2780
3820.000000 100.062 -126.0191
3870.000000 99.899 -126.3109
3950.000000 99.649 -126.5038
4000.000000 99.500 -126.5374
4060.000000 99.334 -126.5936
4120.000000 99.177 -126.6950
4180.000000 99.003 -126.8007
4250.000000 98.759 -126.8444
4310.000000 98.534 -126.8129
4370.000000 98.304 -126.6882
4440.000000 98.035 -126.4258
4500.000000 97.796 -126.1151
4550.000000 97.585 -125.7990
4620.000000 97.290 -125.3224
4680.000000 97.038 -124.8714
4750.000000 96.729 -124.2494
4820.000000 96.404 -123.5073
4870.000000 96.166 -122.8897
4940.000000 95.834 -121.8987
5000.000000 95.549 -120.9175
5080.000000 95.160 -119.4110
5150.000000 94.814 -117.9115
5220.000000 94.473 -116.2531
5300.000000 94.099 -114.1653
5380.000000 93.742 -111.8510
5450.000000 93.451 -109.6848
5520.000000 93.174 -107.3748
5600.000000 92.870 -104.5542
5700.000000 92.531 -100.8231
5800.000000 92.248 -96.9116
5900.000000 92.025 -92.8922
6000.000000 91.845 -88.8182
6080.000000 91.732 -85.5679
6150.000000 91.661 -82.7448
6220.000000 91.617 -79.9504
6300.000000 91.587 -76.7861
6400.000000 91.571 -72.8704
6500.000000 91.600 -69.0545
6600.000000 91.683 -65.3538
6700.000000 91.801 -61.7540
6800.000000 91.945 -58.2592
6900.000000 92.156 -54.9297
7000.000000 92.445 -51.8020
7100.000000 92.785 -48.9053
7200.000000 93.167 -46.3184
7300.000000 93.591 -44.1391
7400.000000 94.059 -42.4871
7500.000000 94.549 -41.4594
7620.000000 95.158 -41.1979
7750.000000 95.804 -42.3437
7880.000000 96.281 -45.0982
8000.000000 96.493 -48.9417
8120.000000 96.419 -53.5803
8250.000000 95.972 -58.6733
8380.000000 95.175 -62.8273
8500.000000 94.201 -65.0809
8620.000000 93.084 -65.4452
8750.000000 91.805 -63.7173
8850.000000 90.832 -61.0797
9000.000000 89.468 -55.4786
9120.000000 88.504 -49.9569
9250.000000 87.595 -43.1928
9380.000000 86.804 -35.7126
9500.000000 86.163 -28.1533
9620.000000 85.612 -19.8580
9750.000000 85.156 -9.8525
9880.000000 84.946 1.3491
10000.000000 85.104 12.5226
10150.000000 85.935 26.5049
10300.000000 87.436 38.3736
10440.000000 89.149 45.7018
10600.000000 91.053 49.0577
10750.000000 92.543 48.4460
10900.000000 93.728 46.0363
11060.000000 94.817 42.6609
11200.000000 95.738 38.6253
11380.000000 96.773 30.2662
11500.000000 97.176 22.1462
11720.000000 96.835 4.5026
11800.000000 96.322 -1.3095
12060.000000 93.631 -12.5472
12200.000000 91.911 -13.6089
12410.000000 89.451 -10.6952
12500.000000 88.497 -8.3314
12650.000000 87.065 -3.4139
12800.000000 85.814 2.3760
13150.000000 83.487 17.8877
13200.000000 83.215 20.2483
13400.000000 82.266 29.9082
13600.000000 81.520 39.7897
13800.000000 80.970 49.7570
14000.000000 80.600 59.7084
14300.000000 80.317 74.5035
14500.000000 80.325 84.1526
14750.000000 80.590 95.7032
15000.000000 81.157 106.3374
15250.000000 82.048 115.5062
15500.000000 83.309 122.3337
15750.000000 84.840 125.3262
16000.000000 86.245 122.6912
16250.000000 86.993 114.2787
16500.000000 86.735 103.6830
16750.000000 85.556 95.9542
17000.000000 83.860 93.1941
17250.000000 82.069 94.4350
17500.000000 80.429 98.0032
17750.000000 79.004 102.7018
18000.000000 77.735 107.6971
18250.000000 76.536 112.1926
18500.000000 75.261 115.9852
18750.000000 73.713 122.6272
19000.000000 72.460 133.6005
19250.000000 71.716 144.3969
19500.000000 70.833 154.5021
19750.000000 69.591 165.7843
20000.000000 68.157 179.6257
20300.000000 66.705 -161.7101
20600.000000 65.803 -142.7880
20900.000000 65.348 -124.2889
21200.000000 65.311 -110.0467
21400.000000 65.434 -116.8088
21800.000000 65.154 -120.1675
22000.000000 64.087 100.1247
22400.000000 59.352 101.2075
22700.000000 55.980 87.5430
23000.000000 57.787 59.5898
23300.000000 60.482 -25.2500
23600.000000 61.587 -6.0000
24000.000000 61.457 90.6719
