* Measurement data measured by REW V5.20.13
* Source: Headset (DS by VECLAN.COM), MICROPHONE (Master Volume), L, volume: 1.000. Timing signal peak level -12.7 dBFS, measurement signal peak level -6.3 dBFS
* Format: 2M Log Swept Sine, 1 sweep at -12.0 dBFS using an acoustic timing reference
* Dated: May 28, 2023 7:53:38 PM
* REW Settings:
*  C-weighting compensation: Off
*  Target level: 75.0 dB
* Note: ; Delay -0.0657 ms (-23 mm, -0.89 in) using estimated IR delay relative to Acoustic reference played from SPEAKER R with no timing offset Clock adjustment: -1.1 ppm
* Measurement: EJ07M R
* Smoothing: 1/24 octave
* Frequency Step: 1/48 octave
* Start Frequency: 1.000 Hz
*
* Freq(Hz) SPL(dB) Phase(degrees)
1.000000 73.283 45.5976
1.015000 73.569 43.7979
1.030000 73.852 42.0724
1.044000 74.111 40.5354
1.060000 74.402 38.8736
1.075000 74.668 37.4152
1.090000 74.928 36.0606
1.106000 75.197 34.7390
1.120000 75.430 33.6904
1.138000 75.727 32.4806
1.150000 75.924 31.7544
1.172000 76.280 30.5744
1.180000 76.408 30.1899
1.206000 76.822 29.0850
1.220000 77.042 28.5711
1.241000 77.369 27.8888
1.250000 77.508 27.6243
1.265000 77.738 27.2142
1.280000 77.965 26.8355
1.315000 78.488 26.0294
1.320000 78.562 25.9188
1.340000 78.855 25.4756
1.360000 79.145 25.0172
1.380000 79.431 24.5246
1.400000 79.713 23.9788
1.430000 80.129 23.0190
1.450000 80.402 22.2572
1.475000 80.739 21.1452
1.500000 81.068 19.9311
1.525000 81.391 18.6466
1.550000 81.708 17.3041
1.575000 82.019 15.9157
1.600000 82.324 14.4936
1.625000 82.623 13.0500
1.650000 82.917 11.5971
1.675000 83.206 10.1472
1.700000 83.490 8.7123
1.725000 83.770 7.3048
1.750000 84.045 5.9368
1.775000 84.317 4.6205
1.800000 84.585 3.3682
1.825000 84.850 2.1919
1.850000 85.110 1.0951
1.875000 85.366 0.0590
1.900000 85.617 -0.9240
1.925000 85.862 -1.8607
1.950000 86.104 -2.7580
1.975000 86.340 -3.6228
2.000000 86.573 -4.4619
2.030000 86.847 -5.4445
2.060000 87.115 -6.4117
2.090000 87.379 -7.3756
2.120000 87.637 -8.3478
2.140000 87.807 -9.0064
2.180000 88.142 -10.3647
2.200000 88.307 -11.0711
2.240000 88.630 -12.5111
2.270000 88.866 -13.6015
2.300000 89.096 -14.6983
2.330000 89.321 -15.7991
2.360000 89.542 -16.9016
2.400000 89.829 -18.3702
2.430000 90.039 -19.4676
2.470000 90.314 -20.9210
2.500000 90.516 -22.0007
2.540000 90.779 -23.4219
2.580000 91.038 -24.8194
2.620000 91.289 -26.2082
2.650000 91.472 -27.2452
2.690000 91.710 -28.6192
2.720000 91.884 -29.6415
2.760000 92.110 -30.9912
2.800000 92.331 -32.3228
2.850000 92.599 -33.9573
2.900000 92.860 -35.5526
2.950000 93.114 -37.1018
3.000000 93.358 -38.5952
3.040000 93.547 -39.7557
3.070000 93.685 -40.6101
3.110000 93.865 -41.7334
3.150000 94.040 -42.8442
3.200000 94.253 -44.2246
3.250000 94.460 -45.6078
3.300000 94.661 -47.0060
3.350000 94.856 -48.4266
3.400000 95.044 -49.8604
3.450000 95.225 -51.2950
3.500000 95.400 -52.7178
3.550000 95.569 -54.1162
3.600000 95.734 -55.4776
3.650000 95.895 -56.7895
3.700000 96.051 -58.0423
3.750000 96.202 -59.2420
3.820000 96.405 -60.8537
3.870000 96.544 -61.9713
3.950000 96.758 -63.7315
4.000000 96.888 -64.8312
4.060000 97.040 -66.1659
4.120000 97.187 -67.5068
4.180000 97.327 -68.8420
4.250000 97.486 -70.3785
4.310000 97.617 -71.6652
4.370000 97.745 -72.9126
4.440000 97.890 -74.3064
4.500000 98.010 -75.4522
4.550000 98.107 -76.3796
4.620000 98.239 -77.6475
4.680000 98.349 -78.7162
4.750000 98.474 -79.9551
4.820000 98.595 -81.1908
4.870000 98.680 -82.0644
4.940000 98.795 -83.2722
5.000000 98.890 -84.2913
5.080000 99.015 -85.6232
5.150000 99.121 -86.7601
5.220000 99.224 -87.8683
5.300000 99.337 -89.1041
5.380000 99.448 -90.3136
5.450000 99.542 -91.3556
5.520000 99.633 -92.3863
5.600000 99.735 -93.5448
5.700000 99.858 -94.9640
5.800000 99.976 -96.3551
5.900000 100.089 -97.7220
6.000000 100.198 -99.0632
6.080000 100.282 -100.1172
6.150000 100.354 -101.0255
6.220000 100.423 -101.9207
6.300000 100.500 -102.9266
6.400000 100.593 -104.1584
6.500000 100.681 -105.3660
6.600000 100.766 -106.5536
6.700000 100.847 -107.7234
6.800000 100.924 -108.8725
6.900000 100.998 -109.9976
7.000000 101.068 -111.0959
7.100000 101.135 -112.1675
7.200000 101.199 -113.2146
7.300000 101.261 -114.2392
7.400000 101.319 -115.2426
7.500000 101.375 -116.2238
7.620000 101.440 -117.3715
7.750000 101.507 -118.5772
7.880000 101.571 -119.7418
8.000000 101.627 -120.7868
8.120000 101.683 -121.8083
8.250000 101.742 -122.8840
8.380000 101.799 -123.9354
8.500000 101.851 -124.8896
8.620000 101.902 -125.8247
8.750000 101.955 -126.8226
8.850000 101.995 -127.5832
9.000000 102.052 -128.7096
9.120000 102.096 -129.5989
9.250000 102.142 -130.5528
9.380000 102.186 -131.4961
9.500000 102.222 -132.3516
9.620000 102.253 -133.1909
9.750000 102.281 -134.0836
9.880000 102.301 -134.9514
10.000000 102.308 -135.7279
10.150000 102.307 -136.6674
10.300000 102.300 -137.5681
10.440000 102.285 -138.3708
10.600000 102.266 -139.2537
10.750000 102.252 -140.0513
10.900000 102.241 -140.8222
11.060000 102.232 -141.6354
11.200000 102.227 -142.3356
11.380000 102.222 -143.2381
11.500000 102.219 -143.8457
11.720000 102.214 -144.9656
11.800000 102.211 -145.3761
12.060000 102.201 -146.7120
12.200000 102.193 -147.4178
12.410000 102.176 -148.4534
12.500000 102.167 -148.8777
12.650000 102.150 -149.5623
12.800000 102.132 -150.2148
13.150000 102.093 -151.5985
13.200000 102.089 -151.7864
13.400000 102.077 -152.5069
13.600000 102.073 -153.2220
13.800000 102.076 -153.9449
14.000000 102.081 -154.7026
14.300000 102.088 -155.9100
14.500000 102.084 -156.7596
14.750000 102.067 -157.8212
15.000000 102.037 -158.8534
15.250000 101.998 -159.7911
15.500000 101.957 -160.6160
15.750000 101.919 -161.3285
16.000000 101.892 -161.9559
16.250000 101.880 -162.5651
16.500000 101.879 -163.1928
16.750000 101.885 -163.8881
17.000000 101.891 -164.6516
17.250000 101.890 -165.4615
17.500000 101.877 -166.2845
17.750000 101.855 -167.0604
18.000000 101.826 -167.7704
18.250000 101.797 -168.3944
18.500000 101.775 -168.9547
18.750000 101.763 -169.4854
19.000000 101.761 -170.0183
19.250000 101.767 -170.5966
19.500000 101.775 -171.2221
19.750000 101.779 -171.8944
20.000000 101.776 -172.5854
20.299999 101.762 -173.3990
20.600000 101.741 -174.1641
20.900000 101.718 -174.8658
21.200001 101.696 -175.5169
21.400000 101.684 -175.9405
21.799999 101.662 -176.7852
22.000000 101.650 -177.2118
22.400000 101.621 -178.0616
22.700001 101.594 -178.6704
23.000000 101.564 -179.2341
23.299999 101.537 -179.7560
23.600000 101.514 179.7444
24.000000 101.489 179.0704
24.299999 101.473 178.5323
24.700001 101.444 177.7697
25.000000 101.414 177.1911
25.400000 101.360 176.4670
25.799999 101.298 175.8524
26.200001 101.242 175.3556
26.500000 101.211 175.0274
26.900000 101.187 174.5793
27.200001 101.180 174.1825
27.600000 101.174 173.5295
28.000000 101.157 172.7458
28.500000 101.106 171.7020
29.000000 101.025 170.7843
29.500000 100.937 170.1091
30.000000 100.870 169.6221
30.400000 100.839 169.2540
30.700001 100.826 168.9397
31.100000 100.810 168.4508
31.500000 100.790 167.9119
32.000000 100.754 167.2520
32.500000 100.715 166.6644
33.000000 100.681 166.1201
33.500000 100.651 165.5593
34.000000 100.616 164.9761
34.500000 100.574 164.4199
35.000000 100.531 163.9138
35.500000 100.491 163.4153
36.000000 100.449 162.8750
36.500000 100.397 162.3100
37.000000 100.334 161.7902
37.500000 100.268 161.3500
38.200001 100.190 160.7889
38.700001 100.142 160.3582
39.500000 100.065 159.6154
40.000000 100.016 159.1348
40.599998 99.955 158.5390
41.200001 99.885 157.9670
41.799999 99.812 157.4911
42.500000 99.744 157.0295
43.099998 99.701 156.5888
43.700001 99.655 156.0657
44.400002 99.584 155.4535
45.000000 99.515 155.0163
45.500000 99.461 154.7116
46.200001 99.397 154.2977
46.799999 99.350 153.8827
47.500000 99.285 153.3283
48.200001 99.207 152.8062
48.700001 99.148 152.5016
49.400002 99.077 152.1383
50.000000 99.026 151.8136
50.799999 98.959 151.3336
51.500000 98.898 150.9141
52.200001 98.838 150.4866
53.000000 98.762 149.9694
53.799999 98.673 149.5192
54.500000 98.600 149.1959
55.200001 98.532 148.8375
56.000000 98.442 148.3969
57.000000 98.318 148.0303
58.000000 98.226 147.7864
59.000000 98.158 147.3726
60.000000 98.068 146.8060
60.799999 97.978 146.4573
61.500000 97.907 146.2676
62.200001 97.852 146.0793
63.000000 97.798 145.7770
64.000000 97.722 145.3006
65.000000 97.629 144.8221
66.000000 97.527 144.4493
67.000000 97.431 144.1376
68.000000 97.330 143.8647
69.000000 97.236 143.7220
70.000000 97.165 143.5384
71.000000 97.085 143.2354
72.000000 96.993 143.0258
73.000000 96.917 142.8523
74.000000 96.843 142.5621
75.000000 96.751 142.2433
76.199997 96.631 141.9697
77.500000 96.509 141.7412
78.800003 96.396 141.4897
80.000000 96.289 141.2150
81.199997 96.178 140.9822
82.500000 96.067 140.7749
83.800003 95.958 140.5578
85.000000 95.858 140.4212
86.199997 95.769 140.2918
87.500000 95.671 140.1239
88.500000 95.597 140.0199
90.000000 95.490 139.8206
91.199997 95.396 139.6970
92.500000 95.305 139.6345
93.800003 95.220 139.5197
95.000000 95.133 139.4048
96.199997 95.039 139.3143
97.500000 94.932 139.2690
98.800003 94.828 139.2604
100.000000 94.738 139.2252
101.500000 94.626 139.1295
103.000000 94.512 139.0236
104.400002 94.407 138.9715
106.000000 94.296 138.9574
107.500000 94.200 138.9492
109.000000 94.105 138.9100
110.599998 93.999 138.8431
112.000000 93.901 138.7774
113.800003 93.766 138.7525
115.000000 93.676 138.8480
117.199997 93.543 139.1133
118.000000 93.498 139.1570
120.599998 93.328 139.2358
122.000000 93.234 139.2953
124.099998 93.107 139.4504
125.000000 93.061 139.5254
126.500000 92.989 139.6472
128.000000 92.913 139.7855
131.500000 92.723 140.1281
132.000000 92.695 140.1687
134.000000 92.581 140.3379
136.000000 92.473 140.5616
138.000000 92.376 140.8220
140.000000 92.284 141.0211
143.000000 92.143 141.2463
145.000000 92.053 141.4394
147.500000 91.941 141.7903
150.000000 91.831 142.2129
152.500000 91.724 142.5698
155.000000 91.619 142.8862
157.500000 91.518 143.2282
160.000000 91.418 143.5859
162.500000 91.319 143.9556
165.000000 91.227 144.3201
167.500000 91.136 144.7043
170.000000 91.044 145.1293
172.500000 90.954 145.5729
175.000000 90.866 146.0071
177.500000 90.780 146.4280
180.000000 90.701 146.8355
182.500000 90.623 147.2162
185.000000 90.540 147.6310
187.500000 90.456 148.0598
190.000000 90.373 148.4707
192.500000 90.302 148.8486
195.000000 90.241 149.2294
197.500000 90.186 149.6779
200.000000 90.132 150.1643
203.000000 90.064 150.7174
206.000000 89.995 151.2399
209.000000 89.933 151.7454
212.000000 89.878 152.2512
214.000000 89.844 152.5895
218.000000 89.774 153.2286
220.000000 89.737 153.5343
224.000000 89.663 154.2060
227.000000 89.613 154.7658
230.000000 89.569 155.2834
233.000000 89.529 155.7363
236.000000 89.490 156.1852
240.000000 89.439 156.8280
243.000000 89.405 157.2943
247.000000 89.361 157.8794
250.000000 89.329 158.3357
254.000000 89.293 158.9556
258.000000 89.260 159.5426
262.000000 89.225 160.1068
265.000000 89.204 160.5197
269.000000 89.182 161.0417
272.000000 89.165 161.4262
276.000000 89.137 161.9360
280.000000 89.114 162.4811
285.000000 89.091 163.1984
290.000000 89.068 163.8199
295.000000 89.054 164.3693
300.000000 89.045 164.9737
304.000000 89.038 165.4470
307.000000 89.032 165.7861
311.000000 89.024 166.2452
315.000000 89.016 166.7063
320.000000 89.010 167.2612
325.000000 89.013 167.7160
330.000000 89.024 168.1536
335.000000 89.021 168.7932
340.000000 89.020 169.4066
345.000000 89.018 169.8611
350.000000 89.017 170.1747
355.000000 89.011 170.5206
360.000000 88.993 170.9735
365.000000 88.982 171.5051
370.000000 88.983 172.0267
375.000000 88.983 172.3891
382.000000 88.997 172.7791
387.000000 89.001 173.2139
395.000000 88.990 173.9083
400.000000 88.984 174.2862
406.000000 88.981 174.7216
412.000000 88.982 175.1526
418.000000 88.983 175.5803
425.000000 88.984 176.0831
431.000000 88.983 176.5202
437.000000 88.987 176.9471
444.000000 88.994 177.4130
450.000000 89.001 177.7859
455.000000 89.007 178.0696
462.000000 89.015 178.4689
468.000000 89.020 178.8223
475.000000 89.025 179.2227
482.000000 89.028 179.6129
487.000000 89.031 179.8946
494.000000 89.040 -179.7134
500.000000 89.049 -179.3797
508.000000 89.055 -178.9295
515.000000 89.058 -178.5379
522.000000 89.062 -178.1430
530.000000 89.067 -177.6706
538.000000 89.072 -177.2553
545.000000 89.081 -176.9049
552.000000 89.095 -176.5226
560.000000 89.109 -176.0872
570.000000 89.120 -175.5733
580.000000 89.130 -175.0433
590.000000 89.143 -174.4999
600.000000 89.154 -173.9707
608.000000 89.162 -173.5657
615.000000 89.168 -173.1985
622.000000 89.173 -172.8206
630.000000 89.181 -172.3951
640.000000 89.193 -171.8817
650.000000 89.207 -171.3817
660.000000 89.220 -170.8650
670.000000 89.233 -170.3330
680.000000 89.245 -169.7987
690.000000 89.258 -169.2711
700.000000 89.274 -168.7409
710.000000 89.292 -168.2034
720.000000 89.312 -167.6679
730.000000 89.333 -167.1372
740.000000 89.353 -166.5977
750.000000 89.373 -166.0409
762.000000 89.400 -165.3832
775.000000 89.434 -164.6838
788.000000 89.469 -163.9708
800.000000 89.502 -163.2978
812.000000 89.537 -162.6134
825.000000 89.584 -161.8898
838.000000 89.637 -161.2022
850.000000 89.688 -160.5747
862.000000 89.738 -159.9382
875.000000 89.794 -159.2518
885.000000 89.841 -158.7370
900.000000 89.914 -157.9818
912.000000 89.976 -157.3809
925.000000 90.048 -156.7469
938.000000 90.125 -156.1400
950.000000 90.199 -155.5986
962.000000 90.275 -155.0733
975.000000 90.356 -154.5298
988.000000 90.438 -154.0111
1000.000000 90.515 -153.5569
1015.000000 90.616 -153.0295
1030.000000 90.722 -152.5381
1044.000000 90.826 -152.1272
1060.000000 90.943 -151.6956
1075.000000 91.053 -151.3164
1090.000000 91.166 -150.9845
1106.000000 91.295 -150.6697
1120.000000 91.410 -150.4333
1138.000000 91.555 -150.1838
1150.000000 91.649 -150.0279
1172.000000 91.817 -149.7978
1180.000000 91.877 -149.7282
1206.000000 92.072 -149.5311
1220.000000 92.176 -149.4530
1241.000000 92.334 -149.3673
1250.000000 92.400 -149.3419
1265.000000 92.506 -149.3109
1280.000000 92.608 -149.2877
1315.000000 92.834 -149.2543
1320.000000 92.865 -149.2526
1340.000000 92.985 -149.2647
1360.000000 93.085 -149.2900
1380.000000 93.178 -149.3103
1400.000000 93.281 -149.3332
1430.000000 93.439 -149.3730
1450.000000 93.543 -149.4057
1475.000000 93.670 -149.4417
1500.000000 93.790 -149.4724
1525.000000 93.905 -149.5004
1550.000000 94.016 -149.5372
1575.000000 94.129 -149.5668
1600.000000 94.242 -149.6145
1625.000000 94.353 -149.6487
1650.000000 94.459 -149.6911
1675.000000 94.566 -149.7333
1700.000000 94.672 -149.7837
1725.000000 94.780 -149.8441
1750.000000 94.891 -149.9286
1775.000000 95.002 -150.0258
1800.000000 95.110 -150.1271
1825.000000 95.215 -150.2356
1850.000000 95.322 -150.3611
1875.000000 95.434 -150.5227
1900.000000 95.547 -150.7020
1925.000000 95.657 -150.8938
1950.000000 95.765 -151.1068
1975.000000 95.872 -151.3429
2000.000000 95.981 -151.6048
2030.000000 96.114 -151.9601
2060.000000 96.248 -152.3540
2090.000000 96.377 -152.7867
2120.000000 96.501 -153.2538
2140.000000 96.582 -153.5885
2180.000000 96.740 -154.3102
2200.000000 96.817 -154.7031
2240.000000 96.965 -155.5410
2270.000000 97.072 -156.2167
2300.000000 97.173 -156.9323
2330.000000 97.266 -157.6718
2360.000000 97.352 -158.4485
2400.000000 97.454 -159.5189
2430.000000 97.521 -160.3502
2470.000000 97.599 -161.4804
2500.000000 97.647 -162.3316
2540.000000 97.704 -163.4806
2580.000000 97.750 -164.6161
2620.000000 97.784 -165.7354
2650.000000 97.804 -166.5685
2690.000000 97.818 -167.6590
2720.000000 97.818 -168.4626
2760.000000 97.807 -169.5176
2800.000000 97.791 -170.5626
2850.000000 97.760 -171.8405
2900.000000 97.710 -173.0492
2950.000000 97.648 -174.1867
3000.000000 97.578 -175.2296
3040.000000 97.519 -175.9866
3070.000000 97.475 -176.5158
3110.000000 97.417 -177.1623
3150.000000 97.363 -177.7782
3200.000000 97.305 -178.5640
3250.000000 97.249 -179.3898
3300.000000 97.185 179.7484
3350.000000 97.106 178.9068
3400.000000 97.018 178.1049
3450.000000 96.930 177.3546
3500.000000 96.841 176.6725
3550.000000 96.748 176.0599
3600.000000 96.655 175.5098
3650.000000 96.563 175.0253
3700.000000 96.472 174.6113
3750.000000 96.385 174.2596
3820.000000 96.266 173.8788
3870.000000 96.190 173.6557
3950.000000 96.078 173.3837
4000.000000 96.023 173.2154
4060.000000 95.976 172.9887
4120.000000 95.943 172.6940
4180.000000 95.921 172.2907
4250.000000 95.895 171.6649
4310.000000 95.863 170.9926
4370.000000 95.812 170.2355
4440.000000 95.729 169.3239
4500.000000 95.648 168.5541
4550.000000 95.580 167.9149
4620.000000 95.487 166.9704
4680.000000 95.411 166.0541
4750.000000 95.310 164.8461
4820.000000 95.184 163.4983
4870.000000 95.075 162.4678
4940.000000 94.891 160.9753
5000.000000 94.702 159.6859
5080.000000 94.403 158.0118
5150.000000 94.091 156.6557
5220.000000 93.735 155.4727
5300.000000 93.274 154.4644
5380.000000 92.772 153.9759
5450.000000 92.324 154.0384
5520.000000 91.888 154.5530
5600.000000 91.424 155.5938
5700.000000 90.910 157.3643
5800.000000 90.475 159.4410
5900.000000 90.106 161.7122
6000.000000 89.800 164.1216
6080.000000 89.603 166.1244
6150.000000 89.461 167.9370
6220.000000 89.344 169.7942
6300.000000 89.244 171.9526
6400.000000 89.173 174.6868
6500.000000 89.162 177.4261
6600.000000 89.208 -179.8615
6700.000000 89.312 -177.2106
6800.000000 89.483 -174.6554
6900.000000 89.739 -172.2206
7000.000000 90.089 -169.9245
7100.000000 90.527 -167.8076
7200.000000 91.057 -165.9674
7300.000000 91.688 -164.5847
7400.000000 92.418 -163.8924
7500.000000 93.234 -164.1512
7620.000000 94.303 -166.1619
7750.000000 95.441 -171.0249
7880.000000 96.267 -178.9634
8000.000000 96.579 171.6279
8120.000000 96.381 161.8246
8250.000000 95.652 152.8021
8380.000000 94.583 146.6464
8500.000000 93.486 143.5361
8620.000000 92.412 142.4135
8750.000000 91.348 142.8099
8850.000000 90.621 143.9027
9000.000000 89.688 146.3500
9120.000000 89.059 148.7604
9250.000000 88.469 151.7968
9380.000000 87.980 155.3724
9500.000000 87.655 159.0504
9620.000000 87.473 162.7935
9750.000000 87.423 166.6417
9880.000000 87.501 170.1225
10000.000000 87.667 172.9239
10150.000000 87.982 175.7323
10300.000000 88.392 177.5620
10440.000000 88.816 178.1899
10600.000000 89.284 177.4479
10750.000000 89.623 175.3352
10900.000000 89.783 172.1384
11060.000000 89.699 168.2221
11200.000000 89.404 165.0759
11380.000000 88.790 162.2120
11500.000000 88.296 161.2404
11720.000000 87.349 161.2965
11800.000000 87.017 161.8077
12060.000000 86.038 164.7902
12200.000000 85.587 167.0129
12410.000000 85.011 170.8293
12500.000000 84.804 172.5722
12650.000000 84.514 175.5370
12800.000000 84.286 178.4882
13150.000000 83.941 -175.1577
13200.000000 83.905 -174.3239
13400.000000 83.781 -171.1119
13600.000000 83.695 -168.0135
13800.000000 83.680 -165.0533
14000.000000 83.758 -162.4263
14300.000000 84.021 -159.7962
14500.000000 84.238 -159.4507
14750.000000 84.418 -161.0328
15000.000000 84.333 -164.5805
15250.000000 83.865 -169.1667
15500.000000 82.970 -173.5829
15750.000000 81.625 -176.0095
16000.000000 79.945 -174.5026
16250.000000 78.264 -168.9035
16500.000000 76.871 -160.6407
16750.000000 75.849 -151.1109
17000.000000 75.176 -141.1237
17250.000000 74.835 -131.1726
17500.000000 74.838 -121.6892
17750.000000 75.206 -113.2914
18000.000000 75.943 -107.0773
18250.000000 76.939 -104.8518
18500.000000 77.850 -108.5545
18750.000000 78.145 -117.6730
19000.000000 77.449 -127.2023
19250.000000 75.780 -131.4122
19500.000000 73.428 -128.7246
19750.000000 70.754 -120.6409
20000.000000 68.027 -109.0268
20300.000000 64.865 -92.0698
20600.000000 61.976 -72.4936
20900.000000 59.369 -50.8223
21200.000000 57.041 -27.7323
21400.000000 55.639 -12.1659
21800.000000 53.055 17.3648
22000.000000 51.760 29.7157
22400.000000 48.786 22.7202
22700.000000 45.888 -113.1786
23000.000000 42.151 154.7887
23300.000000 37.389 -110.1938
23600.000000 31.482 122.2773
24000.000000 22.846 -100.6631
