* Measurement data measured by REW V5.20.13
* Source: Headset (DS by VECLAN.COM), MICROPHONE (Master Volume), L, volume: 0.720. Timing signal peak level -18.4 dBFS, measurement signal peak level -14.4 dBFS
* Format: 2M Log Swept Sine, 1 sweep at -12.0 dBFS using an acoustic timing reference
* Dated: Nov 24, 2023 2:11:41 PM
* REW Settings:
*  C-weighting compensation: Off
*  Target level: 75.0 dB
* Note: ; Delay -0.0670 ms (-23 mm, -0.9 in) using estimated IR delay relative to Acoustic reference played from HEADPHONE R with no timing offset
* Measurement: Empire Ears Valkyrie MK2 R
* Smoothing: 1/24 octave
* Frequency Step: 1/48 octave
* Start Frequency: 1.000 Hz
*
* Freq(Hz) SPL(dB) Phase(degrees)
1.000000 84.085 -87.9299
1.015000 84.609 -88.6357
1.030000 85.112 -89.3158
1.044000 85.558 -89.9249
1.060000 86.036 -90.5876
1.075000 86.448 -91.1734
1.090000 86.821 -91.7220
1.106000 87.176 -92.2636
1.120000 87.467 -92.7037
1.138000 87.819 -93.2274
1.150000 88.041 -93.5518
1.172000 88.424 -94.0996
1.180000 88.555 -94.2848
1.206000 88.956 -94.8410
1.220000 89.157 -95.1144
1.241000 89.440 -95.4952
1.250000 89.554 -95.6490
1.265000 89.738 -95.8946
1.280000 89.912 -96.1287
1.315000 90.289 -96.6427
1.320000 90.339 -96.7136
1.340000 90.536 -96.9947
1.360000 90.723 -97.2753
1.380000 90.903 -97.5608
1.400000 91.077 -97.8564
1.430000 91.334 -98.3306
1.450000 91.503 -98.6750
1.475000 91.715 -99.1431
1.500000 91.908 -99.6265
1.525000 92.080 -100.1165
1.550000 92.232 -100.6114
1.575000 92.367 -101.1093
1.600000 92.487 -101.6084
1.625000 92.595 -102.1070
1.650000 92.692 -102.6033
1.675000 92.781 -103.0955
1.700000 92.865 -103.5818
1.725000 92.945 -104.0604
1.750000 93.024 -104.5296
1.775000 93.104 -104.9875
1.800000 93.187 -105.4324
1.825000 93.275 -105.8625
1.850000 93.368 -106.2762
1.875000 93.455 -106.6744
1.900000 93.539 -107.0587
1.925000 93.618 -107.4309
1.950000 93.694 -107.7928
1.975000 93.768 -108.1462
2.000000 93.839 -108.4928
2.030000 93.922 -108.9023
2.060000 94.003 -109.3076
2.090000 94.084 -109.7119
2.120000 94.166 -110.1182
2.140000 94.221 -110.3916
2.180000 94.333 -110.9489
2.200000 94.392 -111.2345
2.240000 94.511 -111.8122
2.270000 94.601 -112.2477
2.300000 94.692 -112.6846
2.330000 94.783 -113.1224
2.360000 94.873 -113.5604
2.400000 94.993 -114.1439
2.430000 95.082 -114.5805
2.470000 95.197 -115.1602
2.500000 95.282 -115.5924
2.540000 95.391 -116.1644
2.580000 95.496 -116.7308
2.620000 95.596 -117.2964
2.650000 95.669 -117.7200
2.690000 95.764 -118.2833
2.720000 95.833 -118.7036
2.760000 95.923 -119.2604
2.800000 96.011 -119.8116
2.850000 96.118 -120.4907
2.900000 96.223 -121.1564
2.950000 96.326 -121.8061
3.000000 96.426 -122.4390
3.040000 96.504 -122.9349
3.070000 96.562 -123.3017
3.110000 96.637 -123.7853
3.150000 96.710 -124.2640
3.200000 96.800 -124.8577
3.250000 96.887 -125.4489
3.300000 96.973 -126.0408
3.350000 97.056 -126.6348
3.400000 97.136 -127.2287
3.450000 97.214 -127.8198
3.500000 97.289 -128.4050
3.550000 97.363 -128.9816
3.600000 97.435 -129.5468
3.650000 97.505 -130.0977
3.700000 97.573 -130.6317
3.750000 97.639 -131.1497
3.820000 97.729 -131.8538
3.870000 97.790 -132.3458
3.950000 97.886 -133.1224
4.000000 97.944 -133.6060
4.060000 98.014 -134.1884
4.120000 98.081 -134.7693
4.180000 98.146 -135.3461
4.250000 98.221 -136.0114
4.310000 98.283 -136.5731
4.370000 98.343 -137.1249
4.440000 98.410 -137.7537
4.500000 98.467 -138.2803
4.550000 98.512 -138.7119
4.620000 98.574 -139.3075
4.680000 98.625 -139.8123
4.750000 98.683 -140.3972
4.820000 98.740 -140.9798
4.870000 98.779 -141.3933
4.940000 98.832 -141.9669
5.000000 98.876 -142.4524
5.080000 98.933 -143.0885
5.150000 98.980 -143.6326
5.220000 99.026 -144.1662
5.300000 99.075 -144.7642
5.380000 99.122 -145.3492
5.450000 99.162 -145.8506
5.520000 99.201 -146.3418
5.600000 99.243 -146.8908
5.700000 99.293 -147.5588
5.800000 99.340 -148.2072
5.900000 99.387 -148.8362
6.000000 99.431 -149.4440
6.080000 99.465 -149.9166
6.150000 99.494 -150.3217
6.220000 99.524 -150.7202
6.300000 99.557 -151.1658
6.400000 99.597 -151.7069
6.500000 99.637 -152.2362
6.600000 99.676 -152.7605
6.700000 99.715 -153.2781
6.800000 99.754 -153.7880
6.900000 99.793 -154.2948
7.000000 99.830 -154.8023
7.100000 99.868 -155.3080
7.200000 99.904 -155.8125
7.300000 99.938 -156.3177
7.400000 99.971 -156.8256
7.500000 100.002 -157.3360
7.620000 100.036 -157.9460
7.750000 100.070 -158.5975
7.880000 100.098 -159.2442
8.000000 100.121 -159.8288
8.120000 100.141 -160.3938
8.250000 100.159 -160.9888
8.380000 100.174 -161.5599
8.500000 100.187 -162.0600
8.620000 100.197 -162.5357
8.750000 100.208 -163.0275
8.850000 100.217 -163.3897
9.000000 100.232 -163.9027
9.120000 100.245 -164.2998
9.250000 100.262 -164.7235
9.380000 100.283 -165.1357
9.500000 100.302 -165.5213
9.620000 100.321 -165.9194
9.750000 100.340 -166.3587
9.880000 100.354 -166.8134
10.000000 100.358 -167.2531
10.150000 100.355 -167.8222
10.300000 100.341 -168.3962
10.440000 100.317 -168.9401
10.600000 100.283 -169.5558
10.750000 100.246 -170.1159
10.900000 100.205 -170.6611
11.060000 100.159 -171.2106
11.200000 100.117 -171.6669
11.380000 100.065 -172.2073
11.500000 100.029 -172.5325
11.720000 99.970 -173.0759
11.800000 99.951 -173.2588
12.060000 99.902 -173.8112
12.200000 99.883 -174.1117
12.410000 99.865 -174.5680
12.500000 99.858 -174.7756
12.650000 99.850 -175.1348
12.800000 99.842 -175.5119
13.150000 99.820 -176.4683
13.200000 99.816 -176.6085
13.400000 99.797 -177.1824
13.600000 99.773 -177.7443
13.800000 99.746 -178.2830
14.000000 99.716 -178.7841
14.300000 99.670 -179.4606
14.500000 99.641 -179.8597
14.750000 99.612 179.6751
15.000000 99.591 179.2322
15.250000 99.580 178.7735
15.500000 99.573 178.2901
15.750000 99.568 177.7791
16.000000 99.559 177.2465
16.250000 99.545 176.7084
16.500000 99.526 176.1760
16.750000 99.504 175.6665
17.000000 99.481 175.1875
17.250000 99.458 174.7375
17.500000 99.437 174.3126
17.750000 99.419 173.8982
18.000000 99.403 173.4852
18.250000 99.388 173.0634
18.500000 99.373 172.6268
18.750000 99.356 172.1783
19.000000 99.338 171.7207
19.250000 99.317 171.2649
19.500000 99.292 170.8207
19.750000 99.266 170.3955
20.000000 99.238 169.9966
20.299999 99.206 169.5473
20.600000 99.176 169.1204
20.900000 99.149 168.7017
21.200001 99.125 168.2772
21.400000 99.109 167.9886
21.799999 99.076 167.4045
22.000000 99.059 167.1138
22.400000 99.024 166.5466
22.700001 98.999 166.1354
23.000000 98.977 165.7282
23.299999 98.957 165.3119
23.600000 98.938 164.8815
24.000000 98.909 164.2932
24.299999 98.885 163.8592
24.700001 98.850 163.3148
25.000000 98.825 162.9348
25.400000 98.797 162.4441
25.799999 98.773 161.9303
26.200001 98.746 161.3750
26.500000 98.719 160.9508
26.900000 98.675 160.4209
27.200001 98.639 160.0760
27.600000 98.595 159.6837
28.000000 98.561 159.3127
28.500000 98.526 158.7776
29.000000 98.479 158.1556
29.500000 98.410 157.5794
30.000000 98.334 157.1810
30.400000 98.287 156.9662
30.700001 98.265 156.8068
31.100000 98.248 156.5155
31.500000 98.232 156.1045
32.000000 98.196 155.4861
32.500000 98.141 154.8931
33.000000 98.081 154.4037
33.500000 98.031 153.9654
34.000000 97.991 153.4878
34.500000 97.947 152.9580
35.000000 97.894 152.4408
35.500000 97.836 151.9976
36.000000 97.785 151.6183
36.500000 97.742 151.2477
37.000000 97.701 150.8468
37.500000 97.658 150.4257
38.200001 97.591 149.8614
38.700001 97.541 149.4922
39.500000 97.467 148.9193
40.000000 97.421 148.5477
40.599998 97.364 148.0865
41.200001 97.301 147.6349
41.799999 97.236 147.2213
42.500000 97.166 146.7773
43.099998 97.112 146.3854
43.700001 97.060 145.9664
44.400002 96.996 145.4715
45.000000 96.939 145.0602
45.500000 96.891 144.7238
46.200001 96.824 144.2723
46.799999 96.767 143.9209
47.500000 96.708 143.5309
48.200001 96.655 143.1089
48.700001 96.614 142.7842
49.400002 96.551 142.3369
50.000000 96.492 141.9928
50.799999 96.415 141.6031
51.500000 96.356 141.2915
52.200001 96.303 140.9451
53.000000 96.236 140.4972
53.799999 96.159 140.0835
54.500000 96.092 139.7715
55.200001 96.030 139.4571
56.000000 95.956 139.0928
57.000000 95.867 138.6754
58.000000 95.784 138.2180
59.000000 95.693 137.7569
60.000000 95.606 137.3581
60.799999 95.543 137.0136
61.500000 95.486 136.6980
62.200001 95.428 136.3900
63.000000 95.361 136.0304
64.000000 95.270 135.5974
65.000000 95.178 135.2636
66.000000 95.099 134.9480
67.000000 95.020 134.5878
68.000000 94.939 134.2343
69.000000 94.858 133.8888
70.000000 94.777 133.5504
71.000000 94.698 133.2186
72.000000 94.617 132.8867
73.000000 94.534 132.6058
74.000000 94.456 132.3667
75.000000 94.381 132.1113
76.199997 94.290 131.8158
77.500000 94.196 131.4480
78.800003 94.088 131.0291
80.000000 93.983 130.7314
81.199997 93.892 130.4719
82.500000 93.799 130.1312
83.800003 93.699 129.8079
85.000000 93.609 129.5472
86.199997 93.523 129.2937
87.500000 93.434 129.0050
88.500000 93.363 128.7779
90.000000 93.258 128.4819
91.199997 93.183 128.2615
92.500000 93.101 127.9521
93.800003 93.005 127.6590
95.000000 92.918 127.4605
96.199997 92.840 127.2642
97.500000 92.761 127.0131
98.800003 92.678 126.7547
100.000000 92.597 126.5783
101.500000 92.500 126.4358
103.000000 92.402 126.2802
104.400002 92.305 126.1202
106.000000 92.198 125.9153
107.500000 92.105 125.6356
109.000000 92.007 125.3014
110.599998 91.895 125.1121
112.000000 91.819 125.0806
113.800003 91.739 124.8976
115.000000 91.680 124.7400
117.199997 91.577 124.3042
118.000000 91.531 124.1046
120.599998 91.352 123.7347
122.000000 91.264 123.6911
124.099998 91.141 123.5770
125.000000 91.088 123.5147
126.500000 91.005 123.3883
128.000000 90.926 123.2176
131.500000 90.722 123.0803
132.000000 90.699 123.1019
134.000000 90.622 123.0470
136.000000 90.527 122.8335
138.000000 90.417 122.7173
140.000000 90.317 122.6568
143.000000 90.179 122.4677
145.000000 90.088 122.2768
147.500000 89.962 122.1017
150.000000 89.842 122.0640
152.500000 89.737 121.9991
155.000000 89.639 121.8669
157.500000 89.536 121.7589
160.000000 89.425 121.7119
162.500000 89.318 121.6203
165.000000 89.209 121.4840
167.500000 89.104 121.4104
170.000000 89.009 121.3372
172.500000 88.909 121.2274
175.000000 88.807 121.1550
177.500000 88.709 121.1325
180.000000 88.612 121.1133
182.500000 88.507 121.0848
185.000000 88.397 121.0758
187.500000 88.294 121.0004
190.000000 88.205 120.8595
192.500000 88.127 120.7626
195.000000 88.045 120.8182
197.500000 87.957 120.9568
200.000000 87.864 121.0200
203.000000 87.756 121.0107
206.000000 87.657 121.0159
209.000000 87.556 121.0396
212.000000 87.450 121.0702
214.000000 87.382 121.0895
218.000000 87.258 121.0525
220.000000 87.191 121.0363
224.000000 87.055 121.0901
227.000000 86.957 121.0453
230.000000 86.857 121.0357
233.000000 86.769 121.1764
236.000000 86.692 121.3032
240.000000 86.580 121.3743
243.000000 86.498 121.3917
247.000000 86.390 121.3398
250.000000 86.297 121.3473
254.000000 86.172 121.4631
258.000000 86.066 121.5808
262.000000 85.968 121.7031
265.000000 85.905 121.7862
269.000000 85.824 121.9157
272.000000 85.756 122.0085
276.000000 85.657 122.0507
280.000000 85.562 122.1118
285.000000 85.451 122.3145
290.000000 85.333 122.5199
295.000000 85.217 122.6544
300.000000 85.118 122.8101
304.000000 85.042 122.9608
307.000000 84.984 123.0681
311.000000 84.904 123.2125
315.000000 84.820 123.3685
320.000000 84.716 123.5473
325.000000 84.623 123.6975
330.000000 84.538 123.8823
335.000000 84.451 124.1136
340.000000 84.359 124.3050
345.000000 84.268 124.4874
350.000000 84.178 124.6952
355.000000 84.094 124.9011
360.000000 84.013 125.0703
365.000000 83.931 125.2314
370.000000 83.847 125.4348
375.000000 83.765 125.6661
382.000000 83.656 125.9954
387.000000 83.580 126.2037
395.000000 83.467 126.5775
400.000000 83.393 126.8542
406.000000 83.306 127.1711
412.000000 83.223 127.4408
418.000000 83.145 127.6992
425.000000 83.049 128.0318
431.000000 82.970 128.3442
437.000000 82.904 128.6389
444.000000 82.820 128.9885
450.000000 82.738 129.3129
455.000000 82.679 129.5825
462.000000 82.601 129.9308
468.000000 82.535 130.2313
475.000000 82.457 130.6246
482.000000 82.392 131.0634
487.000000 82.358 131.3093
494.000000 82.300 131.5308
500.000000 82.242 131.7104
508.000000 82.176 132.1040
515.000000 82.109 132.7163
522.000000 82.015 133.2921
530.000000 81.921 133.6586
538.000000 81.883 134.0360
545.000000 81.857 134.4932
552.000000 81.815 134.9574
560.000000 81.761 135.4666
570.000000 81.696 136.1215
580.000000 81.639 136.7782
590.000000 81.594 137.4955
600.000000 81.562 138.3900
608.000000 81.565 139.1183
615.000000 81.596 139.6331
622.000000 81.636 139.8954
630.000000 81.651 139.8856
640.000000 81.594 139.8493
650.000000 81.492 140.1204
660.000000 81.400 140.6085
670.000000 81.325 141.2156
680.000000 81.253 141.9247
690.000000 81.180 142.7850
700.000000 81.125 143.8898
710.000000 81.124 145.0794
720.000000 81.173 145.9982
730.000000 81.220 146.6308
740.000000 81.242 147.1984
750.000000 81.245 147.8263
762.000000 81.243 148.6725
775.000000 81.253 149.6666
788.000000 81.277 150.8155
800.000000 81.307 151.9557
812.000000 81.364 153.0957
825.000000 81.469 154.2315
838.000000 81.589 155.1977
850.000000 81.721 156.1958
862.000000 81.877 157.0905
875.000000 82.038 157.5328
885.000000 82.123 157.9585
900.000000 82.222 158.9107
912.000000 82.329 159.5764
925.000000 82.462 160.1705
938.000000 82.601 160.6971
950.000000 82.728 161.1100
962.000000 82.849 161.4854
975.000000 82.976 161.8547
988.000000 83.111 162.2297
1000.000000 83.240 162.6083
1015.000000 83.403 163.0163
1030.000000 83.565 163.3893
1044.000000 83.716 163.7223
1060.000000 83.895 164.0594
1075.000000 84.069 164.3114
1090.000000 84.248 164.5125
1106.000000 84.445 164.6985
1120.000000 84.621 164.8344
1138.000000 84.852 164.9702
1150.000000 85.009 165.0490
1172.000000 85.293 165.2045
1180.000000 85.394 165.2284
1206.000000 85.719 165.0461
1220.000000 85.895 164.9653
1241.000000 86.167 164.8566
1250.000000 86.284 164.7996
1265.000000 86.480 164.6797
1280.000000 86.677 164.5361
1315.000000 87.128 164.1624
1320.000000 87.190 164.1037
1340.000000 87.435 163.8361
1360.000000 87.661 163.5449
1380.000000 87.887 163.2339
1400.000000 88.130 162.8821
1430.000000 88.506 162.2880
1450.000000 88.754 161.8531
1475.000000 89.060 161.2811
1500.000000 89.370 160.6646
1525.000000 89.680 159.9839
1550.000000 89.986 159.2228
1575.000000 90.290 158.3864
1600.000000 90.586 157.4654
1625.000000 90.877 156.4848
1650.000000 91.164 155.4485
1675.000000 91.450 154.3304
1700.000000 91.731 153.1402
1725.000000 91.998 151.8993
1750.000000 92.250 150.5963
1775.000000 92.488 149.2401
1800.000000 92.713 147.8358
1825.000000 92.929 146.3781
1850.000000 93.133 144.8813
1875.000000 93.323 143.3627
1900.000000 93.498 141.8271
1925.000000 93.658 140.2834
1950.000000 93.803 138.7377
1975.000000 93.934 137.1938
2000.000000 94.050 135.6670
2030.000000 94.169 133.8677
2060.000000 94.269 132.1145
2090.000000 94.354 130.4084
2120.000000 94.425 128.7648
2140.000000 94.465 127.7115
2180.000000 94.526 125.7082
2200.000000 94.547 124.7602
2240.000000 94.575 122.9702
2270.000000 94.588 121.7252
2300.000000 94.594 120.5696
2330.000000 94.593 119.5100
2360.000000 94.587 118.5586
2400.000000 94.580 117.4480
2430.000000 94.584 116.7054
2470.000000 94.603 115.7791
2500.000000 94.622 115.1154
2540.000000 94.645 114.2707
2580.000000 94.664 113.4836
2620.000000 94.686 112.7861
2650.000000 94.710 112.3238
2690.000000 94.755 111.7746
2720.000000 94.796 111.3839
2760.000000 94.860 110.8302
2800.000000 94.925 110.2203
2850.000000 94.999 109.4171
2900.000000 95.062 108.6406
2950.000000 95.120 107.9476
3000.000000 95.178 107.3443
3040.000000 95.229 106.9151
3070.000000 95.271 106.6156
3110.000000 95.332 106.2322
3150.000000 95.397 105.8511
3200.000000 95.479 105.3590
3250.000000 95.555 104.8495
3300.000000 95.622 104.4001
3350.000000 95.700 104.0208
3400.000000 95.789 103.6440
3450.000000 95.880 103.2671
3500.000000 95.973 102.8976
3550.000000 96.067 102.5365
3600.000000 96.163 102.1809
3650.000000 96.260 101.8322
3700.000000 96.356 101.4922
3750.000000 96.449 101.1628
3820.000000 96.574 100.7075
3870.000000 96.654 100.3958
3950.000000 96.758 100.0627
4000.000000 96.824 100.0516
4060.000000 96.933 100.2750
4120.000000 97.102 100.6322
4180.000000 97.338 100.8911
4250.000000 97.678 100.7861
4310.000000 97.996 100.2246
4370.000000 98.314 99.1874
4440.000000 98.667 97.3416
4500.000000 98.939 95.1857
4550.000000 99.128 92.9963
4620.000000 99.306 89.4176
4680.000000 99.362 86.0012
4750.000000 99.298 81.8201
4820.000000 99.090 77.6987
4870.000000 98.858 74.9475
4940.000000 98.430 71.5560
5000.000000 97.984 69.2062
5080.000000 97.315 66.9848
5150.000000 96.697 65.8471
5220.000000 96.071 65.3524
5300.000000 95.354 65.5447
5380.000000 94.660 66.5067
5450.000000 94.088 67.8862
5520.000000 93.555 69.6831
5600.000000 92.994 72.1639
5700.000000 92.370 75.8070
5800.000000 91.847 79.9473
5900.000000 91.440 84.4556
6000.000000 91.154 89.0440
6080.000000 90.986 92.5361
6150.000000 90.848 95.5047
6220.000000 90.714 98.5771
6300.000000 90.595 102.3295
6400.000000 90.538 107.2508
6500.000000 90.593 112.1737
6600.000000 90.755 116.9135
6700.000000 91.011 121.3632
6800.000000 91.351 125.4579
6900.000000 91.784 129.0960
7000.000000 92.307 132.1592
7100.000000 92.890 134.5333
7200.000000 93.505 136.0951
7300.000000 94.117 136.7075
7400.000000 94.681 136.3007
7500.000000 95.151 134.9510
7620.000000 95.544 132.4612
7750.000000 95.716 129.4482
7880.000000 95.579 126.9715
8000.000000 95.270 125.6776
8120.000000 94.900 125.4684
8250.000000 94.522 126.2831
8380.000000 94.232 127.7603
8500.000000 94.068 129.2629
8620.000000 93.990 130.4761
8750.000000 93.949 131.0981
8850.000000 93.910 130.9830
9000.000000 93.778 129.8140
9120.000000 93.552 128.1302
9250.000000 93.135 125.8705
9380.000000 92.509 123.6576
9500.000000 91.752 122.1125
9620.000000 90.849 121.3423
9750.000000 89.743 121.6049
9880.000000 88.549 123.2162
10000.000000 87.419 125.9773
10150.000000 86.042 130.9933
10300.000000 84.762 137.4046
10440.000000 83.683 144.3398
10600.000000 82.596 153.0988
10750.000000 81.726 161.8708
10900.000000 81.000 170.9868
11060.000000 80.380 -179.0647
11200.000000 79.960 -170.2675
11380.000000 79.573 -158.9394
11500.000000 79.409 -151.4342
11720.000000 79.311 -137.9449
11800.000000 79.342 -133.1854
12060.000000 79.691 -118.5975
12200.000000 80.023 -111.5093
12410.000000 80.682 -102.2643
12500.000000 81.022 -98.9688
12650.000000 81.639 -94.7239
12800.000000 82.238 -92.4350
13150.000000 82.838 -94.2891
13200.000000 82.779 -94.9704
13400.000000 82.156 -97.0212
13600.000000 81.065 -96.4972
13800.000000 79.779 -92.7890
14000.000000 78.533 -86.4299
14300.000000 77.003 -73.7599
14500.000000 76.276 -64.3275
14750.000000 75.716 -52.6110
15000.000000 75.491 -42.3508
15250.000000 75.402 -35.2101
15500.000000 75.051 -31.7936
15750.000000 73.995 -29.5647
16000.000000 72.096 -23.7505
16250.000000 69.585 -10.4427
16500.000000 67.027 12.7759
16750.000000 65.851 43.8207
17000.000000 67.166 73.6299
17250.000000 69.699 94.1150
17500.000000 71.936 102.4800
17750.000000 72.983 101.7847
18000.000000 72.714 100.7205
18250.000000 71.641 105.7633
18500.000000 70.688 117.4699
18750.000000 70.714 131.7266
19000.000000 71.516 144.1468
19250.000000 72.301 153.5426
19500.000000 72.640 161.0007
19750.000000 72.527 167.8821
20000.000000 72.054 174.9494
20300.000000 71.185 -175.7151
20600.000000 70.181 -164.5063
20900.000000 69.146 -150.6990
21200.000000 68.277 -134.5552
21400.000000 67.887 -125.1815
21800.000000 67.130 178.5643
22000.000000 66.110 -30.1837
22400.000000 61.726 133.4957
22700.000000 56.815 -171.2207
23000.000000 51.147 175.3691
23300.000000 45.911 4.6777
23600.000000 43.420 -81.9883
24000.000000 42.909 32.6797
