* Measurement data measured by REW V5.20.13
* Source: Headset (DS by VECLAN.COM), MICROPHONE (Master Volume), L, volume: 1.000
* Format: 2M Log Swept Sine, 1 sweep at -12.0 dBFS with no timing reference
* Dated: May 11, 2023 6:40:47 PM
* REW Settings:
*  C-weighting compensation: Off
*  Target level: 75.0 dB
* Note: ; 
* Measurement: ER4SR R
* Smoothing: 1/24 octave
* Frequency Step: 1/48 octave
* Start Frequency: 1.000 Hz
*
* Freq(Hz) SPL(dB) Phase(degrees)
1.000000 71.899 -9.4322
1.015000 72.356 -10.8923
1.030000 72.794 -12.2876
1.044000 73.185 -13.5263
1.060000 73.606 -14.8607
1.075000 73.973 -16.0272
1.090000 74.311 -17.1058
1.106000 74.638 -18.1511
1.120000 74.906 -18.9636
1.138000 75.231 -19.8748
1.150000 75.437 -20.4054
1.172000 75.790 -21.2338
1.180000 75.912 -21.4928
1.206000 76.283 -22.1990
1.220000 76.469 -22.5042
1.241000 76.731 -22.8816
1.250000 76.837 -23.0186
1.265000 77.008 -23.2204
1.280000 77.170 -23.3961
1.315000 77.521 -23.7508
1.320000 77.569 -23.7996
1.340000 77.753 -24.0021
1.360000 77.929 -24.2307
1.380000 78.099 -24.5050
1.400000 78.265 -24.8442
1.430000 78.510 -25.5171
1.450000 78.673 -26.1033
1.475000 78.877 -27.0159
1.500000 79.066 -28.0669
1.525000 79.235 -29.2231
1.550000 79.388 -30.4673
1.575000 79.527 -31.7823
1.600000 79.652 -33.1506
1.625000 79.766 -34.5552
1.650000 79.872 -35.9786
1.675000 79.971 -37.4036
1.700000 80.065 -38.8130
1.725000 80.157 -40.1894
1.750000 80.247 -41.5155
1.775000 80.339 -42.7741
1.800000 80.433 -43.9479
1.825000 80.533 -45.0196
1.850000 80.637 -45.9850
1.875000 80.737 -46.8716
1.900000 80.834 -47.6899
1.925000 80.928 -48.4492
1.950000 81.019 -49.1588
1.975000 81.108 -49.8281
2.000000 81.195 -50.4663
2.030000 81.299 -51.2044
2.060000 81.400 -51.9275
2.090000 81.502 -52.6515
2.120000 81.603 -53.3928
2.140000 81.671 -53.9044
2.180000 81.809 -54.9913
2.200000 81.879 -55.5758
2.240000 82.021 -56.7931
2.270000 82.129 -57.7304
2.300000 82.236 -58.6839
2.330000 82.344 -59.6494
2.360000 82.451 -60.6225
2.400000 82.593 -61.9248
2.430000 82.699 -62.8994
2.470000 82.837 -64.1882
2.500000 82.939 -65.1413
2.540000 83.071 -66.3860
2.580000 83.199 -67.5947
2.620000 83.323 -68.7870
2.650000 83.414 -69.6733
2.690000 83.534 -70.8435
2.720000 83.622 -71.7118
2.760000 83.737 -72.8558
2.800000 83.849 -73.9832
2.850000 83.987 -75.3668
2.900000 84.121 -76.7196
2.950000 84.253 -78.0371
3.000000 84.381 -79.3043
3.040000 84.481 -80.2871
3.070000 84.554 -81.0105
3.110000 84.650 -81.9621
3.150000 84.744 -82.9053
3.200000 84.858 -84.0824
3.250000 84.969 -85.2699
3.300000 85.076 -86.4808
3.350000 85.180 -87.7256
3.400000 85.280 -88.9950
3.450000 85.377 -90.2735
3.500000 85.470 -91.5454
3.550000 85.560 -92.7952
3.600000 85.648 -94.0073
3.650000 85.732 -95.1661
3.700000 85.813 -96.2599
3.750000 85.890 -97.2969
3.820000 85.993 -98.6784
3.870000 86.064 -99.6328
3.950000 86.170 -101.1404
4.000000 86.234 -102.0909
4.060000 86.307 -103.2591
4.120000 86.377 -104.4495
4.180000 86.442 -105.6447
4.250000 86.514 -107.0229
4.310000 86.573 -108.1715
4.370000 86.629 -109.2721
4.440000 86.691 -110.4789
4.500000 86.740 -111.4562
4.550000 86.778 -112.2392
4.620000 86.829 -113.3004
4.680000 86.871 -114.1893
4.750000 86.917 -115.2178
4.820000 86.961 -116.2447
4.870000 86.990 -116.9703
4.940000 87.028 -117.9691
5.000000 87.060 -118.8046
5.080000 87.099 -119.8805
5.150000 87.131 -120.7789
5.220000 87.162 -121.6360
5.300000 87.194 -122.5724
5.380000 87.224 -123.4713
5.450000 87.249 -124.2341
5.520000 87.274 -124.9798
5.600000 87.299 -125.8044
5.700000 87.330 -126.7932
5.800000 87.358 -127.7395
5.900000 87.384 -128.6470
6.000000 87.409 -129.5135
6.080000 87.428 -130.1775
6.150000 87.444 -130.7378
6.220000 87.459 -131.2794
6.300000 87.477 -131.8730
6.400000 87.497 -132.5762
6.500000 87.518 -133.2459
6.600000 87.538 -133.8919
6.700000 87.559 -134.5137
6.800000 87.580 -135.1086
6.900000 87.602 -135.6793
7.000000 87.624 -136.2274
7.100000 87.648 -136.7462
7.200000 87.672 -137.2445
7.300000 87.697 -137.7340
7.400000 87.724 -138.2200
7.500000 87.752 -138.6954
7.620000 87.786 -139.2595
7.750000 87.822 -139.8721
7.880000 87.860 -140.4816
8.000000 87.894 -141.0466
8.120000 87.925 -141.6211
8.250000 87.957 -142.2538
8.380000 87.985 -142.8880
8.500000 88.007 -143.4709
8.620000 88.024 -144.0562
8.750000 88.037 -144.6765
8.850000 88.043 -145.1355
9.000000 88.046 -145.8056
9.120000 88.044 -146.3096
9.250000 88.039 -146.8111
9.380000 88.032 -147.2727
9.500000 88.022 -147.6604
9.620000 88.012 -148.0061
9.750000 87.999 -148.3362
9.880000 87.984 -148.6354
10.000000 87.966 -148.8856
10.150000 87.942 -149.1638
10.300000 87.917 -149.4321
10.440000 87.894 -149.6677
10.600000 87.868 -149.9432
10.750000 87.850 -150.2284
10.900000 87.834 -150.5325
11.060000 87.817 -150.8886
11.200000 87.802 -151.2312
11.380000 87.778 -151.6726
11.500000 87.757 -151.9658
11.720000 87.713 -152.4714
11.800000 87.696 -152.6324
12.060000 87.639 -153.0841
12.200000 87.613 -153.2703
12.410000 87.579 -153.4861
12.500000 87.569 -153.5658
12.650000 87.557 -153.6709
12.800000 87.550 -153.7769
13.150000 87.558 -154.1048
13.200000 87.560 -154.1681
13.400000 87.572 -154.4720
13.600000 87.577 -154.8314
13.800000 87.571 -155.2495
14.000000 87.550 -155.6472
14.300000 87.489 -156.1483
14.500000 87.432 -156.3220
14.750000 87.364 -156.3186
15.000000 87.312 -156.0678
15.250000 87.303 -155.6486
15.500000 87.341 -155.2246
15.750000 87.426 -154.9078
16.000000 87.543 -154.8683
16.250000 87.665 -155.1680
16.500000 87.775 -155.8011
16.750000 87.851 -156.7242
17.000000 87.879 -157.7831
17.250000 87.859 -158.8707
17.500000 87.788 -159.8534
17.750000 87.682 -160.5903
18.000000 87.555 -161.0413
18.250000 87.426 -161.1657
18.500000 87.320 -161.0167
18.750000 87.249 -160.6901
19.000000 87.222 -160.2777
19.250000 87.238 -159.9476
19.500000 87.283 -159.7747
19.750000 87.348 -159.8158
20.000000 87.410 -160.0861
20.299999 87.465 -160.6311
20.600000 87.490 -161.3069
20.900000 87.481 -161.9769
21.200001 87.448 -162.5205
21.400000 87.422 -162.7829
21.799999 87.377 -163.1011
22.000000 87.365 -163.1929
22.400000 87.367 -163.3533
22.700001 87.384 -163.5236
23.000000 87.403 -163.7582
23.299999 87.419 -164.0249
23.600000 87.428 -164.2834
24.000000 87.438 -164.5685
24.299999 87.449 -164.7373
24.700001 87.470 -164.9459
25.000000 87.489 -165.1242
25.400000 87.509 -165.4023
25.799999 87.517 -165.6853
26.200001 87.513 -165.9162
26.500000 87.507 -166.0420
26.900000 87.499 -166.1632
27.200001 87.494 -166.2404
27.600000 87.485 -166.3379
28.000000 87.472 -166.4064
28.500000 87.453 -166.3957
29.000000 87.450 -166.2899
29.500000 87.475 -166.2136
30.000000 87.517 -166.3146
30.400000 87.548 -166.5506
30.700001 87.562 -166.7937
31.100000 87.565 -167.1458
31.500000 87.553 -167.4671
32.000000 87.526 -167.7502
32.500000 87.501 -167.8761
33.000000 87.495 -167.8990
33.500000 87.509 -167.9231
34.000000 87.536 -168.0351
34.500000 87.557 -168.2277
35.000000 87.566 -168.4178
35.500000 87.569 -168.5317
36.000000 87.577 -168.5852
36.500000 87.592 -168.6521
37.000000 87.605 -168.7794
37.500000 87.609 -168.9385
38.200001 87.600 -169.1078
38.700001 87.593 -169.1790
39.500000 87.590 -169.3091
40.000000 87.587 -169.4110
40.599998 87.582 -169.5105
41.200001 87.585 -169.5825
41.799999 87.600 -169.6916
42.500000 87.617 -169.9116
43.099998 87.624 -170.1182
43.700001 87.625 -170.2710
44.400002 87.630 -170.3854
45.000000 87.637 -170.4696
45.500000 87.642 -170.5372
46.200001 87.649 -170.6192
46.799999 87.656 -170.6932
47.500000 87.662 -170.8156
48.200001 87.657 -170.9565
48.700001 87.648 -171.0366
49.400002 87.634 -171.0949
50.000000 87.626 -171.1021
50.799999 87.631 -171.1039
51.500000 87.646 -171.1790
52.200001 87.659 -171.3523
53.000000 87.656 -171.5568
53.799999 87.648 -171.6344
54.500000 87.654 -171.6380
55.200001 87.670 -171.6701
56.000000 87.692 -171.7646
57.000000 87.715 -171.9552
58.000000 87.719 -172.1919
59.000000 87.705 -172.3033
60.000000 87.704 -172.2926
60.799999 87.713 -172.3247
61.500000 87.721 -172.3933
62.200001 87.725 -172.4780
63.000000 87.725 -172.5851
64.000000 87.718 -172.6933
65.000000 87.712 -172.7515
66.000000 87.713 -172.8087
67.000000 87.715 -172.8868
68.000000 87.713 -172.9718
69.000000 87.712 -173.0323
70.000000 87.713 -173.1010
71.000000 87.709 -173.1817
72.000000 87.702 -173.2195
73.000000 87.702 -173.2468
74.000000 87.703 -173.3086
75.000000 87.701 -173.3872
76.199997 87.697 -173.4593
77.500000 87.697 -173.5128
78.800003 87.700 -173.5827
80.000000 87.700 -173.6383
81.199997 87.700 -173.6926
82.500000 87.696 -173.7502
83.800003 87.690 -173.7777
85.000000 87.688 -173.7962
86.199997 87.688 -173.8334
87.500000 87.687 -173.8612
88.500000 87.687 -173.8559
90.000000 87.696 -173.8640
91.199997 87.699 -173.9269
92.500000 87.693 -173.9921
93.800003 87.685 -174.0303
95.000000 87.679 -174.0511
96.199997 87.675 -174.0723
97.500000 87.673 -174.1032
98.800003 87.672 -174.1481
100.000000 87.668 -174.1781
101.500000 87.663 -174.1825
103.000000 87.662 -174.1788
104.400002 87.660 -174.1920
106.000000 87.654 -174.2101
107.500000 87.647 -174.2131
109.000000 87.640 -174.2014
110.599998 87.636 -174.1942
112.000000 87.632 -174.2015
113.800003 87.625 -174.2082
115.000000 87.619 -174.2025
117.199997 87.612 -174.1859
118.000000 87.609 -174.1853
120.599998 87.597 -174.1662
122.000000 87.593 -174.1462
124.099998 87.590 -174.1148
125.000000 87.589 -174.1029
126.500000 87.588 -174.0883
128.000000 87.586 -174.0729
131.500000 87.580 -173.9987
132.000000 87.580 -173.9857
134.000000 87.580 -173.9444
136.000000 87.581 -173.9213
138.000000 87.581 -173.9033
140.000000 87.580 -173.8613
143.000000 87.581 -173.7690
145.000000 87.583 -173.7268
147.500000 87.584 -173.6954
150.000000 87.585 -173.6395
152.500000 87.585 -173.5627
155.000000 87.583 -173.4942
157.500000 87.579 -173.4261
160.000000 87.577 -173.3402
162.500000 87.574 -173.2591
165.000000 87.570 -173.2023
167.500000 87.568 -173.1457
170.000000 87.565 -173.0578
172.500000 87.559 -172.9731
175.000000 87.549 -172.8969
177.500000 87.542 -172.8014
180.000000 87.537 -172.6879
182.500000 87.530 -172.5721
185.000000 87.522 -172.4763
187.500000 87.516 -172.3960
190.000000 87.512 -172.3081
192.500000 87.509 -172.2045
195.000000 87.505 -172.0985
197.500000 87.501 -172.0029
200.000000 87.499 -171.9117
203.000000 87.498 -171.7864
206.000000 87.496 -171.6432
209.000000 87.492 -171.5206
212.000000 87.485 -171.3932
214.000000 87.483 -171.3032
218.000000 87.481 -171.1491
220.000000 87.480 -171.0747
224.000000 87.478 -170.9102
227.000000 87.473 -170.7656
230.000000 87.469 -170.6167
233.000000 87.467 -170.4709
236.000000 87.464 -170.3223
240.000000 87.462 -170.1434
243.000000 87.462 -170.0134
247.000000 87.459 -169.8173
250.000000 87.456 -169.6719
254.000000 87.456 -169.4831
258.000000 87.456 -169.2825
262.000000 87.453 -169.0844
265.000000 87.450 -168.9439
269.000000 87.450 -168.7560
272.000000 87.453 -168.6034
276.000000 87.456 -168.3941
280.000000 87.458 -168.1973
285.000000 87.461 -167.9523
290.000000 87.466 -167.7055
295.000000 87.469 -167.4631
300.000000 87.469 -167.2051
304.000000 87.475 -166.9923
307.000000 87.481 -166.8402
311.000000 87.488 -166.6441
315.000000 87.493 -166.4388
320.000000 87.498 -166.1718
325.000000 87.507 -165.9032
330.000000 87.515 -165.6459
335.000000 87.519 -165.3887
340.000000 87.523 -165.1216
345.000000 87.530 -164.8478
350.000000 87.535 -164.5868
355.000000 87.536 -164.3393
360.000000 87.537 -164.0821
365.000000 87.541 -163.7931
370.000000 87.547 -163.4893
375.000000 87.554 -163.2169
382.000000 87.565 -162.8995
387.000000 87.569 -162.6501
395.000000 87.565 -162.2009
400.000000 87.564 -161.9258
406.000000 87.568 -161.5927
412.000000 87.569 -161.2455
418.000000 87.575 -160.8751
425.000000 87.585 -160.4846
431.000000 87.590 -160.1775
437.000000 87.594 -159.8568
444.000000 87.601 -159.4489
450.000000 87.606 -159.1042
455.000000 87.610 -158.8338
462.000000 87.617 -158.4510
468.000000 87.624 -158.0966
475.000000 87.633 -157.6780
482.000000 87.641 -157.2900
487.000000 87.649 -157.0197
494.000000 87.661 -156.6178
500.000000 87.672 -156.2569
508.000000 87.685 -155.7840
515.000000 87.696 -155.3872
522.000000 87.708 -154.9888
530.000000 87.721 -154.5067
538.000000 87.735 -154.0178
545.000000 87.750 -153.6074
552.000000 87.766 -153.2018
560.000000 87.783 -152.7171
570.000000 87.806 -152.0815
580.000000 87.831 -151.4680
590.000000 87.856 -150.8697
600.000000 87.881 -150.2204
608.000000 87.899 -149.6941
615.000000 87.913 -149.2533
622.000000 87.929 -148.8201
630.000000 87.947 -148.3041
640.000000 87.971 -147.6289
650.000000 87.997 -146.9715
660.000000 88.025 -146.3248
670.000000 88.054 -145.6518
680.000000 88.084 -144.9603
690.000000 88.117 -144.2782
700.000000 88.153 -143.6041
710.000000 88.191 -142.9213
720.000000 88.229 -142.2211
730.000000 88.270 -141.5132
740.000000 88.314 -140.8113
750.000000 88.361 -140.1147
762.000000 88.420 -139.2683
775.000000 88.485 -138.3456
788.000000 88.555 -137.4355
800.000000 88.621 -136.5947
812.000000 88.690 -135.7416
825.000000 88.768 -134.8262
838.000000 88.853 -133.9333
850.000000 88.937 -133.1118
862.000000 89.022 -132.2749
875.000000 89.118 -131.3883
885.000000 89.198 -130.7352
900.000000 89.323 -129.7779
912.000000 89.425 -129.0144
925.000000 89.538 -128.2024
938.000000 89.657 -127.4305
950.000000 89.771 -126.7537
962.000000 89.887 -126.0951
975.000000 90.011 -125.3980
988.000000 90.138 -124.7412
1000.000000 90.258 -124.1794
1015.000000 90.411 -123.5235
1030.000000 90.565 -122.9030
1044.000000 90.710 -122.3524
1060.000000 90.884 -121.7921
1075.000000 91.051 -121.3493
1090.000000 91.221 -120.9309
1106.000000 91.403 -120.4922
1120.000000 91.566 -120.1637
1138.000000 91.779 -119.8353
1150.000000 91.920 -119.6571
1172.000000 92.167 -119.3937
1180.000000 92.254 -119.3242
1206.000000 92.534 -119.2168
1220.000000 92.683 -119.2294
1241.000000 92.894 -119.3421
1250.000000 92.976 -119.4296
1265.000000 93.096 -119.6119
1280.000000 93.190 -119.7628
1315.000000 93.365 -119.3983
1320.000000 93.394 -119.2674
1340.000000 93.533 -118.7285
1360.000000 93.682 -118.3097
1380.000000 93.840 -118.0236
1400.000000 94.006 -117.7989
1430.000000 94.255 -117.5335
1450.000000 94.421 -117.4043
1475.000000 94.627 -117.2607
1500.000000 94.823 -117.1134
1525.000000 95.016 -116.9810
1550.000000 95.208 -116.8788
1575.000000 95.399 -116.7887
1600.000000 95.588 -116.7059
1625.000000 95.778 -116.6450
1650.000000 95.970 -116.6170
1675.000000 96.164 -116.6189
1700.000000 96.355 -116.6420
1725.000000 96.546 -116.6935
1750.000000 96.739 -116.7886
1775.000000 96.935 -116.9308
1800.000000 97.130 -117.1093
1825.000000 97.323 -117.3228
1850.000000 97.517 -117.5900
1875.000000 97.712 -117.9185
1900.000000 97.904 -118.2945
1925.000000 98.092 -118.7173
1950.000000 98.279 -119.2020
1975.000000 98.464 -119.7569
2000.000000 98.646 -120.3731
2030.000000 98.856 -121.1853
2060.000000 99.059 -122.0919
2090.000000 99.253 -123.0955
2120.000000 99.432 -124.1770
2140.000000 99.542 -124.9339
2180.000000 99.742 -126.5371
2200.000000 99.831 -127.3812
2240.000000 99.983 -129.1198
2270.000000 100.074 -130.4496
2300.000000 100.144 -131.7905
2330.000000 100.195 -133.1291
2360.000000 100.228 -134.4522
2400.000000 100.245 -136.1657
2430.000000 100.235 -137.3887
2470.000000 100.194 -138.9088
2500.000000 100.148 -139.9593
2540.000000 100.073 -141.2303
2580.000000 99.978 -142.3190
2620.000000 99.867 -143.2061
2650.000000 99.782 -143.7497
2690.000000 99.672 -144.3245
2720.000000 99.590 -144.6371
2760.000000 99.480 -144.9012
2800.000000 99.380 -145.0320
2850.000000 99.284 -145.0769
2900.000000 99.214 -145.0319
2950.000000 99.159 -144.9360
3000.000000 99.124 -144.8415
3040.000000 99.109 -144.7831
3070.000000 99.103 -144.7510
3110.000000 99.099 -144.7253
3150.000000 99.098 -144.7224
3200.000000 99.105 -144.7549
3250.000000 99.115 -144.8176
3300.000000 99.126 -144.8921
3350.000000 99.139 -144.9765
3400.000000 99.162 -145.0782
3450.000000 99.197 -145.1979
3500.000000 99.239 -145.3372
3550.000000 99.287 -145.5150
3600.000000 99.346 -145.7552
3650.000000 99.415 -146.0734
3700.000000 99.488 -146.4752
3750.000000 99.558 -146.9710
3820.000000 99.658 -147.8618
3870.000000 99.726 -148.6597
3950.000000 99.814 -150.2267
4000.000000 99.847 -151.3862
4060.000000 99.861 -152.9557
4120.000000 99.843 -154.6981
4180.000000 99.784 -156.5668
4250.000000 99.650 -158.8237
4310.000000 99.475 -160.7552
4370.000000 99.245 -162.6194
4440.000000 98.910 -164.6252
4500.000000 98.571 -166.1314
4550.000000 98.259 -167.2037
4620.000000 97.790 -168.3976
4680.000000 97.367 -169.1114
4750.000000 96.852 -169.5588
4820.000000 96.323 -169.5907
4870.000000 95.946 -169.3697
4940.000000 95.431 -168.7385
5000.000000 95.002 -167.9121
5080.000000 94.453 -166.4295
5150.000000 94.002 -164.8209
5220.000000 93.589 -162.9703
5300.000000 93.168 -160.6123
5380.000000 92.800 -158.0541
5450.000000 92.522 -155.7076
5520.000000 92.289 -153.3164
5600.000000 92.078 -150.5941
5700.000000 91.884 -147.2963
5800.000000 91.749 -144.2020
5900.000000 91.656 -141.3713
6000.000000 91.590 -138.8154
6080.000000 91.545 -136.9436
6150.000000 91.508 -135.4063
6220.000000 91.472 -133.9474
6300.000000 91.433 -132.3583
6400.000000 91.379 -130.4509
6500.000000 91.317 -128.5959
6600.000000 91.256 -126.7804
6700.000000 91.196 -124.9855
6800.000000 91.141 -123.1945
6900.000000 91.113 -121.4045
7000.000000 91.118 -119.6069
7100.000000 91.141 -117.7975
7200.000000 91.172 -116.0006
7300.000000 91.212 -114.2659
7400.000000 91.261 -112.6010
7500.000000 91.318 -110.9843
7620.000000 91.406 -109.0783
7750.000000 91.517 -107.0471
7880.000000 91.572 -105.0534
8000.000000 91.599 -103.2465
8120.000000 91.631 -101.4629
8250.000000 91.669 -99.5415
8380.000000 91.715 -97.6186
8500.000000 91.774 -95.8430
8620.000000 91.852 -94.0723
8750.000000 91.951 -92.1756
8850.000000 92.037 -90.7476
9000.000000 92.205 -88.7166
9120.000000 92.378 -87.2440
9250.000000 92.599 -85.8614
9380.000000 92.848 -84.7621
9500.000000 93.101 -84.0502
9620.000000 93.373 -83.6682
9750.000000 93.685 -83.6542
9880.000000 94.002 -84.0683
10000.000000 94.291 -84.8316
10150.000000 94.639 -86.2943
10300.000000 94.974 -88.3215
10440.000000 95.273 -90.7606
10600.000000 95.595 -94.3294
10750.000000 95.870 -98.6697
10900.000000 96.083 -104.2678
11060.000000 96.154 -111.8454
11200.000000 95.983 -119.7105
11380.000000 95.311 -130.5956
11500.000000 94.557 -137.4982
11720.000000 92.628 -147.5259
11800.000000 91.800 -150.0650
12060.000000 88.905 -154.2614
12200.000000 87.337 -154.3630
12410.000000 85.086 -152.4486
12500.000000 84.169 -151.0383
12650.000000 82.707 -148.0826
12800.000000 81.329 -144.5150
13150.000000 78.426 -134.4568
13200.000000 78.045 -132.8671
13400.000000 76.593 -126.2149
13600.000000 75.249 -119.1760
13800.000000 74.019 -111.8382
14000.000000 72.898 -104.2557
14300.000000 71.382 -92.5184
14500.000000 70.479 -84.5115
14750.000000 69.455 -74.3441
15000.000000 68.529 -64.0340
15250.000000 67.702 -53.6148
15500.000000 67.016 -43.1131
15750.000000 66.493 -32.5440
16000.000000 66.088 -21.9499
16250.000000 65.764 -11.3889
16500.000000 65.497 -0.9377
16750.000000 65.290 9.4378
17000.000000 65.155 19.7387
17250.000000 65.103 29.8898
17500.000000 65.148 39.8420
17750.000000 65.292 49.4862
18000.000000 65.533 58.5871
18250.000000 65.881 66.8857
18500.000000 66.372 74.0840
18750.000000 67.002 80.0918
19000.000000 67.626 85.5620
19250.000000 68.075 91.4913
19500.000000 68.306 97.6163
19750.000000 68.316 102.1779
20000.000000 67.894 103.7299
20300.000000 66.463 102.4886
20600.000000 63.826 101.8663
20900.000000 59.978 103.0667
21200.000000 55.124 75.0267
21400.000000 51.449 -51.7531
21800.000000 43.222 -121.5665
22000.000000 38.698 171.3159
22400.000000 28.850 137.7314
22700.000000 21.087 108.8223
23000.000000 14.676 -123.9922
23300.000000 11.571 130.4219
23600.000000 10.393 96.0469
24000.000000 9.555 179.3750
