* Measurement data measured by REW V5.31
* Source: Headset (DS by VECLAN.COM), MICROPHONE (Master Volume), L, volume: 0.720. Timing signal peak level -28.6 dBFS, measurement signal peak level -23.3 dBFS
* Format: 2M Log Swept Sine, 1 sweep at -12.0 dBFS using an acoustic timing reference
* Dated: Apr 18, 2024 5:59:45 PM
* REW Settings:
*  C-weighting compensation: Off
*  Target level: 75.0 dB
* Note: ; test Delay -0.0209 ms (-7.2 mm, -0.28 in) using estimated IR delay relative to Acoustic reference played from HEADPHONE R with no timing offset
* Measurement: Etymotic ER3XR R
* Smoothing: 1/24 octave
* Frequency Step: 1/48 octave
* Start Frequency: 1.000 Hz
*
* Freq(Hz), SPL(dB), Phase(degrees)
1.000000, 80.909, -82.5465
1.015000, 81.249, -83.1010
1.030000, 81.584, -83.6613
1.044000, 81.892, -84.1917
1.060000, 82.238, -84.8086
1.075000, 82.555, -85.3991
1.090000, 82.865, -86.0011
1.106000, 83.191, -86.6448
1.120000, 83.473, -87.1893
1.138000, 83.834, -87.8503
1.150000, 84.074, -88.2668
1.172000, 84.510, -88.9905
1.180000, 84.668, -89.2466
1.206000, 85.174, -90.0337
1.220000, 85.442, -90.4324
1.241000, 85.838, -91.0024
1.250000, 86.005, -91.2376
1.265000, 86.279, -91.6193
1.280000, 86.548, -91.9897
1.315000, 87.152, -92.8208
1.320000, 87.235, -92.9366
1.340000, 87.561, -93.3953
1.360000, 87.873, -93.8479
1.380000, 88.171, -94.3369
1.400000, 88.453, -94.8418
1.430000, 88.843, -95.6078
1.450000, 89.081, -96.1273
1.475000, 89.349, -96.7809
1.500000, 89.581, -97.4169
1.525000, 89.779, -98.0237
1.550000, 89.946, -98.6010
1.575000, 90.085, -99.1722
1.600000, 90.202, -99.7571
1.625000, 90.299, -100.3195
1.650000, 90.382, -100.8626
1.675000, 90.453, -101.3898
1.700000, 90.518, -101.9043
1.725000, 90.579, -102.4095
1.750000, 90.642, -102.9087
1.775000, 90.709, -103.4220
1.800000, 90.785, -103.9689
1.825000, 90.873, -104.5174
1.850000, 90.969, -105.0670
1.875000, 91.066, -105.6119
1.900000, 91.162, -106.1481
1.925000, 91.256, -106.6738
1.950000, 91.349, -107.1871
1.975000, 91.439, -107.7043
2.000000, 91.529, -108.2413
2.030000, 91.633, -108.8676
2.060000, 91.736, -109.4768
2.090000, 91.836, -110.0706
2.120000, 91.934, -110.6506
2.140000, 91.999, -111.0308
2.180000, 92.124, -111.8001
2.200000, 92.186, -112.2005
2.240000, 92.306, -112.9986
2.270000, 92.392, -113.5937
2.300000, 92.477, -114.1825
2.330000, 92.559, -114.7618
2.360000, 92.639, -115.3299
2.400000, 92.743, -116.1146
2.430000, 92.819, -116.6930
2.470000, 92.917, -117.4404
2.500000, 92.988, -117.9832
2.540000, 93.081, -118.6846
2.580000, 93.171, -119.3857
2.620000, 93.258, -120.1185
2.650000, 93.321, -120.6645
2.690000, 93.402, -121.3842
2.720000, 93.461, -121.9148
2.760000, 93.537, -122.6042
2.800000, 93.610, -123.3115
2.850000, 93.697, -124.1662
2.900000, 93.781, -124.9784
2.950000, 93.860, -125.7551
3.000000, 93.935, -126.5490
3.040000, 93.992, -127.1881
3.070000, 94.033, -127.6605
3.110000, 94.085, -128.2776
3.150000, 94.134, -128.8768
3.200000, 94.194, -129.6264
3.250000, 94.251, -130.3525
3.300000, 94.306, -131.0406
3.350000, 94.359, -131.7029
3.400000, 94.408, -132.3839
3.450000, 94.455, -133.0618
3.500000, 94.499, -133.7176
3.550000, 94.541, -134.3459
3.600000, 94.581, -134.9693
3.650000, 94.619, -135.5710
3.700000, 94.656, -136.1454
3.750000, 94.691, -136.7020
3.820000, 94.737, -137.4892
3.870000, 94.767, -138.0367
3.950000, 94.814, -138.8663
4.000000, 94.843, -139.3744
4.060000, 94.877, -139.9648
4.120000, 94.909, -140.5300
4.180000, 94.941, -141.0808
4.250000, 94.977, -141.7290
4.310000, 95.007, -142.2579
4.370000, 95.036, -142.7661
4.440000, 95.069, -143.3642
4.500000, 95.097, -143.8580
4.550000, 95.120, -144.2563
4.620000, 95.151, -144.8222
4.680000, 95.177, -145.2956
4.750000, 95.207, -145.8264
4.820000, 95.237, -146.3600
4.870000, 95.258, -146.7353
4.940000, 95.287, -147.2458
5.000000, 95.311, -147.6853
5.080000, 95.343, -148.2651
5.150000, 95.369, -148.7550
5.220000, 95.393, -149.2547
5.300000, 95.420, -149.8195
5.380000, 95.446, -150.3699
5.450000, 95.466, -150.8549
5.520000, 95.486, -151.3237
5.600000, 95.506, -151.8570
5.700000, 95.528, -152.5216
5.800000, 95.548, -153.1640
5.900000, 95.563, -153.7928
6.000000, 95.575, -154.4047
6.080000, 95.582, -154.8911
6.150000, 95.586, -155.2949
6.220000, 95.589, -155.6934
6.300000, 95.590, -156.1290
6.400000, 95.589, -156.6518
6.500000, 95.585, -157.1537
6.600000, 95.579, -157.6156
6.700000, 95.571, -158.0492
6.800000, 95.561, -158.4482
6.900000, 95.551, -158.8195
7.000000, 95.542, -159.1501
7.100000, 95.534, -159.4491
7.200000, 95.526, -159.7148
7.300000, 95.520, -159.9593
7.400000, 95.517, -160.1752
7.500000, 95.516, -160.3728
7.620000, 95.519, -160.5851
7.750000, 95.527, -160.7978
7.880000, 95.541, -160.9994
8.000000, 95.558, -161.1792
8.120000, 95.578, -161.3727
8.250000, 95.604, -161.5946
8.380000, 95.632, -161.8314
8.500000, 95.658, -162.0760
8.620000, 95.683, -162.3388
8.750000, 95.709, -162.6396
8.850000, 95.726, -162.8823
9.000000, 95.747, -163.2576
9.120000, 95.760, -163.5614
9.250000, 95.769, -163.8874
9.380000, 95.774, -164.2037
9.500000, 95.774, -164.4815
9.620000, 95.772, -164.7325
9.750000, 95.766, -164.9780
9.880000, 95.751, -165.1973
10.000000, 95.729, -165.3647
10.150000, 95.691, -165.5715
10.300000, 95.649, -165.7373
10.440000, 95.609, -165.8585
10.600000, 95.565, -165.9736
10.750000, 95.531, -166.0719
10.900000, 95.501, -166.1671
11.060000, 95.474, -166.3054
11.200000, 95.453, -166.4762
11.380000, 95.425, -166.7077
11.500000, 95.403, -166.8690
11.720000, 95.358, -167.1615
11.800000, 95.341, -167.2620
12.060000, 95.280, -167.5737
12.200000, 95.248, -167.7452
12.410000, 95.200, -167.9435
12.500000, 95.179, -168.0048
12.650000, 95.146, -168.0763
12.800000, 95.115, -168.1165
13.150000, 95.062, -168.1817
13.200000, 95.057, -168.1976
13.400000, 95.043, -168.2629
13.600000, 95.036, -168.3444
13.800000, 95.032, -168.4515
14.000000, 95.028, -168.5868
14.300000, 95.019, -168.8957
14.500000, 95.007, -169.0992
14.750000, 94.987, -169.3222
15.000000, 94.966, -169.4981
15.250000, 94.953, -169.6784
15.500000, 94.946, -169.8224
15.750000, 94.944, -169.9463
16.000000, 94.945, -170.0711
16.250000, 94.949, -170.2511
16.500000, 94.951, -170.4393
16.750000, 94.950, -170.6229
17.000000, 94.947, -170.7896
17.250000, 94.944, -170.9550
17.500000, 94.940, -171.0864
17.750000, 94.938, -171.1850
18.000000, 94.939, -171.2641
18.250000, 94.944, -171.3572
18.500000, 94.950, -171.4540
18.750000, 94.957, -171.5560
19.000000, 94.964, -171.6625
19.250000, 94.970, -171.7931
19.500000, 94.974, -171.9164
19.750000, 94.977, -172.0273
20.000000, 94.978, -172.1244
20.299999, 94.978, -172.2545
20.600000, 94.978, -172.3684
20.900000, 94.976, -172.4665
21.200001, 94.973, -172.5650
21.400000, 94.970, -172.6246
21.799999, 94.966, -172.7113
22.000000, 94.965, -172.7430
22.400000, 94.968, -172.8291
22.700001, 94.974, -172.9009
23.000000, 94.981, -172.9917
23.299999, 94.989, -173.1222
23.600000, 94.994, -173.2668
24.000000, 94.996, -173.4569
24.299999, 94.995, -173.5999
24.700001, 94.992, -173.7554
25.000000, 94.992, -173.8464
25.400000, 94.994, -173.9696
25.799999, 95.000, -174.0853
26.200001, 95.006, -174.2115
26.500000, 95.010, -174.3126
26.900000, 95.014, -174.4383
27.200001, 95.017, -174.5280
27.600000, 95.020, -174.6348
28.000000, 95.023, -174.7244
28.500000, 95.028, -174.8388
29.000000, 95.034, -174.9514
29.500000, 95.038, -175.0786
30.000000, 95.038, -175.1952
30.400000, 95.036, -175.2823
30.700001, 95.035, -175.3348
31.100000, 95.036, -175.3986
31.500000, 95.040, -175.4792
32.000000, 95.047, -175.6023
32.500000, 95.051, -175.7636
33.000000, 95.052, -175.9232
33.500000, 95.050, -176.0710
34.000000, 95.052, -176.1979
34.500000, 95.058, -176.3299
35.000000, 95.063, -176.4635
35.500000, 95.066, -176.5897
36.000000, 95.069, -176.6898
36.500000, 95.076, -176.7787
37.000000, 95.084, -176.8748
37.500000, 95.092, -176.9942
38.200001, 95.095, -177.1602
38.700001, 95.094, -177.2575
39.500000, 95.096, -177.3861
40.000000, 95.100, -177.4765
40.599998, 95.103, -177.6152
41.200001, 95.102, -177.7500
41.799999, 95.100, -177.8593
42.500000, 95.106, -177.9899
43.099998, 95.114, -178.1459
43.700001, 95.114, -178.3179
44.400002, 95.110, -178.4559
45.000000, 95.115, -178.5356
45.500000, 95.125, -178.6371
46.200001, 95.132, -178.8516
46.799999, 95.123, -179.0142
47.500000, 95.112, -179.0816
48.200001, 95.118, -179.0959
48.700001, 95.128, -179.1508
49.400002, 95.135, -179.2806
50.000000, 95.134, -179.3697
50.799999, 95.137, -179.4529
51.500000, 95.141, -179.5721
52.200001, 95.133, -179.6920
53.000000, 95.123, -179.7100
53.799999, 95.136, -179.7356
54.500000, 95.150, -179.8893
55.200001, 95.149, 179.9069
56.000000, 95.141, 179.7247
57.000000, 95.134, 179.5568
58.000000, 95.135, 179.3972
59.000000, 95.137, 179.2212
60.000000, 95.139, 179.0864
60.799999, 95.146, 178.9740
61.500000, 95.147, 178.8557
62.200001, 95.143, 178.7654
63.000000, 95.142, 178.6922
64.000000, 95.139, 178.5828
65.000000, 95.133, 178.4777
66.000000, 95.131, 178.3676
67.000000, 95.127, 178.2112
68.000000, 95.120, 178.0561
69.000000, 95.114, 177.9168
70.000000, 95.109, 177.7767
71.000000, 95.103, 177.6599
72.000000, 95.100, 177.5564
73.000000, 95.098, 177.4637
74.000000, 95.094, 177.3668
75.000000, 95.086, 177.2734
76.199997, 95.075, 177.1812
77.500000, 95.066, 177.0732
78.800003, 95.060, 176.9301
80.000000, 95.055, 176.7654
81.199997, 95.050, 176.5911
82.500000, 95.042, 176.4337
83.800003, 95.035, 176.3122
85.000000, 95.028, 176.2157
86.199997, 95.021, 176.1287
87.500000, 95.011, 176.0245
88.500000, 95.004, 175.9485
90.000000, 94.994, 175.8149
91.199997, 94.986, 175.6981
92.500000, 94.978, 175.5936
93.800003, 94.972, 175.5102
95.000000, 94.967, 175.4229
96.199997, 94.959, 175.3157
97.500000, 94.945, 175.2180
98.800003, 94.932, 175.1335
100.000000, 94.922, 175.0507
101.500000, 94.911, 174.9402
103.000000, 94.900, 174.8234
104.400002, 94.889, 174.7187
106.000000, 94.875, 174.6189
107.500000, 94.863, 174.5187
109.000000, 94.849, 174.4128
110.599998, 94.833, 174.3121
112.000000, 94.817, 174.2395
113.800003, 94.797, 174.1558
115.000000, 94.784, 174.0889
117.199997, 94.761, 173.9537
118.000000, 94.754, 173.9156
120.599998, 94.760, 173.8108
122.000000, 94.764, 173.6271
124.099998, 94.730, 173.4451
125.000000, 94.714, 173.4383
126.500000, 94.692, 173.4359
128.000000, 94.675, 173.3944
131.500000, 94.642, 173.2544
132.000000, 94.639, 173.2384
134.000000, 94.626, 173.1581
136.000000, 94.610, 173.0841
138.000000, 94.595, 173.0118
140.000000, 94.584, 172.9428
143.000000, 94.572, 172.8336
145.000000, 94.559, 172.7896
147.500000, 94.540, 172.7537
150.000000, 94.522, 172.6898
152.500000, 94.505, 172.5985
155.000000, 94.488, 172.5344
157.500000, 94.470, 172.4933
160.000000, 94.451, 172.4434
162.500000, 94.429, 172.3846
165.000000, 94.407, 172.3402
167.500000, 94.388, 172.3059
170.000000, 94.368, 172.2660
172.500000, 94.344, 172.2400
175.000000, 94.320, 172.2131
177.500000, 94.296, 172.1800
180.000000, 94.271, 172.1624
182.500000, 94.245, 172.1411
185.000000, 94.219, 172.1280
187.500000, 94.193, 172.1223
190.000000, 94.171, 172.1183
192.500000, 94.150, 172.1089
195.000000, 94.129, 172.0969
197.500000, 94.109, 172.0926
200.000000, 94.089, 172.0941
203.000000, 94.066, 172.1134
206.000000, 94.043, 172.1155
209.000000, 94.017, 172.1117
212.000000, 93.992, 172.1165
214.000000, 93.976, 172.1325
218.000000, 93.946, 172.1490
220.000000, 93.931, 172.1717
224.000000, 93.902, 172.2245
227.000000, 93.879, 172.2434
230.000000, 93.855, 172.2733
233.000000, 93.831, 172.3208
236.000000, 93.809, 172.3696
240.000000, 93.782, 172.4186
243.000000, 93.758, 172.4709
247.000000, 93.726, 172.5253
250.000000, 93.706, 172.5679
254.000000, 93.679, 172.6460
258.000000, 93.651, 172.7219
262.000000, 93.625, 172.7924
265.000000, 93.605, 172.8563
269.000000, 93.580, 172.9478
272.000000, 93.562, 173.0110
276.000000, 93.541, 173.0941
280.000000, 93.521, 173.1918
285.000000, 93.493, 173.2998
290.000000, 93.462, 173.4235
295.000000, 93.435, 173.5565
300.000000, 93.411, 173.6916
304.000000, 93.392, 173.7917
307.000000, 93.379, 173.8703
311.000000, 93.361, 173.9875
315.000000, 93.344, 174.1276
320.000000, 93.323, 174.2881
325.000000, 93.304, 174.4305
330.000000, 93.285, 174.5803
335.000000, 93.262, 174.7309
340.000000, 93.239, 174.8852
345.000000, 93.217, 175.0418
350.000000, 93.194, 175.2089
355.000000, 93.172, 175.3664
360.000000, 93.149, 175.5374
365.000000, 93.127, 175.7148
370.000000, 93.107, 175.9031
375.000000, 93.088, 176.0916
382.000000, 93.059, 176.3528
387.000000, 93.038, 176.5312
395.000000, 93.006, 176.7974
400.000000, 92.985, 176.9893
406.000000, 92.958, 177.2205
412.000000, 92.935, 177.4438
418.000000, 92.913, 177.6844
425.000000, 92.886, 177.9452
431.000000, 92.863, 178.1921
437.000000, 92.841, 178.4308
444.000000, 92.816, 178.7113
450.000000, 92.796, 178.9551
455.000000, 92.780, 179.1699
462.000000, 92.757, 179.4565
468.000000, 92.738, 179.7198
475.000000, 92.716, -179.9774
482.000000, 92.696, -179.6682
487.000000, 92.682, -179.4476
494.000000, 92.665, -179.1226
500.000000, 92.652, -178.8445
508.000000, 92.634, -178.4698
515.000000, 92.620, -178.1375
522.000000, 92.606, -177.7951
530.000000, 92.593, -177.3934
538.000000, 92.581, -176.9805
545.000000, 92.572, -176.6072
552.000000, 92.567, -176.2266
560.000000, 92.565, -175.7963
570.000000, 92.565, -175.2536
580.000000, 92.571, -174.7290
590.000000, 92.577, -174.2552
600.000000, 92.584, -173.8130
608.000000, 92.587, -173.4515
615.000000, 92.585, -173.1254
622.000000, 92.582, -172.7978
630.000000, 92.578, -172.4205
640.000000, 92.574, -171.9335
650.000000, 92.571, -171.4285
660.000000, 92.569, -170.9160
670.000000, 92.570, -170.3921
680.000000, 92.573, -169.8612
690.000000, 92.579, -169.2959
700.000000, 92.588, -168.7437
710.000000, 92.599, -168.1885
720.000000, 92.612, -167.6150
730.000000, 92.629, -167.0442
740.000000, 92.648, -166.4623
750.000000, 92.670, -165.8730
762.000000, 92.699, -165.1766
775.000000, 92.734, -164.4095
788.000000, 92.773, -163.6389
800.000000, 92.814, -162.9407
812.000000, 92.859, -162.2296
825.000000, 92.914, -161.4698
838.000000, 92.974, -160.7216
850.000000, 93.034, -160.0302
862.000000, 93.098, -159.3567
875.000000, 93.172, -158.6442
885.000000, 93.233, -158.0997
900.000000, 93.330, -157.3211
912.000000, 93.413, -156.7205
925.000000, 93.506, -156.0952
938.000000, 93.603, -155.5070
950.000000, 93.697, -154.9762
962.000000, 93.793, -154.5002
975.000000, 93.897, -154.0017
988.000000, 94.005, -153.5426
1000.000000, 94.106, -153.1540
1015.000000, 94.235, -152.7159
1030.000000, 94.365, -152.3412
1044.000000, 94.485, -152.0372
1060.000000, 94.623, -151.7345
1075.000000, 94.753, -151.4998
1090.000000, 94.887, -151.3222
1106.000000, 95.037, -151.1746
1120.000000, 95.170, -151.0816
1138.000000, 95.338, -151.0065
1150.000000, 95.447, -150.9841
1172.000000, 95.642, -150.9922
1180.000000, 95.712, -151.0192
1206.000000, 95.932, -151.1496
1220.000000, 96.049, -151.2377
1241.000000, 96.223, -151.4225
1250.000000, 96.296, -151.5072
1265.000000, 96.414, -151.6671
1280.000000, 96.528, -151.8398
1315.000000, 96.778, -152.2684
1320.000000, 96.811, -152.3315
1340.000000, 96.936, -152.5964
1360.000000, 97.037, -152.8504
1380.000000, 97.133, -153.1164
1400.000000, 97.239, -153.3711
1430.000000, 97.398, -153.7515
1450.000000, 97.500, -154.0037
1475.000000, 97.625, -154.2976
1500.000000, 97.746, -154.5843
1525.000000, 97.862, -154.8805
1550.000000, 97.972, -155.1408
1575.000000, 98.078, -155.4110
1600.000000, 98.182, -155.6680
1625.000000, 98.286, -155.9154
1650.000000, 98.390, -156.1624
1675.000000, 98.493, -156.4120
1700.000000, 98.597, -156.6556
1725.000000, 98.699, -156.9197
1750.000000, 98.801, -157.1635
1775.000000, 98.904, -157.4407
1800.000000, 99.008, -157.7173
1825.000000, 99.112, -157.9944
1850.000000, 99.217, -158.2944
1875.000000, 99.323, -158.6094
1900.000000, 99.429, -158.9324
1925.000000, 99.535, -159.2794
1950.000000, 99.641, -159.6368
1975.000000, 99.747, -160.0244
2000.000000, 99.852, -160.4320
2030.000000, 99.979, -160.9509
2060.000000, 100.106, -161.5022
2090.000000, 100.231, -162.0724
2120.000000, 100.355, -162.6983
2140.000000, 100.437, -163.1512
2180.000000, 100.598, -164.0580
2200.000000, 100.675, -164.5464
2240.000000, 100.823, -165.5668
2270.000000, 100.929, -166.3651
2300.000000, 101.030, -167.2059
2330.000000, 101.127, -168.0822
2360.000000, 101.219, -168.9838
2400.000000, 101.332, -170.2587
2430.000000, 101.409, -171.2361
2470.000000, 101.502, -172.5630
2500.000000, 101.563, -173.5924
2540.000000, 101.633, -174.9851
2580.000000, 101.691, -176.3960
2620.000000, 101.735, -177.8181
2650.000000, 101.760, -178.8910
2690.000000, 101.781, 179.7106
2720.000000, 101.788, 178.6427
2760.000000, 101.785, 177.2449
2800.000000, 101.768, 175.8716
2850.000000, 101.732, 174.1962
2900.000000, 101.682, 172.5849
2950.000000, 101.619, 171.0444
3000.000000, 101.544, 169.5703
3040.000000, 101.477, 168.4453
3070.000000, 101.423, 167.6277
3110.000000, 101.349, 166.5839
3150.000000, 101.271, 165.5984
3200.000000, 101.170, 164.4206
3250.000000, 101.066, 163.3042
3300.000000, 100.960, 162.2766
3350.000000, 100.854, 161.2885
3400.000000, 100.751, 160.3709
3450.000000, 100.653, 159.5004
3500.000000, 100.562, 158.6655
3550.000000, 100.475, 157.8864
3600.000000, 100.390, 157.1023
3650.000000, 100.308, 156.3582
3700.000000, 100.228, 155.6401
3750.000000, 100.151, 154.9400
3820.000000, 100.046, 153.9749
3870.000000, 99.972, 153.2729
3950.000000, 99.854, 152.1426
4000.000000, 99.781, 151.4430
4060.000000, 99.694, 150.5675
4120.000000, 99.608, 149.6823
4180.000000, 99.522, 148.7670
4250.000000, 99.418, 147.6306
4310.000000, 99.321, 146.6361
4370.000000, 99.214, 145.5935
4440.000000, 99.074, 144.3709
4500.000000, 98.945, 143.2581
4550.000000, 98.832, 142.3380
4620.000000, 98.662, 140.9922
4680.000000, 98.507, 139.8362
4750.000000, 98.311, 138.4719
4820.000000, 98.101, 137.1074
4870.000000, 97.940, 136.1267
4940.000000, 97.701, 134.7983
5000.000000, 97.482, 133.6804
5080.000000, 97.170, 132.2501
5150.000000, 96.878, 131.0559
5220.000000, 96.569, 129.9750
5300.000000, 96.197, 128.8302
5380.000000, 95.808, 127.8676
5450.000000, 95.459, 127.1432
5520.000000, 95.103, 126.5561
5600.000000, 94.691, 126.0803
5700.000000, 94.170, 125.7404
5800.000000, 93.649, 125.6758
5900.000000, 93.135, 125.9067
6000.000000, 92.634, 126.3482
6080.000000, 92.246, 126.9112
6150.000000, 91.918, 127.5225
6220.000000, 91.601, 128.1915
6300.000000, 91.254, 129.0960
6400.000000, 90.841, 130.3301
6500.000000, 90.451, 131.6976
6600.000000, 90.084, 133.1677
6700.000000, 89.739, 134.7193
6800.000000, 89.423, 136.3549
6900.000000, 89.150, 138.0771
7000.000000, 88.923, 139.8821
7100.000000, 88.731, 141.7498
7200.000000, 88.571, 143.6158
7300.000000, 88.438, 145.4886
7400.000000, 88.323, 147.2959
7500.000000, 88.226, 149.1115
7620.000000, 88.153, 151.2587
7750.000000, 88.134, 153.5834
7880.000000, 88.094, 155.8333
8000.000000, 88.059, 157.8447
8120.000000, 88.052, 159.7527
8250.000000, 88.081, 161.6067
8380.000000, 88.145, 163.2606
8500.000000, 88.231, 164.5158
8620.000000, 88.333, 165.5408
8750.000000, 88.450, 166.2731
8850.000000, 88.543, 166.6094
9000.000000, 88.683, 166.6274
9120.000000, 88.786, 166.2200
9250.000000, 88.871, 165.2914
9380.000000, 88.910, 163.9264
9500.000000, 88.886, 162.2743
9620.000000, 88.790, 160.4243
9750.000000, 88.596, 158.3344
9880.000000, 88.309, 156.3085
10000.000000, 87.970, 154.7477
10150.000000, 87.478, 153.2552
10300.000000, 86.941, 152.2380
10440.000000, 86.404, 151.6506
10600.000000, 85.732, 151.4164
10750.000000, 85.056, 151.8884
10900.000000, 84.371, 153.0654
11060.000000, 83.666, 155.1432
11200.000000, 83.091, 157.6138
11380.000000, 82.436, 161.4949
11500.000000, 82.065, 164.4420
11720.000000, 81.537, 170.3411
11800.000000, 81.399, 172.6221
12060.000000, 81.157, -179.9671
12200.000000, 81.137, -176.1114
12410.000000, 81.196, -170.7128
12500.000000, 81.250, -168.5096
12650.000000, 81.385, -164.8763
12800.000000, 81.594, -161.3144
13150.000000, 82.411, -153.4090
