* Measurement data measured by REW V5.20.13
* Source: Microphone (High Definition Audio Device), MICROPHONE (Master Volume), L, volume: 0.690. Timing signal peak level -37.8 dBFS, measurement signal peak level -13.9 dBFS
* Format: 512k Log Swept Sine, 1 sweep at -12.0 dBFS using an acoustic timing reference
* Dated: Dec 22, 2022 1:07:53 PM
* REW Settings:
*  C-weighting compensation: Off
*  Target level: 75.0 dB
* Note: ; Delay -0.1805 ms (-62 mm, -2.44 in) using estimated IR delay relative to Acoustic reference played from HEADPHONE L with no timing offset Clock adjustment: 121.3 ppm
* Measurement: FaKG FreeBuds L
* Smoothing: 1/24 octave
* Frequency Step: 1/48 octave
* Start Frequency: 1.000 Hz
*
* Freq(Hz) SPL(dB) Phase(degrees)
1.000000 51.698 -138.9955
1.015000 51.711 -141.1146
1.030000 51.719 -143.1634
1.044000 51.721 -145.0039
1.060000 51.719 -147.0125
1.075000 51.710 -148.7940
1.090000 51.695 -150.4675
1.106000 51.673 -152.1215
1.120000 51.650 -153.4463
1.138000 51.616 -154.9933
1.150000 51.591 -155.9360
1.172000 51.540 -157.5019
1.180000 51.519 -158.0250
1.206000 51.445 -159.5821
1.220000 51.400 -160.3454
1.241000 51.326 -161.4168
1.250000 51.292 -161.8558
1.265000 51.232 -162.5696
1.280000 51.168 -163.2711
1.315000 51.001 -164.9244
1.320000 50.976 -165.1687
1.340000 50.867 -166.1832
1.360000 50.750 -167.2775
1.380000 50.624 -168.4791
1.400000 50.489 -169.8149
1.430000 50.269 -172.1299
1.450000 50.111 -173.9204
1.475000 49.898 -176.4529
1.500000 49.666 -179.0747
1.525000 49.416 178.2555
1.550000 49.148 175.5139
1.575000 48.865 172.6767
1.600000 48.568 169.7199
1.625000 48.258 166.6199
1.650000 47.937 163.3527
1.675000 47.607 159.8945
1.700000 47.268 156.2215
1.725000 46.923 152.3098
1.750000 46.573 148.1356
1.775000 46.220 143.6751
1.800000 45.864 138.9044
1.825000 45.508 133.7997
1.850000 45.130 128.2701
1.875000 44.685 122.1839
1.900000 44.186 115.6100
1.925000 43.649 108.6256
1.950000 43.088 101.3074
1.975000 42.519 93.7323
2.000000 41.957 85.9774
2.030000 41.315 76.5421
2.060000 40.732 67.0915
2.090000 40.235 57.7582
2.120000 39.851 48.6752
2.140000 39.671 42.8245
2.180000 39.527 31.7917
2.200000 39.579 26.6853
2.240000 39.964 16.7544
2.270000 40.471 9.4010
2.300000 41.129 2.1704
2.330000 41.907 -4.8996
2.360000 42.773 -11.7716
2.400000 44.011 -20.5612
2.430000 44.960 -26.8248
2.470000 46.193 -34.6669
2.500000 47.052 -40.1176
2.540000 48.051 -46.7393
2.580000 48.831 -52.5254
2.620000 49.504 -57.3315
2.650000 49.966 -60.3596
2.690000 50.530 -63.7579
2.720000 50.918 -65.9157
2.760000 51.398 -68.4012
2.800000 51.842 -70.5872
2.850000 52.357 -73.1448
2.900000 52.846 -75.8025
2.950000 53.318 -78.8047
3.000000 53.740 -81.7305
3.040000 54.040 -83.9333
3.070000 54.247 -85.5125
3.110000 54.501 -87.5296
3.150000 54.737 -89.4556
3.200000 55.012 -91.7522
3.250000 55.274 -93.9454
3.300000 55.533 -96.0570
3.350000 55.775 -98.0804
3.400000 55.990 -99.9971
3.450000 56.185 -101.8013
3.500000 56.366 -103.4872
3.550000 56.541 -105.0491
3.600000 56.716 -106.4812
3.650000 56.897 -107.7777
3.700000 57.084 -108.9073
3.750000 57.264 -109.8311
3.820000 57.510 -110.8640
3.870000 57.686 -111.4808
3.950000 57.982 -112.3903
4.000000 58.180 -112.9847
4.060000 58.439 -113.7721
4.120000 58.713 -114.5262
4.180000 59.002 -115.2496
4.250000 59.351 -116.0895
4.310000 59.658 -116.8358
4.370000 59.969 -117.6340
4.440000 60.339 -118.6357
4.500000 60.670 -119.5037
4.550000 60.951 -120.2477
4.620000 61.348 -121.3507
4.680000 61.684 -122.3806
4.750000 62.063 -123.7166
4.820000 62.428 -125.2318
4.870000 62.687 -126.4165
4.940000 63.042 -128.1805
5.000000 63.337 -129.7574
5.080000 63.712 -131.8968
5.150000 64.017 -133.7587
5.220000 64.305 -135.6650
5.300000 64.614 -137.8976
5.380000 64.901 -140.1474
5.450000 65.135 -142.0967
5.520000 65.352 -144.0058
5.600000 65.576 -146.1943
5.700000 65.825 -148.9080
5.800000 66.047 -151.5157
5.900000 66.247 -153.9429
6.000000 66.417 -156.2332
6.080000 66.536 -157.9632
6.150000 66.634 -159.3890
6.220000 66.730 -160.7216
6.300000 66.835 -162.1199
6.400000 66.954 -163.6964
6.500000 67.071 -165.1158
6.600000 67.196 -166.4141
6.700000 67.330 -167.5615
6.800000 67.468 -168.5680
6.900000 67.615 -169.5001
7.000000 67.776 -170.4114
7.100000 67.949 -171.2531
7.200000 68.132 -172.0554
7.300000 68.320 -172.8732
7.400000 68.510 -173.7388
7.500000 68.706 -174.6241
7.620000 68.942 -175.7064
7.750000 69.187 -176.9041
7.880000 69.425 -178.1438
8.000000 69.636 -179.2806
8.120000 69.837 179.6278
8.250000 70.042 178.4717
8.380000 70.240 177.3768
8.500000 70.421 176.4539
8.620000 70.597 175.6065
8.750000 70.790 174.7493
8.850000 70.944 174.1263
9.000000 71.181 173.2731
9.120000 71.378 172.6007
9.250000 71.601 171.8436
9.380000 71.833 171.0800
9.500000 72.047 170.3275
9.620000 72.257 169.5037
9.750000 72.484 168.5493
9.880000 72.695 167.5369
10.000000 72.871 166.5400
10.150000 73.070 165.2258
10.300000 73.243 163.9087
10.440000 73.378 162.6616
10.600000 73.510 161.2778
10.750000 73.616 160.0698
10.900000 73.705 158.9373
11.060000 73.794 157.8645
11.200000 73.863 157.0401
11.380000 73.954 156.1088
11.500000 74.017 155.5772
11.720000 74.143 154.7203
11.800000 74.195 154.4287
12.060000 74.382 153.5474
12.200000 74.492 153.0515
12.410000 74.667 152.2828
12.500000 74.740 151.9312
12.650000 74.862 151.3142
12.800000 74.981 150.6768
13.150000 75.230 149.1400
13.200000 75.262 148.9271
13.400000 75.385 148.0898
13.600000 75.501 147.3165
13.800000 75.611 146.6255
14.000000 75.722 146.0112
14.300000 75.895 145.2173
14.500000 76.020 144.7343
14.750000 76.188 144.1152
15.000000 76.367 143.4454
15.250000 76.548 142.6751
15.500000 76.723 141.8196
15.750000 76.883 140.9000
16.000000 77.021 139.9719
16.250000 77.143 139.1052
16.500000 77.251 138.3317
16.750000 77.355 137.6880
17.000000 77.468 137.1497
17.250000 77.591 136.6826
17.500000 77.730 136.2375
17.750000 77.878 135.7532
18.000000 78.030 135.2183
18.250000 78.181 134.6215
18.500000 78.326 133.9971
18.750000 78.465 133.3713
19.000000 78.600 132.7687
19.250000 78.735 132.1997
19.500000 78.873 131.6459
19.750000 79.013 131.0934
20.000000 79.152 130.5165
20.299999 79.312 129.8066
20.600000 79.459 129.1176
20.900000 79.596 128.5114
21.200001 79.733 128.0448
21.400000 79.832 127.8027
21.799999 80.062 127.3661
22.000000 80.192 127.0938
22.400000 80.465 126.2741
22.700001 80.651 125.3824
23.000000 80.793 124.3419
23.299999 80.883 123.3510
23.600000 80.932 122.5966
24.000000 80.974 122.1570
24.299999 81.032 122.2274
24.700001 81.187 122.5687
25.000000 81.357 122.7263
25.400000 81.618 122.5408
25.799999 81.856 121.9097
26.200001 82.039 121.1085
26.500000 82.147 120.5850
26.900000 82.276 120.1025
27.200001 82.382 119.8701
27.600000 82.544 119.6011
28.000000 82.720 119.2416
28.500000 82.930 118.6489
29.000000 83.117 118.0750
29.500000 83.300 117.6406
30.000000 83.501 117.2626
30.400000 83.669 116.8938
30.700001 83.794 116.5550
31.100000 83.947 116.0485
31.500000 84.084 115.5366
32.000000 84.236 114.9711
32.500000 84.377 114.5272
33.000000 84.518 114.1953
33.500000 84.666 113.9368
34.000000 84.825 113.6864
34.500000 84.993 113.3726
35.000000 85.157 112.9699
35.500000 85.309 112.5210
36.000000 85.452 112.0950
36.500000 85.595 111.7221
37.000000 85.746 111.3714
37.500000 85.908 110.9855
38.200001 86.136 110.3262
38.700001 86.290 109.8036
39.500000 86.517 109.0685
40.000000 86.661 108.7224
40.599998 86.845 108.3557
41.200001 87.031 107.9630
41.799999 87.207 107.5701
42.500000 87.401 107.1720
43.099998 87.558 106.8666
43.700001 87.705 106.6315
44.400002 87.884 106.4838
45.000000 88.060 106.2678
45.500000 88.199 105.8731
46.200001 88.333 105.2477
46.799999 88.426 105.0839
47.500000 88.620 105.1714
48.200001 88.888 104.7474
48.700001 89.056 104.0427
49.400002 89.223 103.0355
50.000000 89.354 102.4242
50.799999 89.552 101.6679
51.500000 89.706 100.9489
52.200001 89.840 100.4410
53.000000 90.017 100.0962
53.799999 90.215 99.6723
54.500000 90.380 99.2114
55.200001 90.536 98.7291
56.000000 90.704 98.1405
57.000000 90.902 97.4700
58.000000 91.129 96.8301
59.000000 91.354 95.8788
60.000000 91.527 95.0248
60.799999 91.679 94.6291
61.500000 91.837 94.2789
62.200001 91.993 93.8384
63.000000 92.158 93.3355
64.000000 92.360 92.7662
65.000000 92.556 92.1561
66.000000 92.739 91.5252
67.000000 92.917 90.9207
68.000000 93.099 90.2942
69.000000 93.280 89.6167
70.000000 93.456 88.9229
71.000000 93.628 88.2464
72.000000 93.802 87.5984
73.000000 93.977 86.9308
74.000000 94.145 86.2380
75.000000 94.306 85.5391
76.199997 94.487 84.7148
77.500000 94.681 83.8805
78.800003 94.880 83.0179
80.000000 95.061 82.1873
81.199997 95.237 81.3481
82.500000 95.424 80.4353
83.800003 95.605 79.5178
85.000000 95.768 78.6968
86.199997 95.930 77.8712
87.500000 96.098 76.9808
88.500000 96.226 76.3198
90.000000 96.417 75.3140
91.199997 96.567 74.4998
92.500000 96.725 73.5912
93.800003 96.876 72.6910
95.000000 97.013 71.8804
96.199997 97.150 71.0794
97.500000 97.296 70.1823
98.800003 97.433 69.2830
100.000000 97.555 68.4759
101.500000 97.704 67.4817
103.000000 97.851 66.4904
104.400002 97.984 65.5483
106.000000 98.130 64.4918
107.500000 98.265 63.4960
109.000000 98.391 62.5010
110.599998 98.519 61.4642
112.000000 98.627 60.5685
113.800003 98.765 59.4053
115.000000 98.856 58.6136
117.199997 99.024 57.1283
118.000000 99.084 56.5776
120.599998 99.255 54.8887
122.000000 99.346 54.1006
124.099998 99.483 52.8994
125.000000 99.537 52.3725
126.500000 99.624 51.4933
128.000000 99.712 50.6098
131.500000 99.918 48.4861
132.000000 99.946 48.1881
134.000000 100.052 47.0192
136.000000 100.151 45.8690
138.000000 100.248 44.7030
140.000000 100.344 43.5062
143.000000 100.483 41.7943
145.000000 100.570 40.7618
147.500000 100.669 39.4993
150.000000 100.760 38.2100
152.500000 100.847 36.9116
155.000000 100.931 35.6552
157.500000 101.009 34.4146
160.000000 101.082 33.1752
162.500000 101.152 31.9411
165.000000 101.215 30.7180
167.500000 101.269 29.5492
170.000000 101.324 28.4305
172.500000 101.377 27.3207
175.000000 101.425 26.2302
177.500000 101.470 25.1505
180.000000 101.511 24.0748
182.500000 101.549 23.0129
185.000000 101.586 21.9774
187.500000 101.621 20.9667
190.000000 101.654 19.9785
192.500000 101.684 18.9905
195.000000 101.710 18.0104
197.500000 101.737 17.0424
200.000000 101.764 16.0872
203.000000 101.796 14.9653
206.000000 101.825 13.8600
209.000000 101.850 12.7634
212.000000 101.872 11.6810
214.000000 101.887 10.9675
218.000000 101.914 9.5601
220.000000 101.926 8.8652
224.000000 101.950 7.4955
227.000000 101.967 6.4927
230.000000 101.980 5.4960
233.000000 101.993 4.4998
236.000000 102.007 3.5085
240.000000 102.023 2.1929
243.000000 102.031 1.2021
247.000000 102.043 -0.1179
250.000000 102.051 -1.0835
254.000000 102.060 -2.3623
258.000000 102.066 -3.6552
262.000000 102.071 -4.9524
265.000000 102.073 -5.9240
269.000000 102.073 -7.2043
272.000000 102.071 -8.1589
276.000000 102.070 -9.4390
280.000000 102.069 -10.7363
285.000000 102.064 -12.3726
290.000000 102.051 -14.0062
295.000000 102.034 -15.6627
300.000000 102.012 -17.3267
304.000000 101.990 -18.6552
307.000000 101.972 -19.6487
311.000000 101.946 -20.9788
315.000000 101.916 -22.3269
320.000000 101.875 -24.0419
325.000000 101.827 -25.7797
330.000000 101.771 -27.5178
335.000000 101.709 -29.2501
340.000000 101.638 -30.9984
345.000000 101.557 -32.7468
350.000000 101.467 -34.5076
355.000000 101.370 -36.2794
360.000000 101.266 -38.0555
365.000000 101.153 -39.8357
370.000000 101.029 -41.5974
375.000000 100.894 -43.3619
382.000000 100.689 -45.8443
387.000000 100.531 -47.6104
395.000000 100.252 -50.3978
400.000000 100.066 -52.1077
406.000000 99.824 -54.1621
412.000000 99.549 -56.1881
418.000000 99.240 -58.0758
425.000000 98.855 -60.0875
431.000000 98.489 -61.7251
437.000000 98.039 -63.0676
444.000000 97.386 -62.9166
450.000000 97.020 -60.0786
455.000000 97.210 -57.4963
462.000000 97.802 -58.4887
468.000000 97.947 -62.5411
475.000000 97.694 -66.9318
482.000000 97.267 -69.9527
487.000000 96.936 -71.4922
494.000000 96.465 -73.0938
500.000000 96.061 -74.1403
508.000000 95.516 -75.2893
515.000000 95.032 -76.1984
522.000000 94.548 -77.1060
530.000000 94.013 -78.1702
538.000000 93.517 -79.2129
545.000000 93.127 -79.9868
552.000000 92.770 -80.5056
560.000000 92.379 -80.7207
570.000000 91.864 -80.5432
580.000000 91.297 -80.2698
590.000000 90.732 -80.2269
600.000000 90.221 -80.1700
608.000000 89.840 -79.8303
615.000000 89.495 -79.3538
622.000000 89.134 -78.8751
630.000000 88.726 -78.4211
640.000000 88.255 -77.7896
650.000000 87.793 -76.9160
660.000000 87.315 -76.0283
670.000000 86.857 -75.1090
680.000000 86.408 -74.0167
690.000000 85.951 -72.8745
700.000000 85.509 -71.6851
710.000000 85.072 -70.3989
720.000000 84.631 -69.1342
730.000000 84.193 -67.7624
740.000000 83.742 -66.1904
750.000000 83.269 -64.3165
762.000000 82.708 -61.2718
775.000000 82.304 -57.1743
788.000000 82.182 -54.3603
800.000000 81.973 -53.4637
812.000000 81.575 -52.4744
825.000000 81.081 -50.6600
838.000000 80.595 -48.3221
850.000000 80.162 -45.9487
862.000000 79.746 -43.4951
875.000000 79.310 -40.6959
885.000000 78.987 -38.4426
900.000000 78.512 -34.9315
912.000000 78.144 -32.0236
925.000000 77.765 -28.7333
938.000000 77.399 -25.2800
950.000000 77.069 -21.9590
962.000000 76.764 -18.5455
975.000000 76.466 -14.8174
988.000000 76.183 -10.9682
1000.000000 75.932 -7.2458
1015.000000 75.649 -2.4393
1030.000000 75.412 2.4695
1044.000000 75.234 7.1665
1060.000000 75.079 12.5760
1075.000000 74.988 17.6358
1090.000000 74.946 22.6984
1106.000000 74.956 28.0249
1120.000000 75.014 32.6136
1138.000000 75.146 38.3966
1150.000000 75.264 42.1545
1172.000000 75.546 48.7300
1180.000000 75.663 51.0102
1206.000000 76.096 58.0412
1220.000000 76.356 61.5831
1241.000000 76.770 66.5880
1250.000000 76.952 68.6161
1265.000000 77.260 71.8784
1280.000000 77.580 75.0082
1315.000000 78.354 81.6919
1320.000000 78.465 82.5886
1340.000000 78.903 86.0306
1360.000000 79.324 89.2275
1380.000000 79.742 92.2737
1400.000000 80.173 95.1485
1430.000000 80.830 99.1512
1450.000000 81.265 101.6368
1475.000000 81.813 104.5380
1500.000000 82.363 107.2599
1525.000000 82.910 109.8422
1550.000000 83.454 112.2687
1575.000000 83.998 114.5149
1600.000000 84.551 116.5644
1625.000000 85.110 118.4238
1650.000000 85.669 120.1376
1675.000000 86.234 121.6815
1700.000000 86.800 123.0216
1725.000000 87.371 124.1693
1750.000000 87.949 125.1038
1775.000000 88.528 125.8054
1800.000000 89.110 126.2715
1825.000000 89.695 126.4818
1850.000000 90.277 126.3997
1875.000000 90.853 126.0077
1900.000000 91.417 125.2993
1925.000000 91.964 124.2582
1950.000000 92.485 122.8828
1975.000000 92.973 121.1718
2000.000000 93.419 119.1294
2030.000000 93.889 116.2981
2060.000000 94.275 113.1288
2090.000000 94.567 109.7263
2120.000000 94.761 106.2368
2140.000000 94.837 103.9232
2180.000000 94.867 99.4793
2200.000000 94.827 97.4138
2240.000000 94.657 93.7008
2270.000000 94.468 91.3284
2300.000000 94.240 89.3302
2330.000000 93.983 87.6993
2360.000000 93.707 86.4155
2400.000000 93.325 85.1971
2430.000000 93.034 84.6003
2470.000000 92.650 84.1737
2500.000000 92.365 84.1097
2540.000000 91.995 84.3234
2580.000000 91.638 84.8406
2620.000000 91.295 85.6180
2650.000000 91.049 86.3397
2690.000000 90.735 87.4800
2720.000000 90.511 88.4589
2760.000000 90.230 89.8998
2800.000000 89.965 91.4907
2850.000000 89.661 93.6497
2900.000000 89.388 95.9705
2950.000000 89.149 98.4122
3000.000000 88.945 100.9614
3040.000000 88.806 103.0515
3070.000000 88.714 104.6415
3110.000000 88.612 106.7883
3150.000000 88.533 108.9432
3200.000000 88.465 111.6240
3250.000000 88.436 114.2623
3300.000000 88.444 116.8317
3350.000000 88.490 119.3000
3400.000000 88.577 121.6206
3450.000000 88.707 123.7466
3500.000000 88.880 125.6310
3550.000000 89.093 127.2141
3600.000000 89.341 128.4031
3650.000000 89.616 129.1087
3700.000000 89.910 129.2378
3750.000000 90.206 128.6839
3820.000000 90.574 126.5938
3870.000000 90.756 124.0897
3950.000000 90.791 118.5484
4000.000000 90.601 114.4847
4060.000000 90.130 109.5665
4120.000000 89.405 105.2022
4180.000000 88.473 101.9094
4250.000000 87.195 99.8411
4310.000000 86.029 99.7993
4370.000000 84.908 100.8732
4440.000000 83.661 102.9178
4500.000000 82.627 105.2900
4550.000000 81.794 107.6765
4620.000000 80.675 111.5693
4680.000000 79.759 115.3499
4750.000000 78.741 120.1602
4820.000000 77.781 125.3166
4870.000000 77.129 129.1877
4940.000000 76.262 134.8429
5000.000000 75.562 139.8766
5080.000000 74.684 146.8392
5150.000000 73.965 153.1112
5220.000000 73.296 159.5156
5300.000000 72.595 167.0207
5380.000000 71.964 174.6921
5450.000000 71.466 -178.5676
5520.000000 71.012 -171.8723
5600.000000 70.536 -164.2199
5700.000000 69.997 -154.4741
5800.000000 69.529 -144.5118
5900.000000 69.151 -134.4100
6000.000000 68.882 -124.3018
6080.000000 68.754 -116.3182
6150.000000 68.698 -109.4521
6220.000000 68.694 -102.6812
6300.000000 68.753 -95.0946
6400.000000 68.896 -86.2235
6500.000000 69.066 -78.3058
6600.000000 69.117 -71.0801
6700.000000 69.005 -62.9648
6800.000000 69.011 -52.9720
6900.000000 69.378 -42.6070
7000.000000 70.005 -33.1956
7100.000000 70.763 -24.8840
7200.000000 71.594 -17.5620
7300.000000 72.476 -11.1712
7400.000000 73.404 -5.7235
7500.000000 74.398 -1.3265
7620.000000 75.692 1.9490
7750.000000 76.988 1.8538
7880.000000 77.777 -1.6413
8000.000000 77.944 -6.3989
8120.000000 77.590 -11.1410
8250.000000 76.683 -14.7765
8380.000000 75.352 -15.6815
8500.000000 73.903 -13.5789
8620.000000 72.402 -8.8752
8750.000000 70.825 -1.4943
8850.000000 69.695 5.3744
9000.000000 68.175 16.9384
9120.000000 67.096 26.8757
9250.000000 66.034 38.1633
9380.000000 65.084 49.9077
9500.000000 64.308 61.0353
9620.000000 63.600 72.2072
9750.000000 62.894 84.3682
9880.000000 62.244 96.6149
10000.000000 61.692 108.1006
10150.000000 61.055 122.6866
10300.000000 60.432 137.4732
10440.000000 59.875 151.4217
10600.000000 59.288 167.5985
10750.000000 58.759 -176.4307
10900.000000 58.263 -159.3987
11060.000000 57.816 -139.8122
11200.000000 57.625 -121.0151
11380.000000 58.081 -94.0447
11500.000000 59.241 -75.3316
11720.000000 62.786 -47.4940
11800.000000 64.128 -41.1948
12060.000000 67.990 -32.5605
12200.000000 69.134 -35.3199
12410.000000 69.406 -39.0443
12500.000000 69.278 -38.3645
12650.000000 69.097 -34.5645
12800.000000 69.146 -28.8086
13150.000000 70.445 -14.0217
13200.000000 70.770 -12.1450
13400.000000 72.426 -6.2118
13600.000000 74.540 -4.3672
13800.000000 76.696 -9.3711
14000.000000 78.056 -23.1270
14300.000000 77.352 -46.9080
14500.000000 75.574 -53.1858
14750.000000 73.290 -50.3974
15000.000000 71.734 -41.5254
15250.000000 71.015 -30.4732
15500.000000 71.060 -19.3571
15750.000000 71.764 -10.0128
16000.000000 72.919 -4.9188
16250.000000 74.070 -7.2737
16500.000000 74.484 -19.5164
16750.000000 73.892 -48.3077
17000.000000 72.001 -122.1756
17250.000000 67.525 121.5150
17500.000000 62.684 -10.9112
17750.000000 63.226 3.6685
18000.000000 65.288 91.0995
18250.000000 65.703 -125.1814
18500.000000 64.764 102.5391
18750.000000 63.370 68.9849
19000.000000 61.860 131.1670
19250.000000 60.476 -107.2764
19500.000000 59.055 95.7244
19750.000000 57.401 15.3970
20000.000000 55.723 -84.3701
20300.000000 54.241 81.7554
20600.000000 53.995 -43.4731
20900.000000 54.690 -83.3398
21200.000000 55.706 -104.6553
21400.000000 56.345 -120.2979
21800.000000 57.189 -178.9307
22000.000000 57.153 82.7681
22400.000000 54.791 167.4673
22700.000000 50.144 53.9219
23000.000000 44.174 -148.0039
23300.000000 40.611 57.2852
23600.000000 39.894 -178.2305
24000.000000 39.693 146.5273
