* Measurement data measured by REW V5.30.2
* Source: Headset (JA3 HIFI AUDIO(CX31993)), MICROPHONE (Master Volume), L, volume: 0.170. Timing signal peak level -45.8 dBFS, measurement signal peak level -33.3 dBFS
* Format: 2M Log Swept Sine, 1 sweep at -12.0 dBFS using an acoustic timing reference
* Dated: Feb 15, 2024 7:02:47 PM
* REW Settings:
*  C-weighting compensation: Off
*  Target level: 75.0 dB
* Note: ; Delay -0.1027 ms (-35 mm, -1.39 in) using estimated IR delay relative to Acoustic reference played from SPEAKER R with no timing offset Clock adjustment: -19.3 ppm
* Measurement: Fatfreq Scarlet Mini Velvet R
* Smoothing: 1/24 octave
* Frequency Step: 1/48 octave
* Start Frequency: 1.000 Hz
*
* Freq(Hz) SPL(dB) Phase(degrees)
1.000000 68.663 -110.0605
1.015000 69.313 -109.2669
1.030000 69.942 -108.6073
1.044000 70.505 -108.1190
1.060000 71.116 -107.7193
1.075000 71.653 -107.5055
1.090000 72.152 -107.4549
1.106000 72.638 -107.6007
1.120000 73.045 -107.9624
1.138000 73.548 -108.7427
1.150000 73.871 -109.4445
1.172000 74.440 -111.0703
1.180000 74.640 -111.7606
1.206000 75.265 -114.3202
1.220000 75.587 -115.8726
1.241000 76.053 -118.3860
1.250000 76.247 -119.5194
1.265000 76.564 -121.4677
1.280000 76.871 -123.4729
1.315000 77.562 -128.2619
1.320000 77.658 -128.9479
1.340000 78.036 -131.6671
1.360000 78.406 -134.3118
1.380000 78.769 -136.8349
1.400000 79.129 -139.1896
1.430000 79.665 -142.3035
1.450000 80.023 -144.0322
1.475000 80.471 -145.7437
1.500000 80.907 -147.1216
1.525000 81.327 -148.2456
1.550000 81.732 -149.1520
1.575000 82.125 -149.8777
1.600000 82.504 -150.4591
1.625000 82.873 -150.9329
1.650000 83.231 -151.3357
1.675000 83.581 -151.7042
1.700000 83.922 -152.0748
1.725000 84.256 -152.4843
1.750000 84.584 -152.9692
1.775000 84.908 -153.5662
1.800000 85.227 -154.3118
1.825000 85.544 -155.2427
1.850000 85.857 -156.3629
1.875000 86.162 -157.6039
1.900000 86.459 -158.9470
1.925000 86.748 -160.3761
1.950000 87.031 -161.8752
1.975000 87.306 -163.4283
2.000000 87.576 -165.0193
2.030000 87.891 -166.9562
2.060000 88.200 -168.8970
2.090000 88.501 -170.8141
2.120000 88.796 -172.6797
2.140000 88.990 -173.8813
2.180000 89.371 -176.1460
2.200000 89.559 -177.1932
2.240000 89.926 -179.1764
2.270000 90.192 179.4030
2.300000 90.451 178.0317
2.330000 90.703 176.7027
2.360000 90.949 175.4089
2.400000 91.268 173.7266
2.430000 91.501 172.4877
2.470000 91.804 170.8530
2.500000 92.026 169.6305
2.540000 92.316 167.9921
2.580000 92.599 166.3348
2.620000 92.874 164.6994
2.650000 93.073 163.4911
2.690000 93.331 161.8989
2.720000 93.519 160.7151
2.760000 93.763 159.1454
2.800000 93.999 157.5792
2.850000 94.286 155.6163
2.900000 94.564 153.6354
2.950000 94.834 151.6202
3.000000 95.092 149.5452
3.040000 95.291 147.8561
3.070000 95.436 146.5825
3.110000 95.624 144.8879
3.150000 95.806 143.2115
3.200000 96.027 141.1653
3.250000 96.240 139.2023
3.300000 96.447 137.3528
3.350000 96.647 135.6359
3.400000 96.838 134.0293
3.450000 97.021 132.5013
3.500000 97.197 131.0202
3.550000 97.367 129.5546
3.600000 97.531 128.0727
3.650000 97.691 126.5429
3.700000 97.846 124.9427
3.750000 97.994 123.2907
3.820000 98.192 120.9385
3.870000 98.327 119.2636
3.950000 98.533 116.6611
4.000000 98.658 115.1211
4.060000 98.804 113.3978
4.120000 98.943 111.7978
4.180000 99.076 110.2868
4.250000 99.225 108.5918
4.310000 99.347 107.1588
4.370000 99.467 105.7087
4.440000 99.602 103.9646
4.500000 99.713 102.4496
4.550000 99.803 101.1861
4.620000 99.924 99.4337
4.680000 100.025 97.9636
4.750000 100.140 96.3076
4.820000 100.251 94.7309
4.870000 100.328 93.6460
4.940000 100.432 92.1696
5.000000 100.519 90.9303
5.080000 100.631 89.2931
5.150000 100.726 87.8555
5.220000 100.818 86.4222
5.300000 100.920 84.7996
5.380000 101.017 83.1979
5.450000 101.099 81.8168
5.520000 101.178 80.4575
5.600000 101.265 78.9292
5.700000 101.368 77.0536
5.800000 101.465 75.2143
5.900000 101.556 73.4096
6.000000 101.641 71.6427
6.080000 101.704 70.2542
6.150000 101.757 69.0554
6.220000 101.807 67.8697
6.300000 101.861 66.5278
6.400000 101.922 64.8730
6.500000 101.979 63.2527
6.600000 102.032 61.6774
6.700000 102.080 60.1518
6.800000 102.123 58.6691
6.900000 102.162 57.2214
7.000000 102.199 55.8013
7.100000 102.233 54.4109
7.200000 102.263 53.0530
7.300000 102.292 51.7294
7.400000 102.319 50.4438
7.500000 102.344 49.1967
7.620000 102.372 47.7381
7.750000 102.401 46.1901
7.880000 102.428 44.6816
8.000000 102.451 43.3200
8.120000 102.473 41.9833
8.250000 102.496 40.5670
8.380000 102.516 39.1769
8.500000 102.533 37.9112
8.620000 102.548 36.6647
8.750000 102.561 35.3355
8.850000 102.569 34.3271
9.000000 102.577 32.8370
9.120000 102.580 31.6684
9.250000 102.582 30.4284
9.380000 102.582 29.2141
9.500000 102.577 28.1186
9.620000 102.568 27.0484
9.750000 102.554 25.9168
9.880000 102.532 24.8162
10.000000 102.503 23.8298
10.150000 102.457 22.6342
10.300000 102.406 21.4735
10.440000 102.350 20.4237
10.600000 102.285 19.2558
10.750000 102.227 18.1874
10.900000 102.170 17.1443
11.060000 102.111 16.0467
11.200000 102.060 15.1007
11.380000 101.996 13.8989
11.500000 101.953 13.1049
11.720000 101.873 11.6678
11.800000 101.844 11.1509
12.060000 101.751 9.4959
12.200000 101.700 8.6267
12.410000 101.624 7.3528
12.500000 101.591 6.8211
12.650000 101.535 5.9530
12.800000 101.478 5.1076
13.150000 101.347 3.2253
13.200000 101.329 2.9645
13.400000 101.259 1.9433
13.600000 101.192 0.9436
13.800000 101.129 -0.0389
14.000000 101.067 -1.0127
14.300000 100.974 -2.4593
14.500000 100.910 -3.4148
14.750000 100.827 -4.5874
15.000000 100.743 -5.7288
15.250000 100.659 -6.8229
15.500000 100.575 -7.8635
15.750000 100.492 -8.8496
16.000000 100.411 -9.7852
16.250000 100.334 -10.6856
16.500000 100.260 -11.5606
16.750000 100.190 -12.4239
17.000000 100.123 -13.2826
17.250000 100.056 -14.1360
17.500000 99.988 -14.9816
17.750000 99.917 -15.8086
18.000000 99.845 -16.6108
18.250000 99.770 -17.3821
18.500000 99.695 -18.1205
18.750000 99.622 -18.8302
19.000000 99.550 -19.5150
19.250000 99.481 -20.1836
19.500000 99.413 -20.8397
19.750000 99.346 -21.4861
20.000000 99.278 -22.1228
20.299999 99.196 -22.8703
20.600000 99.114 -23.5971
20.900000 99.032 -24.3023
21.200001 98.951 -24.9891
21.400000 98.897 -25.4409
21.799999 98.791 -26.3362
22.000000 98.737 -26.7815
22.400000 98.630 -27.6667
22.700001 98.548 -28.3195
23.000000 98.464 -28.9560
23.299999 98.381 -29.5725
23.600000 98.298 -30.1691
24.000000 98.190 -30.9368
24.299999 98.110 -31.4954
24.700001 98.006 -32.2203
25.000000 97.930 -32.7499
25.400000 97.829 -33.4382
25.799999 97.729 -34.1086
26.200001 97.631 -34.7629
26.500000 97.557 -35.2414
26.900000 97.458 -35.8578
27.200001 97.385 -36.3000
27.600000 97.289 -36.8623
28.000000 97.196 -37.4022
28.500000 97.084 -38.0694
29.000000 96.974 -38.7479
29.500000 96.861 -39.4313
30.000000 96.743 -40.0933
30.400000 96.646 -40.5933
30.700001 96.572 -40.9495
31.100000 96.475 -41.4028
31.500000 96.380 -41.8369
32.000000 96.264 -42.3598
32.500000 96.151 -42.8672
33.000000 96.041 -43.3645
33.500000 95.933 -43.8545
34.000000 95.828 -44.3355
34.500000 95.724 -44.8036
35.000000 95.623 -45.2572
35.500000 95.523 -45.6982
36.000000 95.423 -46.1273
36.500000 95.323 -46.5421
37.000000 95.224 -46.9409
37.500000 95.126 -47.3267
38.200001 94.989 -47.8546
38.700001 94.892 -48.2238
39.500000 94.735 -48.7877
40.000000 94.639 -49.1215
40.599998 94.527 -49.5130
41.200001 94.418 -49.9083
41.799999 94.309 -50.3098
42.500000 94.183 -50.7694
43.099998 94.076 -51.1403
43.700001 93.972 -51.4927
44.400002 93.851 -51.8886
45.000000 93.748 -52.2019
45.500000 93.663 -52.4336
46.200001 93.551 -52.7342
46.799999 93.460 -53.0097
47.500000 93.352 -53.3590
48.200001 93.238 -53.6937
48.700001 93.156 -53.9114
49.400002 93.042 -54.2027
50.000000 92.945 -54.4484
50.799999 92.815 -54.7600
51.500000 92.703 -55.0181
52.200001 92.594 -55.2708
53.000000 92.472 -55.5545
53.799999 92.353 -55.8396
54.500000 92.250 -56.0889
55.200001 92.146 -56.3233
56.000000 92.031 -56.5678
57.000000 91.890 -56.8602
58.000000 91.750 -57.1386
59.000000 91.611 -57.3890
60.000000 91.473 -57.6298
60.799999 91.363 -57.8205
61.500000 91.266 -57.9809
62.200001 91.170 -58.1308
63.000000 91.062 -58.2842
64.000000 90.934 -58.4714
65.000000 90.810 -58.7003
66.000000 90.680 -58.9398
67.000000 90.547 -59.1332
68.000000 90.417 -59.2787
69.000000 90.294 -59.4084
70.000000 90.177 -59.5677
71.000000 90.056 -59.7507
72.000000 89.930 -59.8921
73.000000 89.810 -59.9799
74.000000 89.696 -60.0690
75.000000 89.583 -60.1848
76.199997 89.444 -60.3296
77.500000 89.293 -60.4655
78.800003 89.147 -60.6042
80.000000 89.016 -60.7161
81.199997 88.888 -60.8002
82.500000 88.751 -60.8457
83.800003 88.614 -60.8553
85.000000 88.484 -60.8485
86.199997 88.356 -60.8579
87.500000 88.217 -60.9705
88.500000 88.101 -61.1095
90.000000 87.925 -61.1284
91.199997 87.821 -61.0369
92.500000 87.731 -61.0310
93.800003 87.636 -61.0788
95.000000 87.532 -61.0985
96.199997 87.416 -61.0665
97.500000 87.286 -60.9985
98.800003 87.162 -60.9515
100.000000 87.051 -60.9512
101.500000 86.920 -60.9484
103.000000 86.799 -60.9306
104.400002 86.684 -60.8845
106.000000 86.547 -60.7803
107.500000 86.407 -60.6163
109.000000 86.273 -60.3988
110.599998 86.143 -60.2716
112.000000 86.025 -60.2243
113.800003 85.877 -60.1466
115.000000 85.782 -60.0893
117.199997 85.611 -59.9385
118.000000 85.550 -59.8770
120.599998 85.340 -59.7077
122.000000 85.224 -59.5281
124.099998 85.084 -59.2880
125.000000 85.028 -59.2486
126.500000 84.924 -59.1712
128.000000 84.812 -58.9382
131.500000 84.597 -58.1580
132.000000 84.566 -58.0936
134.000000 84.428 -57.9133
136.000000 84.281 -57.6636
138.000000 84.169 -57.4182
140.000000 84.052 -57.3810
143.000000 83.860 -57.2436
145.000000 83.723 -57.0923
147.500000 83.525 -56.1869
150.000000 83.419 -54.9900
152.500000 83.332 -54.8924
155.000000 83.147 -55.1615
157.500000 82.954 -54.7389
160.000000 82.817 -53.8640
162.500000 82.728 -53.1538
165.000000 82.666 -52.7444
167.500000 82.615 -52.7167
170.000000 82.520 -52.5915
172.500000 82.389 -51.7229
175.000000 82.226 -50.9581
177.500000 82.044 -51.3173
180.000000 81.991 -52.0525
182.500000 82.118 -51.4733
185.000000 82.153 -49.6893
187.500000 81.883 -48.3420
190.000000 81.516 -48.3126
192.500000 81.348 -48.5029
195.000000 81.362 -47.6539
197.500000 81.292 -46.4414
200.000000 81.139 -45.6889
203.000000 81.015 -45.3950
206.000000 80.977 -44.6751
209.000000 80.857 -44.2355
212.000000 80.723 -43.3344
214.000000 80.769 -42.4826
218.000000 80.949 -41.6121
220.000000 80.953 -41.5806
224.000000 80.772 -41.2973
227.000000 80.590 -39.8772
230.000000 80.429 -37.9613
233.000000 80.235 -36.9875
236.000000 80.100 -37.3495
240.000000 80.075 -37.3456
243.000000 80.118 -36.4424
247.000000 80.080 -36.7323
250.000000 79.881 -36.7633
254.000000 79.579 -35.1676
258.000000 79.483 -34.4928
262.000000 79.551 -34.6214
265.000000 79.675 -34.6263
269.000000 79.845 -32.9667
272.000000 79.766 -30.8332
276.000000 79.495 -30.2832
280.000000 79.595 -30.9930
285.000000 79.707 -29.9037
290.000000 79.522 -28.4762
295.000000 79.497 -26.8979
300.000000 79.491 -26.6250
304.000000 79.451 -26.4179
307.000000 79.410 -26.1546
311.000000 79.395 -25.6639
315.000000 79.406 -25.3884
320.000000 79.340 -24.8874
325.000000 79.141 -22.9874
330.000000 78.867 -21.5104
335.000000 78.855 -21.4994
340.000000 78.998 -21.2929
345.000000 79.067 -20.8789
350.000000 79.100 -19.9170
355.000000 79.119 -19.5257
360.000000 79.155 -19.3733
365.000000 79.153 -18.5769
370.000000 79.139 -17.7263
375.000000 79.127 -17.0443
382.000000 79.143 -16.3491
387.000000 79.160 -15.9166
395.000000 79.106 -15.6457
400.000000 79.134 -15.0254
406.000000 79.110 -14.1725
412.000000 79.086 -13.5656
418.000000 79.050 -13.0524
425.000000 79.010 -12.5216
431.000000 78.997 -11.9839
437.000000 79.000 -11.4803
444.000000 79.000 -11.0648
450.000000 78.944 -10.7393
455.000000 78.880 -10.1620
462.000000 78.868 -9.1482
468.000000 78.907 -8.6771
475.000000 78.933 -8.3697
482.000000 78.949 -7.9737
487.000000 78.951 -7.6448
494.000000 78.948 -7.1833
500.000000 78.943 -6.7650
508.000000 78.935 -6.2276
515.000000 78.931 -5.7825
522.000000 78.935 -5.2842
530.000000 78.933 -4.6883
538.000000 78.929 -4.1867
545.000000 78.924 -3.7579
552.000000 78.917 -3.2978
560.000000 78.908 -2.7885
570.000000 78.901 -2.1631
580.000000 78.892 -1.5652
590.000000 78.883 -0.9293
600.000000 78.889 -0.2509
608.000000 78.891 0.2536
615.000000 78.889 0.6913
622.000000 78.892 1.1479
630.000000 78.895 1.6125
640.000000 78.883 2.1891
650.000000 78.873 2.8206
660.000000 78.868 3.4662
670.000000 78.862 4.1151
680.000000 78.859 4.7405
690.000000 78.860 5.3856
700.000000 78.864 6.0386
710.000000 78.874 6.6569
720.000000 78.885 7.2589
730.000000 78.897 7.8384
740.000000 78.914 8.3725
750.000000 78.934 8.8755
762.000000 78.951 9.4419
775.000000 78.947 9.9540
788.000000 78.901 10.5718
800.000000 78.851 11.4160
812.000000 78.824 12.4155
825.000000 78.822 13.5648
838.000000 78.852 14.6863
850.000000 78.899 15.6012
862.000000 78.951 16.4280
875.000000 79.007 17.2627
885.000000 79.050 17.8754
900.000000 79.110 18.7529
912.000000 79.160 19.4333
925.000000 79.219 20.1403
938.000000 79.278 20.8259
950.000000 79.331 21.4520
962.000000 79.385 22.0581
975.000000 79.442 22.6885
988.000000 79.498 23.2871
1000.000000 79.553 23.8109
1015.000000 79.624 24.4448
1030.000000 79.696 25.0564
1044.000000 79.765 25.6028
1060.000000 79.846 26.1947
1075.000000 79.924 26.7061
1090.000000 80.005 27.1773
1106.000000 80.098 27.6374
1120.000000 80.183 27.9978
1138.000000 80.288 28.4096
1150.000000 80.354 28.6658
1172.000000 80.470 29.0890
1180.000000 80.510 29.2306
1206.000000 80.634 29.6821
1220.000000 80.698 29.9208
1241.000000 80.795 30.2732
1250.000000 80.836 30.4217
1265.000000 80.902 30.6707
1280.000000 80.964 30.9217
1315.000000 81.098 31.5259
1320.000000 81.116 31.6156
1340.000000 81.180 31.9769
1360.000000 81.222 32.3397
1380.000000 81.262 32.7193
1400.000000 81.314 33.1208
1430.000000 81.403 33.7300
1450.000000 81.463 34.1384
1475.000000 81.535 34.6731
1500.000000 81.603 35.2416
1525.000000 81.675 35.8114
1550.000000 81.745 36.3901
1575.000000 81.814 36.9863
1600.000000 81.883 37.5893
1625.000000 81.956 38.2198
1650.000000 82.031 38.8688
1675.000000 82.106 39.5139
1700.000000 82.187 40.1715
1725.000000 82.272 40.8410
1750.000000 82.362 41.5012
1775.000000 82.458 42.1532
1800.000000 82.558 42.7957
1825.000000 82.663 43.4275
1850.000000 82.772 44.0500
1875.000000 82.884 44.6566
1900.000000 82.998 45.2513
1925.000000 83.117 45.8346
1950.000000 83.242 46.4023
1975.000000 83.373 46.9476
2000.000000 83.510 47.4627
2030.000000 83.681 48.0302
2060.000000 83.855 48.5508
2090.000000 84.034 49.0228
2120.000000 84.215 49.4415
2140.000000 84.338 49.6873
2180.000000 84.593 50.0909
2200.000000 84.722 50.2551
2240.000000 84.985 50.5152
2270.000000 85.185 50.6280
2300.000000 85.384 50.6694
2330.000000 85.582 50.6425
2360.000000 85.782 50.5275
2400.000000 86.049 50.2409
2430.000000 86.248 49.9368
2470.000000 86.507 49.4059
2500.000000 86.695 48.9151
2540.000000 86.933 48.1402
2580.000000 87.155 47.2280
2620.000000 87.356 46.1961
2650.000000 87.493 45.3618
2690.000000 87.652 44.2022
2720.000000 87.755 43.3127
2760.000000 87.870 42.1185
2800.000000 87.959 40.9476
2850.000000 88.036 39.5684
2900.000000 88.079 38.3479
2950.000000 88.098 37.3595
3000.000000 88.111 36.6552
3040.000000 88.130 36.2771
3070.000000 88.151 36.0828
3110.000000 88.191 35.9347
3150.000000 88.246 35.9155
3200.000000 88.346 36.0655
3250.000000 88.496 36.3780
3300.000000 88.717 36.7744
3350.000000 89.023 37.0934
3400.000000 89.417 37.1253
3450.000000 89.898 36.6523
3500.000000 90.446 35.4371
3550.000000 91.019 33.2378
3600.000000 91.556 29.8991
3650.000000 91.986 25.4612
3700.000000 92.240 20.2643
3750.000000 92.282 14.8984
3820.000000 92.028 8.2154
3870.000000 91.699 4.5320
3950.000000 91.099 0.5988
4000.000000 90.758 -0.8897
4060.000000 90.421 -2.0108
4120.000000 90.172 -2.6911
4180.000000 90.007 -3.1620
4250.000000 89.914 -3.6390
4310.000000 89.913 -4.1256
4370.000000 89.979 -4.8511
4440.000000 90.130 -6.2244
4500.000000 90.303 -8.0501
4550.000000 90.455 -10.1556
4620.000000 90.624 -14.1264
4680.000000 90.663 -18.4492
4750.000000 90.500 -24.1757
4820.000000 90.059 -29.8131
4870.000000 89.583 -33.2211
4940.000000 88.760 -36.5601
5000.000000 87.998 -37.9681
5080.000000 87.037 -38.0991
5150.000000 86.317 -37.1298
5220.000000 85.726 -35.6404
5300.000000 85.187 -33.6889
5380.000000 84.761 -31.6867
5450.000000 84.457 -29.9537
5520.000000 84.200 -28.2458
5600.000000 83.949 -26.2919
5700.000000 83.692 -23.8154
5800.000000 83.489 -21.2860
5900.000000 83.335 -18.6695
6000.000000 83.232 -15.9504
6080.000000 83.189 -13.7049
6150.000000 83.181 -11.6994
6220.000000 83.202 -9.6701
6300.000000 83.263 -7.3392
6400.000000 83.392 -4.4403
6500.000000 83.578 -1.5803
6600.000000 83.822 1.2096
6700.000000 84.126 3.8782
6800.000000 84.498 6.3621
6900.000000 84.952 8.5997
7000.000000 85.488 10.5079
7100.000000 86.085 11.9934
7200.000000 86.728 12.9603
7300.000000 87.399 13.2891
7400.000000 88.079 12.8695
7500.000000 88.740 11.6266
7620.000000 89.473 9.0304
7750.000000 90.112 5.0371
7880.000000 90.447 0.3157
8000.000000 90.489 -4.0356
8120.000000 90.327 -7.7980
8250.000000 89.995 -10.7963
8380.000000 89.584 -12.5495
8500.000000 89.199 -13.1539
8620.000000 88.850 -12.9765
8750.000000 88.537 -12.1854
8850.000000 88.354 -11.3480
9000.000000 88.180 -10.0559
9120.000000 88.115 -9.2527
9250.000000 88.085 -8.8317
9380.000000 88.053 -9.0036
9500.000000 87.973 -9.6223
9620.000000 87.815 -10.4505
9750.000000 87.553 -11.2377
9880.000000 87.224 -11.6217
10000.000000 86.897 -11.5443
10150.000000 86.500 -11.0201
10300.000000 86.134 -10.3458
10440.000000 85.804 -9.8300
10600.000000 85.403 -9.4753
10750.000000 84.968 -9.2677
10900.000000 84.460 -8.9722
11060.000000 83.839 -8.3602
11200.000000 83.231 -7.4420
11380.000000 82.364 -5.4129
11500.000000 81.764 -3.3524
11720.000000 80.743 1.5371
11800.000000 80.406 3.5279
12060.000000 79.416 10.4836
12200.000000 78.940 14.4690
12410.000000 78.289 20.6437
12500.000000 78.032 23.3388
12650.000000 77.635 27.8703
12800.000000 77.274 32.4492
13150.000000 76.600 43.4837
13200.000000 76.533 45.0953
13400.000000 76.383 51.3509
13600.000000 76.416 56.5037
13800.000000 76.479 59.6894
14000.000000 76.350 61.3247
14300.000000 75.657 63.8511
14500.000000 74.984 66.9170
14750.000000 74.106 72.5099
15000.000000 73.327 79.6961
15250.000000 72.760 87.8695
15500.000000 72.479 96.0050
15750.000000 72.341 103.6545
16000.000000 72.258 112.2448
16250.000000 72.553 122.0569
16500.000000 73.400 130.9806
16750.000000 74.641 137.1200
17000.000000 76.019 139.2743
17250.000000 77.217 136.9201
17500.000000 77.937 131.0378
17750.000000 78.061 124.2650
18000.000000 77.743 119.1443
18250.000000 77.314 116.4084
18500.000000 77.141 115.2752
18750.000000 77.470 114.2854
19000.000000 78.201 111.8402
19250.000000 78.893 106.5550
19500.000000 79.080 97.8202
19750.000000 78.503 86.7848
20000.000000 77.068 76.1418
20300.000000 74.377 67.4815
20600.000000 71.126 64.6026
20900.000000 67.750 63.0450
21200.000000 64.483 29.8885
21400.000000 62.376 -79.2562
21800.000000 58.205 122.8394
22000.000000 56.150 -146.9180
22400.000000 52.016 -91.0156
22700.000000 48.560 114.6309
23000.000000 44.496 -47.5811
23300.000000 40.450 9.2891
23600.000000 37.661 57.8984
24000.000000 36.126 101.1992
