* Measurement data measured by REW V5.20.13
* Source: Headset (DS by VECLAN.COM), MICROPHONE (Master Volume), L, volume: 0.720. Timing signal peak level -15.1 dBFS, measurement signal peak level -15.2 dBFS
* Format: 2M Log Swept Sine, 1 sweep at -12.0 dBFS using an acoustic timing reference
* Dated: Nov 24, 2023 12:59:49 PM
* REW Settings:
*  C-weighting compensation: Off
*  Target level: 75.0 dB
* Note: ; Delay -0.0685 ms (-23 mm, -0.92 in) using estimated IR delay relative to Acoustic reference played from HEADPHONE L with no timing offset
* Measurement: Gaudio Clariden 2022 L
* Smoothing: 1/24 octave
* Frequency Step: 1/48 octave
* Start Frequency: 1.000 Hz
*
* Freq(Hz) SPL(dB) Phase(degrees)
1.000000 64.538 -4.2744
1.015000 64.751 -4.5756
1.030000 64.964 -4.8890
1.044000 65.164 -5.1923
1.060000 65.391 -5.5510
1.075000 65.604 -5.8986
1.090000 65.817 -6.2564
1.106000 66.043 -6.6526
1.120000 66.245 -7.0308
1.138000 66.510 -7.5617
1.150000 66.689 -7.9411
1.172000 67.022 -8.6835
1.180000 67.145 -8.9668
1.206000 67.548 -9.9291
1.220000 67.766 -10.4692
1.241000 68.095 -11.3009
1.250000 68.236 -11.6635
1.265000 68.471 -12.2731
1.280000 68.706 -12.8869
1.315000 69.248 -14.3165
1.320000 69.324 -14.5188
1.340000 69.628 -15.3177
1.360000 69.925 -16.0952
1.380000 70.216 -16.8435
1.400000 70.500 -17.5549
1.430000 70.907 -18.5363
1.450000 71.166 -19.1221
1.475000 71.472 -19.7667
1.500000 71.765 -20.3317
1.525000 72.045 -20.8303
1.550000 72.314 -21.2715
1.575000 72.573 -21.6643
1.600000 72.822 -22.0175
1.625000 73.063 -22.3402
1.650000 73.296 -22.6411
1.675000 73.523 -22.9293
1.700000 73.745 -23.2137
1.725000 73.962 -23.5032
1.750000 74.176 -23.8067
1.775000 74.387 -24.1333
1.800000 74.597 -24.4917
1.825000 74.806 -24.8910
1.850000 75.013 -25.3304
1.875000 75.213 -25.7901
1.900000 75.408 -26.2664
1.925000 75.597 -26.7568
1.950000 75.782 -27.2585
1.975000 75.962 -27.7688
2.000000 76.138 -28.2852
2.030000 76.346 -28.9089
2.060000 76.551 -29.5328
2.090000 76.753 -30.1522
2.120000 76.955 -30.7625
2.140000 77.089 -31.1621
2.180000 77.359 -31.9374
2.200000 77.494 -32.3105
2.240000 77.767 -33.0361
2.270000 77.970 -33.5674
2.300000 78.172 -34.0894
2.330000 78.372 -34.6035
2.360000 78.571 -35.1114
2.400000 78.833 -35.7815
2.430000 79.026 -36.2807
2.470000 79.280 -36.9449
2.500000 79.466 -37.4438
2.540000 79.710 -38.1132
2.580000 79.946 -38.7894
2.620000 80.176 -39.4654
2.650000 80.345 -39.9713
2.690000 80.565 -40.6447
2.720000 80.727 -41.1490
2.760000 80.938 -41.8210
2.800000 81.146 -42.4928
2.850000 81.400 -43.3330
2.900000 81.649 -44.1744
2.950000 81.893 -45.0190
3.000000 82.132 -45.8744
3.040000 82.319 -46.5640
3.070000 82.457 -47.0822
3.110000 82.637 -47.7720
3.150000 82.814 -48.4575
3.200000 83.031 -49.3034
3.250000 83.243 -50.1312
3.300000 83.450 -50.9349
3.350000 83.651 -51.7115
3.400000 83.847 -52.4661
3.450000 84.038 -53.2040
3.500000 84.224 -53.9306
3.550000 84.405 -54.6514
3.600000 84.583 -55.3718
3.650000 84.758 -56.0974
3.700000 84.929 -56.8322
3.750000 85.097 -57.5734
3.820000 85.324 -58.6131
3.870000 85.482 -59.3508
3.950000 85.728 -60.5093
4.000000 85.879 -61.2124
4.060000 86.056 -62.0279
4.120000 86.229 -62.8143
4.180000 86.397 -63.5786
4.250000 86.589 -64.4517
4.310000 86.749 -65.1920
4.370000 86.907 -65.9322
4.440000 87.087 -66.8017
4.500000 87.238 -67.5462
4.550000 87.362 -68.1640
4.620000 87.531 -69.0217
4.680000 87.673 -69.7477
4.750000 87.836 -70.5805
4.820000 87.997 -71.3950
4.870000 88.109 -71.9664
4.940000 88.263 -72.7551
5.000000 88.393 -73.4235
5.080000 88.562 -74.3087
5.150000 88.708 -75.0818
5.220000 88.850 -75.8512
5.300000 89.009 -76.7241
5.380000 89.164 -77.5896
5.450000 89.298 -78.3405
5.520000 89.428 -79.0851
5.600000 89.574 -79.9285
5.700000 89.751 -80.9718
5.800000 89.922 -82.0030
5.900000 90.089 -83.0221
6.000000 90.250 -84.0295
6.080000 90.375 -84.8266
6.150000 90.482 -85.5175
6.220000 90.587 -86.2021
6.300000 90.703 -86.9779
6.400000 90.844 -87.9376
6.500000 90.981 -88.8825
6.600000 91.113 -89.8088
6.700000 91.242 -90.7156
6.800000 91.366 -91.6048
6.900000 91.487 -92.4772
7.000000 91.605 -93.3337
7.100000 91.720 -94.1737
7.200000 91.832 -94.9974
7.300000 91.941 -95.8053
7.400000 92.049 -96.5970
7.500000 92.154 -97.3715
7.620000 92.278 -98.2828
7.750000 92.409 -99.2527
7.880000 92.537 -100.2019
8.000000 92.652 -101.0632
8.120000 92.766 -101.9138
8.250000 92.886 -102.8209
8.380000 93.004 -103.7162
8.500000 93.109 -104.5350
8.620000 93.212 -105.3454
8.750000 93.320 -106.2132
8.850000 93.400 -106.8739
9.000000 93.517 -107.8543
9.120000 93.607 -108.6262
9.250000 93.702 -109.4478
9.380000 93.794 -110.2554
9.500000 93.875 -110.9868
9.620000 93.951 -111.7041
9.750000 94.028 -112.4657
9.880000 94.097 -113.2093
10.000000 94.152 -113.8794
10.150000 94.210 -114.6949
10.300000 94.260 -115.4817
10.440000 94.298 -116.1873
10.600000 94.338 -116.9697
10.750000 94.377 -117.6838
10.900000 94.415 -118.3808
11.060000 94.456 -119.1237
11.200000 94.494 -119.7723
11.380000 94.540 -120.6010
11.500000 94.569 -121.1507
11.720000 94.621 -122.1488
11.800000 94.640 -122.5074
12.060000 94.697 -123.6572
12.200000 94.726 -124.2638
12.410000 94.769 -125.1546
12.500000 94.787 -125.5247
12.650000 94.814 -126.1266
12.800000 94.841 -126.7116
13.150000 94.903 -128.0124
13.200000 94.912 -128.1942
13.400000 94.952 -128.9099
13.600000 94.992 -129.6229
13.800000 95.036 -130.3383
14.000000 95.077 -131.0661
14.300000 95.136 -132.1802
14.500000 95.169 -132.9300
14.750000 95.204 -133.8516
15.000000 95.233 -134.7434
15.250000 95.260 -135.5861
15.500000 95.287 -136.3721
15.750000 95.316 -137.1022
16.000000 95.349 -137.7885
16.250000 95.386 -138.4619
16.500000 95.429 -139.1379
16.750000 95.474 -139.8360
17.000000 95.520 -140.5577
17.250000 95.563 -141.2959
17.500000 95.602 -142.0397
17.750000 95.635 -142.7664
18.000000 95.665 -143.4677
18.250000 95.691 -144.1349
18.500000 95.718 -144.7695
18.750000 95.746 -145.3800
19.000000 95.777 -145.9743
19.250000 95.809 -146.5657
19.500000 95.841 -147.1557
19.750000 95.871 -147.7453
20.000000 95.900 -148.3286
20.299999 95.930 -149.0122
20.600000 95.958 -149.6714
20.900000 95.983 -150.3036
21.200001 96.009 -150.9130
21.400000 96.025 -151.3118
21.799999 96.058 -152.1012
22.000000 96.073 -152.4951
22.400000 96.100 -153.2827
22.700001 96.117 -153.8654
23.000000 96.131 -154.4313
23.299999 96.143 -154.9755
23.600000 96.155 -155.4981
24.000000 96.174 -156.1717
24.299999 96.190 -156.6747
24.700001 96.214 -157.3623
25.000000 96.229 -157.8945
25.400000 96.244 -158.6109
25.799999 96.252 -159.2971
26.200001 96.258 -159.9224
26.500000 96.266 -160.3558
26.900000 96.286 -160.9216
27.200001 96.306 -161.3714
27.600000 96.332 -162.0336
28.000000 96.348 -162.7484
28.500000 96.346 -163.6093
29.000000 96.332 -164.3163
29.500000 96.326 -164.8742
30.000000 96.335 -165.3951
30.400000 96.347 -165.8399
30.700001 96.355 -166.1863
31.100000 96.363 -166.6407
31.500000 96.372 -167.0780
32.000000 96.390 -167.6373
32.500000 96.407 -168.2676
33.000000 96.411 -168.9532
33.500000 96.400 -169.6022
34.000000 96.384 -170.1505
34.500000 96.380 -170.6410
35.000000 96.384 -171.1580
35.500000 96.386 -171.7279
36.000000 96.381 -172.3010
36.500000 96.371 -172.8296
37.000000 96.364 -173.3199
37.500000 96.361 -173.8070
38.200001 96.357 -174.5042
38.700001 96.352 -174.9919
39.500000 96.343 -175.7287
40.000000 96.339 -176.1707
40.599998 96.336 -176.6940
41.200001 96.334 -177.2201
41.799999 96.329 -177.7521
42.500000 96.319 -178.3583
43.099998 96.309 -178.8407
43.700001 96.301 -179.2909
44.400002 96.297 -179.8044
45.000000 96.296 179.7395
45.500000 96.294 179.3415
46.200001 96.285 178.7785
46.799999 96.274 178.3275
47.500000 96.263 177.8468
48.200001 96.258 177.3677
48.700001 96.254 177.0147
49.400002 96.245 176.5338
50.000000 96.238 176.1416
50.799999 96.231 175.6057
51.500000 96.218 175.1358
52.200001 96.202 174.7236
53.000000 96.194 174.2922
53.799999 96.191 173.7996
54.500000 96.180 173.3239
55.200001 96.161 172.8649
56.000000 96.135 172.3954
57.000000 96.107 171.8717
58.000000 96.089 171.3253
59.000000 96.069 170.7195
60.000000 96.044 170.1219
60.799999 96.027 169.6731
61.500000 96.017 169.2824
62.200001 96.010 168.8867
63.000000 96.006 168.4430
64.000000 96.010 167.8171
65.000000 95.988 167.0913
66.000000 95.934 166.6203
67.000000 95.907 166.3871
68.000000 95.899 166.0632
69.000000 95.884 165.6721
70.000000 95.865 165.2721
71.000000 95.845 164.8484
72.000000 95.823 164.3937
73.000000 95.799 163.9413
74.000000 95.776 163.5070
75.000000 95.753 163.0869
76.199997 95.731 162.6244
77.500000 95.712 162.1127
78.800003 95.690 161.5824
80.000000 95.666 161.1127
81.199997 95.643 160.6493
82.500000 95.618 160.1527
83.800003 95.595 159.6835
85.000000 95.575 159.2532
86.199997 95.557 158.8181
87.500000 95.534 158.3461
88.500000 95.515 157.9972
90.000000 95.490 157.4821
91.199997 95.471 157.0685
92.500000 95.452 156.6233
93.800003 95.432 156.1873
95.000000 95.414 155.7983
96.199997 95.394 155.4165
97.500000 95.370 155.0070
98.800003 95.345 154.6064
100.000000 95.323 154.2395
101.500000 95.297 153.7748
103.000000 95.271 153.3011
104.400002 95.246 152.8682
106.000000 95.219 152.3910
107.500000 95.194 151.9509
109.000000 95.170 151.5065
110.599998 95.143 151.0207
112.000000 95.118 150.6117
113.800003 95.086 150.0999
115.000000 95.064 149.7660
117.199997 95.027 149.1667
118.000000 95.015 148.9441
120.599998 94.975 148.2176
122.000000 94.955 147.8508
124.099998 94.928 147.3026
125.000000 94.916 147.0674
126.500000 94.894 146.6767
128.000000 94.872 146.2871
131.500000 94.827 145.3803
132.000000 94.821 145.2532
134.000000 94.796 144.7590
136.000000 94.773 144.2766
138.000000 94.751 143.7869
140.000000 94.726 143.3026
143.000000 94.694 142.5936
145.000000 94.672 142.1273
147.500000 94.646 141.5648
150.000000 94.622 140.9897
152.500000 94.594 140.4053
155.000000 94.566 139.8334
157.500000 94.539 139.2765
160.000000 94.511 138.7083
162.500000 94.478 138.1376
165.000000 94.448 137.5911
167.500000 94.421 137.0573
170.000000 94.394 136.5332
172.500000 94.361 136.0236
175.000000 94.332 135.4976
177.500000 94.301 134.9406
180.000000 94.265 134.4279
182.500000 94.228 133.9623
185.000000 94.194 133.4968
187.500000 94.162 133.0019
190.000000 94.129 132.5136
192.500000 94.097 132.0646
195.000000 94.070 131.6115
197.500000 94.044 131.1216
200.000000 94.015 130.6368
203.000000 93.981 130.0920
206.000000 93.950 129.5552
209.000000 93.920 129.0186
212.000000 93.890 128.4812
214.000000 93.869 128.1244
218.000000 93.824 127.4199
220.000000 93.801 127.0739
224.000000 93.760 126.3905
227.000000 93.729 125.9019
230.000000 93.698 125.4267
233.000000 93.668 124.9491
236.000000 93.638 124.4727
240.000000 93.595 123.8369
243.000000 93.567 123.3572
247.000000 93.533 122.7349
250.000000 93.503 122.2788
254.000000 93.464 121.6841
258.000000 93.436 121.0984
262.000000 93.412 120.4066
265.000000 93.386 119.9185
269.000000 93.347 119.4279
272.000000 93.319 119.0430
276.000000 93.285 118.4897
280.000000 93.261 117.9604
285.000000 93.232 117.2715
290.000000 93.189 116.5724
295.000000 93.150 115.8744
300.000000 93.114 115.2469
304.000000 93.088 114.7543
307.000000 93.070 114.3971
311.000000 93.046 113.9240
315.000000 93.019 113.4330
320.000000 92.984 112.8340
325.000000 92.951 112.2725
330.000000 92.920 111.7267
335.000000 92.892 111.1744
340.000000 92.865 110.6332
345.000000 92.836 110.1089
350.000000 92.806 109.5731
355.000000 92.777 109.0394
360.000000 92.752 108.5150
365.000000 92.725 108.0143
370.000000 92.697 107.5145
375.000000 92.670 107.0099
382.000000 92.632 106.3134
387.000000 92.606 105.8233
395.000000 92.558 105.0674
400.000000 92.525 104.6117
406.000000 92.490 104.0777
412.000000 92.455 103.5589
418.000000 92.420 103.0554
425.000000 92.378 102.4822
431.000000 92.342 102.0133
437.000000 92.307 101.5624
444.000000 92.268 101.0526
450.000000 92.236 100.6265
455.000000 92.209 100.2794
462.000000 92.172 99.8162
468.000000 92.140 99.4380
475.000000 92.105 99.0112
482.000000 92.072 98.5971
487.000000 92.050 98.3114
494.000000 92.020 97.9318
500.000000 91.995 97.6201
508.000000 91.963 97.2129
515.000000 91.936 96.8704
522.000000 91.910 96.5472
530.000000 91.882 96.1986
538.000000 91.855 95.8666
545.000000 91.832 95.5875
552.000000 91.811 95.3252
560.000000 91.788 95.0471
570.000000 91.761 94.7229
580.000000 91.736 94.4188
590.000000 91.711 94.1418
600.000000 91.687 93.8955
608.000000 91.668 93.7138
615.000000 91.651 93.5674
622.000000 91.634 93.4319
630.000000 91.616 93.2931
640.000000 91.593 93.1454
650.000000 91.574 93.0173
660.000000 91.556 92.9071
670.000000 91.540 92.8203
680.000000 91.526 92.7590
690.000000 91.515 92.7173
700.000000 91.507 92.6926
710.000000 91.501 92.6887
720.000000 91.497 92.7045
730.000000 91.495 92.7377
740.000000 91.495 92.7859
750.000000 91.497 92.8526
762.000000 91.502 92.9555
775.000000 91.511 93.0810
788.000000 91.523 93.2240
800.000000 91.537 93.3784
812.000000 91.556 93.5532
825.000000 91.580 93.7576
838.000000 91.609 93.9660
850.000000 91.640 94.1621
862.000000 91.675 94.3686
875.000000 91.715 94.6009
885.000000 91.748 94.7765
900.000000 91.803 95.0345
912.000000 91.851 95.2402
925.000000 91.906 95.4591
938.000000 91.965 95.6631
950.000000 92.023 95.8366
962.000000 92.081 96.0011
975.000000 92.145 96.1670
988.000000 92.210 96.3159
1000.000000 92.272 96.4386
1015.000000 92.350 96.5715
1030.000000 92.429 96.6781
1044.000000 92.503 96.7554
1060.000000 92.587 96.8175
1075.000000 92.667 96.8507
1090.000000 92.750 96.8619
1106.000000 92.846 96.8539
1120.000000 92.930 96.8279
1138.000000 93.037 96.7709
1150.000000 93.105 96.7223
1172.000000 93.227 96.6164
1180.000000 93.269 96.5751
1206.000000 93.403 96.4338
1220.000000 93.474 96.3527
1241.000000 93.579 96.2317
1250.000000 93.623 96.1809
1265.000000 93.693 96.0994
1280.000000 93.760 96.0241
1315.000000 93.907 95.8782
1320.000000 93.926 95.8617
1340.000000 93.995 95.8070
1360.000000 94.043 95.7668
1380.000000 94.087 95.7452
1400.000000 94.142 95.7445
1430.000000 94.227 95.7818
1450.000000 94.282 95.8371
1475.000000 94.349 95.9393
1500.000000 94.416 96.0851
1525.000000 94.481 96.2687
1550.000000 94.544 96.4748
1575.000000 94.607 96.6871
1600.000000 94.670 96.9058
1625.000000 94.733 97.1342
1650.000000 94.797 97.3700
1675.000000 94.861 97.6153
1700.000000 94.925 97.8688
1725.000000 94.990 98.1273
1750.000000 95.055 98.3870
1775.000000 95.120 98.6463
1800.000000 95.185 98.9014
1825.000000 95.252 99.1545
1850.000000 95.320 99.4008
1875.000000 95.388 99.6357
1900.000000 95.456 99.8640
1925.000000 95.524 100.0804
1950.000000 95.592 100.2808
1975.000000 95.659 100.4646
2000.000000 95.726 100.6324
2030.000000 95.803 100.8119
2060.000000 95.879 100.9644
2090.000000 95.951 101.0894
2120.000000 96.021 101.1817
2140.000000 96.065 101.2274
2180.000000 96.146 101.2831
2200.000000 96.181 101.2904
2240.000000 96.239 101.2685
2270.000000 96.273 101.2259
2300.000000 96.297 101.1671
2330.000000 96.310 101.0936
2360.000000 96.310 101.0110
2400.000000 96.290 100.9043
2430.000000 96.256 100.8439
2470.000000 96.183 100.8178
2500.000000 96.104 100.8691
2540.000000 95.967 101.0933
2580.000000 95.791 101.6090
2620.000000 95.582 102.5829
2650.000000 95.420 103.7205
2690.000000 95.235 105.8528
2720.000000 95.153 107.8533
2760.000000 95.158 110.7606
2800.000000 95.295 113.4823
2850.000000 95.583 116.1042
2900.000000 95.899 117.8148
2950.000000 96.191 118.9398
3000.000000 96.457 119.7560
3040.000000 96.660 120.2628
3070.000000 96.812 120.5574
3110.000000 97.012 120.8122
3150.000000 97.209 120.8783
3200.000000 97.437 120.6705
3250.000000 97.629 120.1664
3300.000000 97.771 119.4475
3350.000000 97.858 118.6373
3400.000000 97.893 117.8608
3450.000000 97.889 117.2091
3500.000000 97.858 116.7324
3550.000000 97.807 116.4383
3600.000000 97.744 116.3256
3650.000000 97.673 116.3918
3700.000000 97.601 116.6338
3750.000000 97.536 117.0282
3820.000000 97.467 117.7656
3870.000000 97.434 118.3623
3950.000000 97.408 119.3444
4000.000000 97.406 119.9371
4060.000000 97.418 120.5951
4120.000000 97.444 121.1687
4180.000000 97.480 121.6326
4250.000000 97.529 122.0066
4310.000000 97.568 122.1599
4370.000000 97.595 122.1447
4440.000000 97.607 121.9116
4500.000000 97.596 121.5357
4550.000000 97.568 121.1145
4620.000000 97.494 120.3965
4680.000000 97.395 119.7033
4750.000000 97.236 118.8584
4820.000000 97.026 118.0408
4870.000000 96.844 117.5163
4940.000000 96.549 116.9282
5000.000000 96.264 116.6138
5080.000000 95.847 116.5223
5150.000000 95.461 116.7753
5220.000000 95.067 117.3401
5300.000000 94.617 118.3446
5380.000000 94.180 119.7023
5450.000000 93.815 121.1475
5520.000000 93.469 122.8036
5600.000000 93.101 124.9226
5700.000000 92.686 127.8849
5800.000000 92.326 131.1870
5900.000000 92.036 134.8019
6000.000000 91.837 138.6542
6080.000000 91.754 141.8334
6150.000000 91.744 144.6265
6220.000000 91.799 147.3560
6300.000000 91.946 150.2500
6400.000000 92.245 153.1648
6500.000000 92.588 154.7705
6600.000000 92.769 155.0799
6700.000000 92.643 156.3450
6800.000000 92.671 160.7230
6900.000000 93.303 165.2805
7000.000000 94.220 167.3999
7100.000000 95.148 167.3514
7200.000000 96.020 165.6579
7300.000000 96.793 162.4794
7400.000000 97.403 157.9736
7500.000000 97.792 152.5303
7620.000000 97.936 145.6518
7750.000000 97.728 139.0779
7880.000000 97.189 134.4225
8000.000000 96.550 132.0781
8120.000000 95.913 131.4080
8250.000000 95.312 132.1618
8380.000000 94.848 134.0176
8500.000000 94.557 136.3786
8620.000000 94.398 139.1104
8750.000000 94.370 142.2365
8850.000000 94.446 144.5915
9000.000000 94.702 147.7892
9120.000000 95.008 149.9995
9250.000000 95.448 152.0382
9380.000000 96.032 153.5187
9500.000000 96.732 153.9474
9620.000000 97.552 152.5327
9750.000000 98.360 147.7982
9880.000000 98.755 139.9592
10000.000000 98.586 131.9099
10150.000000 97.742 123.9399
10300.000000 96.527 119.5188
10440.000000 95.277 118.1144
10600.000000 93.835 119.3006
10750.000000 92.587 122.5704
10900.000000 91.504 127.2292
11060.000000 90.537 133.1608
11200.000000 89.842 138.8623
11380.000000 89.136 146.6033
11500.000000 88.770 151.8942
11720.000000 88.302 161.5940
11800.000000 88.192 165.0529
12060.000000 88.039 175.6751
12200.000000 88.061 -179.2408
12410.000000 88.169 -172.8778
12500.000000 88.219 -170.6967
12650.000000 88.276 -167.8298
12800.000000 88.256 -165.9395
13150.000000 87.555 -164.0266
13200.000000 87.359 -163.7411
13400.000000 86.353 -161.6682
13600.000000 85.088 -157.4448
13800.000000 83.719 -150.7722
14000.000000 82.387 -141.8246
14300.000000 80.658 -124.8594
14500.000000 79.806 -111.7126
14750.000000 79.253 -94.3299
15000.000000 79.298 -78.2753
15250.000000 79.509 -65.2879
15500.000000 79.551 -53.0304
15750.000000 79.703 -38.8945
16000.000000 80.363 -23.3163
16250.000000 81.847 -7.7923
16500.000000 84.614 5.8204
16750.000000 88.598 12.2657
17000.000000 92.009 0.4475
17250.000000 92.739 -30.0964
17500.000000 90.458 -52.7578
17750.000000 86.871 -57.0275
18000.000000 84.017 -54.5774
18250.000000 82.269 -54.5064
18500.000000 80.691 -58.9137
18750.000000 78.504 -63.6622
19000.000000 75.572 -63.0581
19250.000000 72.178 -55.2717
19500.000000 68.608 -41.6312
19750.000000 65.070 -24.0910
20000.000000 61.847 -6.3066
20300.000000 58.478 -1.3843
20600.000000 54.907 -138.5259
20900.000000 51.011 -5.9386
21200.000000 47.873 -116.2646
21400.000000 46.637 -4.6797
21800.000000 45.639 -30.8281
22000.000000 44.976 44.5273
22400.000000 43.015 21.5664
22700.000000 42.680 -75.5742
23000.000000 43.816 125.4297
23300.000000 45.734 -5.2656
23600.000000 47.679 -32.2344
24000.000000 49.406 -65.0469
