* Measurement data measured by REW V5.20.13
* Source: Headset (DS by VECLAN.COM), MICROPHONE (Master Volume), L, volume: 0.720. Timing signal peak level -13.6 dBFS, measurement signal peak level -13.5 dBFS
* Format: 2M Log Swept Sine, 1 sweep at -12.0 dBFS using an acoustic timing reference
* Dated: Nov 24, 2023 1:01:10 PM
* REW Settings:
*  C-weighting compensation: Off
*  Target level: 75.0 dB
* Note: ; Delay -0.0684 ms (-23 mm, -0.92 in) using estimated IR delay relative to Acoustic reference played from HEADPHONE R with no timing offset
* Measurement: Gaudio Clariden 2022 R
* Smoothing: 1/24 octave
* Frequency Step: 1/48 octave
* Start Frequency: 1.000 Hz
*
* Freq(Hz) SPL(dB) Phase(degrees)
1.000000 59.634 43.4864
1.015000 59.914 43.4065
1.030000 60.190 43.2577
1.044000 60.441 43.0539
1.060000 60.720 42.7409
1.075000 60.971 42.3665
1.090000 61.212 41.9105
1.106000 61.456 41.3237
1.120000 61.668 40.6873
1.138000 61.939 39.7026
1.150000 62.120 38.9503
1.172000 62.450 37.3920
1.180000 62.569 36.7731
1.206000 62.956 34.5950
1.220000 63.162 33.3304
1.241000 63.469 31.3364
1.250000 63.600 30.4523
1.265000 63.817 28.9478
1.280000 64.032 27.4136
1.315000 64.525 23.7773
1.320000 64.595 23.2571
1.340000 64.870 21.1898
1.360000 65.141 19.1630
1.380000 65.408 17.2014
1.400000 65.669 15.3301
1.430000 66.050 12.7464
1.450000 66.296 11.2091
1.475000 66.595 9.5238
1.500000 66.883 7.9882
1.525000 67.161 6.5608
1.550000 67.428 5.2303
1.575000 67.687 3.9853
1.600000 67.939 2.8143
1.625000 68.184 1.7059
1.650000 68.424 0.6487
1.675000 68.658 -0.3688
1.700000 68.890 -1.3579
1.725000 69.119 -2.3301
1.750000 69.346 -3.2968
1.775000 69.573 -4.2695
1.800000 69.800 -5.2596
1.825000 70.029 -6.2784
1.850000 70.259 -7.3229
1.875000 70.487 -8.3633
1.900000 70.713 -9.3965
1.925000 70.936 -10.4206
1.950000 71.158 -11.4339
1.975000 71.378 -12.4346
2.000000 71.595 -13.4209
2.030000 71.853 -14.5831
2.060000 72.107 -15.7190
2.090000 72.359 -16.8256
2.120000 72.606 -17.8998
2.140000 72.770 -18.5964
2.180000 73.091 -19.9387
2.200000 73.250 -20.5825
2.240000 73.563 -21.8092
2.270000 73.793 -22.6789
2.300000 74.021 -23.5105
2.330000 74.245 -24.3082
2.360000 74.465 -25.0767
2.400000 74.754 -26.0634
2.430000 74.967 -26.7807
2.470000 75.245 -27.7153
2.500000 75.449 -28.4056
2.540000 75.716 -29.3203
2.580000 75.976 -30.2340
2.620000 76.229 -31.1192
2.650000 76.414 -31.7622
2.690000 76.655 -32.5960
2.720000 76.831 -33.2064
2.760000 77.061 -34.0047
2.800000 77.286 -34.7897
2.850000 77.561 -35.7604
2.900000 77.829 -36.7287
2.950000 78.091 -37.7044
3.000000 78.344 -38.6876
3.040000 78.541 -39.4737
3.070000 78.686 -40.0598
3.110000 78.875 -40.8329
3.150000 79.060 -41.5921
3.200000 79.285 -42.5144
3.250000 79.506 -43.3984
3.300000 79.723 -44.2348
3.350000 79.934 -45.0134
3.400000 80.139 -45.7405
3.450000 80.339 -46.4292
3.500000 80.533 -47.0931
3.550000 80.723 -47.7452
3.600000 80.910 -48.3991
3.650000 81.094 -49.0680
3.700000 81.275 -49.7593
3.750000 81.451 -50.4621
3.820000 81.691 -51.4509
3.870000 81.859 -52.1511
3.950000 82.121 -53.2409
4.000000 82.283 -53.8920
4.060000 82.473 -54.6310
4.120000 82.660 -55.3230
4.180000 82.844 -55.9813
4.250000 83.053 -56.7259
4.310000 83.229 -57.3603
4.370000 83.403 -58.0061
4.440000 83.603 -58.7860
4.500000 83.770 -59.4653
4.550000 83.908 -60.0344
4.620000 84.098 -60.8306
4.680000 84.258 -61.5073
4.750000 84.441 -62.2837
4.820000 84.621 -63.0413
4.870000 84.747 -63.5732
4.940000 84.921 -64.3093
5.000000 85.067 -64.9361
5.080000 85.258 -65.7725
5.150000 85.421 -66.5107
5.220000 85.581 -67.2541
5.300000 85.759 -68.1056
5.380000 85.932 -68.9546
5.450000 86.080 -69.6918
5.520000 86.225 -70.4213
5.600000 86.385 -71.2499
5.700000 86.579 -72.2769
5.800000 86.767 -73.2892
5.900000 86.949 -74.2822
6.000000 87.124 -75.2584
6.080000 87.260 -76.0272
6.150000 87.375 -76.6906
6.220000 87.489 -77.3447
6.300000 87.616 -78.0821
6.400000 87.770 -78.9888
6.500000 87.920 -79.8753
6.600000 88.066 -80.7381
6.700000 88.210 -81.5736
6.800000 88.350 -82.3855
6.900000 88.488 -83.1803
7.000000 88.625 -83.9633
7.100000 88.759 -84.7306
7.200000 88.892 -85.4839
7.300000 89.023 -86.2270
7.400000 89.153 -86.9606
7.500000 89.282 -87.6819
7.620000 89.434 -88.5383
7.750000 89.596 -89.4638
7.880000 89.755 -90.3844
8.000000 89.899 -91.2290
8.120000 90.039 -92.0694
8.250000 90.187 -92.9761
8.380000 90.330 -93.8741
8.500000 90.458 -94.6928
8.620000 90.581 -95.5041
8.750000 90.711 -96.3673
8.850000 90.807 -97.0163
9.000000 90.946 -97.9696
9.120000 91.054 -98.7109
9.250000 91.170 -99.4881
9.380000 91.284 -100.2401
9.500000 91.385 -100.9176
9.620000 91.484 -101.5801
9.750000 91.588 -102.2795
9.880000 91.686 -102.9702
10.000000 91.768 -103.6030
10.150000 91.863 -104.3850
10.300000 91.950 -105.1647
10.440000 92.023 -105.8893
10.600000 92.101 -106.7176
10.750000 92.171 -107.4986
10.900000 92.238 -108.2815
11.060000 92.305 -109.1167
11.200000 92.360 -109.8510
11.380000 92.425 -110.7717
11.500000 92.464 -111.3666
11.720000 92.531 -112.4138
11.800000 92.555 -112.7754
12.060000 92.633 -113.8935
12.200000 92.678 -114.4693
12.410000 92.750 -115.3051
12.500000 92.782 -115.6639
12.650000 92.837 -116.2566
12.800000 92.892 -116.8584
13.150000 93.020 -118.3370
13.200000 93.036 -118.5555
13.400000 93.101 -119.4555
13.600000 93.158 -120.3570
13.800000 93.204 -121.2517
14.000000 93.241 -122.0936
14.300000 93.285 -123.2331
14.500000 93.312 -123.8769
14.750000 93.356 -124.5827
15.000000 93.418 -125.2050
15.250000 93.505 -125.8376
15.500000 93.607 -126.5507
15.750000 93.719 -127.3790
16.000000 93.824 -128.3490
16.250000 93.913 -129.4100
16.500000 93.981 -130.5155
16.750000 94.026 -131.5871
17.000000 94.057 -132.5506
17.250000 94.081 -133.3891
17.500000 94.107 -134.0881
17.750000 94.144 -134.7006
18.000000 94.192 -135.2728
18.250000 94.254 -135.8568
18.500000 94.320 -136.5000
18.750000 94.385 -137.1978
19.000000 94.443 -137.9448
19.250000 94.490 -138.6951
19.500000 94.528 -139.4145
19.750000 94.558 -140.0773
20.000000 94.586 -140.6661
20.299999 94.623 -141.3030
20.600000 94.669 -141.9032
20.900000 94.721 -142.5162
21.200001 94.775 -143.1792
21.400000 94.807 -143.6479
21.799999 94.858 -144.6104
22.000000 94.876 -145.0798
22.400000 94.904 -145.9453
22.700001 94.924 -146.5210
23.000000 94.950 -147.0590
23.299999 94.984 -147.6052
23.600000 95.020 -148.1896
24.000000 95.064 -149.0374
24.299999 95.088 -149.6900
24.700001 95.109 -150.5123
25.000000 95.122 -151.0645
25.400000 95.147 -151.7368
25.799999 95.183 -152.4189
26.200001 95.216 -153.1606
26.500000 95.232 -153.7183
26.900000 95.243 -154.3648
27.200001 95.256 -154.7303
27.600000 95.300 -155.1090
28.000000 95.387 -155.5833
28.500000 95.514 -156.6646
29.000000 95.571 -158.2422
29.500000 95.509 -159.6956
30.000000 95.395 -160.3671
30.400000 95.350 -160.3725
30.700001 95.370 -160.3037
31.100000 95.450 -160.4789
31.500000 95.539 -161.1169
32.000000 95.584 -162.3326
32.500000 95.541 -163.4229
33.000000 95.474 -164.0222
33.500000 95.449 -164.3054
34.000000 95.472 -164.6539
34.500000 95.507 -165.2248
35.000000 95.526 -165.9162
35.500000 95.531 -166.5948
36.000000 95.530 -167.2346
36.500000 95.527 -167.8554
37.000000 95.519 -168.4442
37.500000 95.510 -168.9729
38.200001 95.507 -169.6324
38.700001 95.515 -170.1015
39.500000 95.531 -170.9147
40.000000 95.537 -171.4459
40.599998 95.539 -172.0717
41.200001 95.538 -172.6627
41.799999 95.536 -173.2232
42.500000 95.535 -173.8615
43.099998 95.534 -174.4071
43.700001 95.531 -174.9430
44.400002 95.524 -175.5307
45.000000 95.521 -176.0030
45.500000 95.522 -176.4032
46.200001 95.524 -176.9983
46.799999 95.522 -177.5085
47.500000 95.521 -178.0777
48.200001 95.522 -178.6693
48.700001 95.517 -179.0973
49.400002 95.506 -179.6245
50.000000 95.505 179.9716
50.799999 95.510 179.3476
51.500000 95.497 178.7783
52.200001 95.481 178.3431
53.000000 95.486 177.8699
53.799999 95.491 177.1980
54.500000 95.464 176.6058
55.200001 95.426 176.2185
56.000000 95.410 175.9536
57.000000 95.430 175.4924
58.000000 95.441 174.7886
59.000000 95.419 174.0021
60.000000 95.361 173.3724
60.799999 95.329 173.0875
61.500000 95.334 172.7872
62.200001 95.344 172.3014
63.000000 95.337 171.6797
64.000000 95.324 171.0487
65.000000 95.329 170.4678
66.000000 95.332 169.9208
67.000000 95.335 169.4215
68.000000 95.308 168.7644
69.000000 95.194 168.2963
70.000000 95.073 168.4673
71.000000 95.039 168.7411
72.000000 95.066 168.6215
73.000000 95.117 168.0358
74.000000 95.145 167.1363
75.000000 95.153 166.3899
76.199997 95.196 165.7411
77.500000 95.252 164.9887
78.800003 95.256 164.1906
80.000000 95.196 163.6057
81.199997 95.127 163.1877
82.500000 95.067 162.6396
83.800003 95.023 162.0338
85.000000 95.008 161.5435
86.199997 95.019 161.1190
87.500000 95.034 160.6378
88.500000 95.018 160.2346
90.000000 94.930 159.8612
91.199997 94.874 159.7773
92.500000 94.862 159.4147
93.800003 94.853 158.7134
95.000000 94.839 158.0743
96.199997 94.833 157.5675
97.500000 94.836 157.1340
98.800003 94.834 156.7031
100.000000 94.814 156.3042
101.500000 94.783 155.7941
103.000000 94.751 155.1578
104.400002 94.721 154.5847
106.000000 94.702 154.0294
107.500000 94.686 153.6342
109.000000 94.678 153.2882
110.599998 94.659 152.8181
112.000000 94.630 152.3984
113.800003 94.602 151.8665
115.000000 94.589 151.4760
117.199997 94.556 150.7742
118.000000 94.542 150.5449
120.599998 94.497 149.8184
122.000000 94.478 149.4269
124.099998 94.466 148.8092
125.000000 94.462 148.5278
126.500000 94.448 148.0675
128.000000 94.427 147.6660
131.500000 94.383 146.7935
132.000000 94.377 146.6522
134.000000 94.352 146.0795
136.000000 94.331 145.5553
138.000000 94.319 145.0407
140.000000 94.304 144.5081
143.000000 94.274 143.7534
145.000000 94.257 143.2704
147.500000 94.235 142.6334
150.000000 94.207 141.9953
152.500000 94.181 141.3929
155.000000 94.158 140.7985
157.500000 94.136 140.2301
160.000000 94.115 139.6346
162.500000 94.089 139.0438
165.000000 94.069 138.5062
167.500000 94.057 137.9362
170.000000 94.034 137.3132
172.500000 94.000 136.7430
175.000000 93.975 136.2441
177.500000 93.955 135.7541
180.000000 93.923 135.2575
182.500000 93.882 134.7664
185.000000 93.849 134.2517
187.500000 93.826 133.7124
190.000000 93.803 133.1305
192.500000 93.768 132.5359
195.000000 93.735 132.0028
197.500000 93.716 131.5127
200.000000 93.698 131.0343
203.000000 93.668 130.4912
206.000000 93.639 129.9193
209.000000 93.610 129.3098
212.000000 93.581 128.7353
214.000000 93.563 128.3715
218.000000 93.530 127.6247
220.000000 93.515 127.2616
224.000000 93.488 126.5717
227.000000 93.460 126.0489
230.000000 93.429 125.5249
233.000000 93.400 124.9989
236.000000 93.371 124.4799
240.000000 93.333 123.7967
243.000000 93.310 123.2994
247.000000 93.279 122.5877
250.000000 93.252 122.0532
254.000000 93.224 121.4039
258.000000 93.201 120.7765
262.000000 93.165 120.1808
265.000000 93.133 119.7161
269.000000 93.100 119.0495
272.000000 93.084 118.5654
276.000000 93.062 117.9698
280.000000 93.036 117.4075
285.000000 93.004 116.7086
290.000000 92.976 116.0119
295.000000 92.944 115.3630
300.000000 92.910 114.6716
304.000000 92.886 114.1070
307.000000 92.870 113.7002
311.000000 92.849 113.1760
315.000000 92.826 112.6664
320.000000 92.798 112.0409
325.000000 92.771 111.4322
330.000000 92.744 110.8310
335.000000 92.718 110.2426
340.000000 92.692 109.6688
345.000000 92.666 109.1052
350.000000 92.638 108.5521
355.000000 92.609 108.0044
360.000000 92.581 107.4688
365.000000 92.556 106.9493
370.000000 92.531 106.4455
375.000000 92.505 105.9440
382.000000 92.470 105.2518
387.000000 92.446 104.7765
395.000000 92.406 104.0360
400.000000 92.380 103.5854
406.000000 92.351 103.0549
412.000000 92.323 102.5477
418.000000 92.296 102.0529
425.000000 92.263 101.4774
431.000000 92.235 100.9967
437.000000 92.208 100.5441
444.000000 92.178 100.0334
450.000000 92.153 99.5963
455.000000 92.131 99.2390
462.000000 92.102 98.7658
468.000000 92.079 98.3834
475.000000 92.051 97.9491
482.000000 92.026 97.5177
487.000000 92.008 97.2193
494.000000 91.986 96.8289
500.000000 91.968 96.5118
508.000000 91.944 96.0934
515.000000 91.924 95.7406
522.000000 91.905 95.4111
530.000000 91.884 95.0567
538.000000 91.864 94.7044
545.000000 91.849 94.4060
552.000000 91.835 94.1294
560.000000 91.818 93.8395
570.000000 91.798 93.5011
580.000000 91.780 93.1667
590.000000 91.764 92.8700
600.000000 91.748 92.6053
608.000000 91.734 92.4072
615.000000 91.722 92.2434
622.000000 91.710 92.0947
630.000000 91.696 91.9468
640.000000 91.680 91.7773
650.000000 91.666 91.6253
660.000000 91.654 91.4975
670.000000 91.644 91.4008
680.000000 91.635 91.3276
690.000000 91.629 91.2667
700.000000 91.625 91.2248
710.000000 91.623 91.2053
720.000000 91.624 91.2077
730.000000 91.627 91.2188
740.000000 91.631 91.2483
750.000000 91.637 91.3038
762.000000 91.646 91.3949
775.000000 91.659 91.5049
788.000000 91.676 91.6317
800.000000 91.693 91.7784
812.000000 91.715 91.9416
825.000000 91.743 92.1255
838.000000 91.775 92.3185
850.000000 91.808 92.5132
862.000000 91.844 92.7153
875.000000 91.886 92.9366
885.000000 91.921 93.1042
900.000000 91.979 93.3505
912.000000 92.028 93.5486
925.000000 92.086 93.7591
938.000000 92.146 93.9579
950.000000 92.205 94.1308
962.000000 92.265 94.2925
975.000000 92.329 94.4564
988.000000 92.395 94.6082
1000.000000 92.457 94.7292
1015.000000 92.537 94.8571
1030.000000 92.617 94.9637
1044.000000 92.692 95.0366
1060.000000 92.780 95.0887
1075.000000 92.859 95.1159
1090.000000 92.942 95.1320
1106.000000 93.038 95.1216
1120.000000 93.124 95.0858
1138.000000 93.232 95.0229
1150.000000 93.300 94.9762
1172.000000 93.419 94.8825
1180.000000 93.461 94.8391
1206.000000 93.593 94.6877
1220.000000 93.664 94.6122
1241.000000 93.767 94.4950
1250.000000 93.811 94.4459
1265.000000 93.881 94.3640
1280.000000 93.949 94.2886
1315.000000 94.091 94.1628
1320.000000 94.110 94.1473
1340.000000 94.178 94.0958
1360.000000 94.225 94.0632
1380.000000 94.267 94.0546
1400.000000 94.320 94.0723
1430.000000 94.404 94.1254
1450.000000 94.459 94.1903
1475.000000 94.524 94.3023
1500.000000 94.587 94.4439
1525.000000 94.648 94.6135
1550.000000 94.704 94.8140
1575.000000 94.758 95.0416
1600.000000 94.812 95.2939
1625.000000 94.867 95.5642
1650.000000 94.923 95.8556
1675.000000 94.979 96.1557
1700.000000 95.037 96.4743
1725.000000 95.097 96.7924
1750.000000 95.156 97.1198
1775.000000 95.217 97.4539
1800.000000 95.279 97.7883
1825.000000 95.342 98.1248
1850.000000 95.406 98.4565
1875.000000 95.472 98.7867
1900.000000 95.539 99.1123
1925.000000 95.606 99.4270
1950.000000 95.674 99.7325
1975.000000 95.742 100.0277
2000.000000 95.809 100.3123
2030.000000 95.891 100.6339
2060.000000 95.971 100.9329
2090.000000 96.051 101.2130
2120.000000 96.130 101.4621
2140.000000 96.182 101.6146
2180.000000 96.282 101.8877
2200.000000 96.328 102.0048
2240.000000 96.414 102.2037
2270.000000 96.472 102.3217
2300.000000 96.524 102.4184
2330.000000 96.569 102.4910
2360.000000 96.608 102.5425
2400.000000 96.646 102.5874
2430.000000 96.663 102.6092
2470.000000 96.668 102.6348
2500.000000 96.657 102.6595
2540.000000 96.618 102.7292
2580.000000 96.549 102.8748
2620.000000 96.446 103.1736
2650.000000 96.344 103.5582
2690.000000 96.180 104.4167
2720.000000 96.044 105.4301
2760.000000 95.881 107.3901
2800.000000 95.798 110.0116
2850.000000 95.898 113.6490
2900.000000 96.214 116.6768
2950.000000 96.625 118.4869
3000.000000 97.018 119.2207
3040.000000 97.287 119.3129
3070.000000 97.461 119.2058
3110.000000 97.660 118.9121
3150.000000 97.827 118.4858
3200.000000 97.991 117.8242
3250.000000 98.105 117.0850
3300.000000 98.168 116.3412
3350.000000 98.191 115.6559
3400.000000 98.183 115.0663
3450.000000 98.149 114.5915
3500.000000 98.094 114.2348
3550.000000 98.019 114.0289
3600.000000 97.927 113.9999
3650.000000 97.824 114.1799
3700.000000 97.718 114.5798
3750.000000 97.622 115.1735
3820.000000 97.517 116.2382
3870.000000 97.464 117.0875
3950.000000 97.409 118.4995
4000.000000 97.394 119.3723
4060.000000 97.395 120.3781
4120.000000 97.414 121.3197
4180.000000 97.447 122.1713
4250.000000 97.497 123.0278
4310.000000 97.545 123.6171
4370.000000 97.590 124.0630
4440.000000 97.635 124.3852
4500.000000 97.665 124.4865
4550.000000 97.682 124.4462
4620.000000 97.687 124.2088
4680.000000 97.667 123.8598
4750.000000 97.608 123.3181
4820.000000 97.507 122.6858
4870.000000 97.407 122.2131
4940.000000 97.228 121.5822
5000.000000 97.038 121.1180
5080.000000 96.739 120.6747
5150.000000 96.443 120.4991
5220.000000 96.122 120.5623
5300.000000 95.734 120.9547
5380.000000 95.336 121.6826
5450.000000 94.991 122.5792
5520.000000 94.653 123.7037
5600.000000 94.281 125.2515
5700.000000 93.844 127.5436
5800.000000 93.446 130.1925
5900.000000 93.097 133.1830
6000.000000 92.811 136.4797
6080.000000 92.641 139.2889
6150.000000 92.544 141.8276
6220.000000 92.500 144.3840
6300.000000 92.520 147.2190
6400.000000 92.647 150.3376
6500.000000 92.820 152.6206
6600.000000 92.917 154.3355
6700.000000 92.946 156.6390
6800.000000 93.109 159.7608
6900.000000 93.502 162.7302
7000.000000 94.063 164.8825
7100.000000 94.712 166.0331
7200.000000 95.399 166.0976
7300.000000 96.078 164.9987
7400.000000 96.697 162.7666
7500.000000 97.214 159.5795
7620.000000 97.682 154.7678
7750.000000 97.929 148.6895
7880.000000 97.754 142.7524
8000.000000 97.289 138.5870
8120.000000 96.688 136.1604
8250.000000 96.022 135.3651
8380.000000 95.427 136.0934
8500.000000 94.984 137.7771
8620.000000 94.656 140.1729
8750.000000 94.436 143.3521
8850.000000 94.370 146.1047
9000.000000 94.468 150.5803
9120.000000 94.755 154.3052
9250.000000 95.337 158.1224
9380.000000 96.244 160.9390
9500.000000 97.322 161.6010
9620.000000 98.483 159.4269
9750.000000 99.582 153.1780
9880.000000 100.223 143.2285
10000.000000 100.226 132.4528
10150.000000 99.420 120.3248
10300.000000 97.969 112.4593
10440.000000 96.368 109.3100
10600.000000 94.554 109.5226
10750.000000 93.011 112.2279
10900.000000 91.660 116.5224
11060.000000 90.423 122.2769
11200.000000 89.499 127.9961
11380.000000 88.507 135.9914
11500.000000 87.956 141.6014
11720.000000 87.154 152.2377
11800.000000 86.926 156.1673
12060.000000 86.404 168.9243
12200.000000 86.252 175.6429
12410.000000 86.177 -174.7419
12500.000000 86.200 -170.8767
12650.000000 86.304 -164.9111
12800.000000 86.474 -159.7099
13150.000000 86.907 -151.6059
13200.000000 86.940 -150.9551
13400.000000 86.906 -149.4021
13600.000000 86.516 -148.7271
13800.000000 85.741 -147.5062
14000.000000 84.659 -144.5037
14300.000000 82.759 -135.6411
14500.000000 81.506 -127.0828
14750.000000 80.107 -114.1368
15000.000000 78.973 -99.3748
15250.000000 78.156 -83.3368
15500.000000 77.744 -66.4742
15750.000000 77.806 -49.3329
16000.000000 78.326 -32.7944
16250.000000 79.196 -17.5910
16500.000000 80.407 -3.3614
16750.000000 82.338 10.2224
17000.000000 85.517 21.2179
17250.000000 89.519 23.1736
17500.000000 92.432 5.6786
17750.000000 92.595 -26.0637
18000.000000 90.145 -47.5300
18250.000000 86.795 -54.9405
18500.000000 83.993 -59.2374
18750.000000 81.564 -64.6714
19000.000000 78.756 -67.7319
19250.000000 75.316 -64.2274
19500.000000 71.390 -53.7694
19750.000000 67.232 -38.3608
20000.000000 63.059 -23.0110
20300.000000 58.173 -56.5034
20600.000000 53.492 165.9525
20900.000000 48.903 126.0847
21200.000000 45.653 -54.1240
21400.000000 46.850 172.0176
21800.000000 51.894 69.0586
22000.000000 53.101 -165.5820
22400.000000 52.565 46.1758
22700.000000 50.095 59.4805
23000.000000 46.729 165.6719
23300.000000 45.054 -152.2969
23600.000000 45.433 79.7500
24000.000000 45.979 147.7969
