* Measurement data measured by REW V5.20.13
* Source: D:\GitHub Projects\PublicGraphTool\data_fossy\Helene Target.txt
* Format: Comma/Tab/Space delimited data
* Dated: Apr 7, 2023 1:20:15 PM
* REW Settings:
*  C-weighting compensation: Off
*  Target level: 75.0 dB
* Note: ; Measurement imported from D:\GitHub Projects\PublicGraphTool\data_fossy\Helene Target.txt Format: Comma/Tab/Space delimited data 79921 values loaded, 20 Hz to 20,000 Hz 
* Measurement: Helene Target
* Smoothing: 1/24 octave
* Frequency Step: 1/48 octave
* Start Frequency: 20.000 Hz
*
* Freq(Hz) SPL(dB)
20.000000 106.949
20.299999 106.948
20.600000 106.947
20.900000 106.945
21.200001 106.942
21.400000 106.940
21.799999 106.935
22.000000 106.932
22.400000 106.926
22.700001 106.921
23.000000 106.915
23.299999 106.910
23.600000 106.903
24.000000 106.895
24.299999 106.889
24.700001 106.880
25.000000 106.873
25.400000 106.864
25.799999 106.855
26.200001 106.845
26.500000 106.838
26.900000 106.829
27.200001 106.822
27.600000 106.813
28.000000 106.803
28.500000 106.791
29.000000 106.778
29.500000 106.766
30.000000 106.754
30.400000 106.744
30.700001 106.737
31.100000 106.728
31.500000 106.718
32.000000 106.705
32.500000 106.693
33.000000 106.681
33.500000 106.669
34.000000 106.656
34.500000 106.644
35.000000 106.632
35.500000 106.619
36.000000 106.607
36.500000 106.595
37.000000 106.582
37.500000 106.570
38.200001 106.552
38.700001 106.540
39.500000 106.520
40.000000 106.507
40.599998 106.492
41.200001 106.477
41.799999 106.462
42.500000 106.445
43.099998 106.430
43.700001 106.414
44.400002 106.397
45.000000 106.381
45.500000 106.369
46.200001 106.351
46.799999 106.336
47.500000 106.318
48.200001 106.300
48.700001 106.287
49.400002 106.268
50.000000 106.253
50.799999 106.232
51.500000 106.214
52.200001 106.195
53.000000 106.174
53.799999 106.153
54.500000 106.134
55.200001 106.116
56.000000 106.094
57.000000 106.067
58.000000 106.040
59.000000 106.012
60.000000 105.985
60.799999 105.963
61.500000 105.943
62.200001 105.923
63.000000 105.901
64.000000 105.873
65.000000 105.845
66.000000 105.816
67.000000 105.788
68.000000 105.759
69.000000 105.731
70.000000 105.702
71.000000 105.674
72.000000 105.645
73.000000 105.616
74.000000 105.587
75.000000 105.558
76.199997 105.524
77.500000 105.486
78.800003 105.449
80.000000 105.414
81.199997 105.380
82.500000 105.342
83.800003 105.304
85.000000 105.270
86.199997 105.235
87.500000 105.197
88.500000 105.168
90.000000 105.125
91.199997 105.090
92.500000 105.053
93.800003 105.015
95.000000 104.981
96.199997 104.946
97.500000 104.908
98.800003 104.871
100.000000 104.836
101.500000 104.793
103.000000 104.749
104.400002 104.709
106.000000 104.663
107.500000 104.620
109.000000 104.576
110.599998 104.530
112.000000 104.490
113.800003 104.438
115.000000 104.404
117.199997 104.340
118.000000 104.317
120.599998 104.243
122.000000 104.203
124.099998 104.142
125.000000 104.117
126.500000 104.074
128.000000 104.031
131.500000 103.931
132.000000 103.916
134.000000 103.859
136.000000 103.802
138.000000 103.745
140.000000 103.688
143.000000 103.603
145.000000 103.547
147.500000 103.476
150.000000 103.405
152.500000 103.335
155.000000 103.265
157.500000 103.194
160.000000 103.125
162.500000 103.055
165.000000 102.986
167.500000 102.917
170.000000 102.848
172.500000 102.779
175.000000 102.711
177.500000 102.643
180.000000 102.576
182.500000 102.509
185.000000 102.443
187.500000 102.377
190.000000 102.312
192.500000 102.248
195.000000 102.185
197.500000 102.122
200.000000 102.060
203.000000 101.988
206.000000 101.917
209.000000 101.849
212.000000 101.782
214.000000 101.738
218.000000 101.654
220.000000 101.614
224.000000 101.536
227.000000 101.480
230.000000 101.427
233.000000 101.376
236.000000 101.328
240.000000 101.267
243.000000 101.224
247.000000 101.170
250.000000 101.132
254.000000 101.084
258.000000 101.039
262.000000 100.997
265.000000 100.968
269.000000 100.930
272.000000 100.903
276.000000 100.869
280.000000 100.837
285.000000 100.799
290.000000 100.762
295.000000 100.728
300.000000 100.695
304.000000 100.670
307.000000 100.651
311.000000 100.627
315.000000 100.604
320.000000 100.575
325.000000 100.548
330.000000 100.522
335.000000 100.496
340.000000 100.471
345.000000 100.447
350.000000 100.423
355.000000 100.401
360.000000 100.379
365.000000 100.358
370.000000 100.337
375.000000 100.317
382.000000 100.291
387.000000 100.273
395.000000 100.245
400.000000 100.229
406.000000 100.210
412.000000 100.193
418.000000 100.176
425.000000 100.158
431.000000 100.144
437.000000 100.130
444.000000 100.116
450.000000 100.104
455.000000 100.096
462.000000 100.085
468.000000 100.076
475.000000 100.067
482.000000 100.060
487.000000 100.055
494.000000 100.049
500.000000 100.045
508.000000 100.040
515.000000 100.037
522.000000 100.035
530.000000 100.034
538.000000 100.033
545.000000 100.034
552.000000 100.035
560.000000 100.037
570.000000 100.040
580.000000 100.045
590.000000 100.051
600.000000 100.058
608.000000 100.065
615.000000 100.071
622.000000 100.078
630.000000 100.086
640.000000 100.097
650.000000 100.109
660.000000 100.123
670.000000 100.137
680.000000 100.152
690.000000 100.168
700.000000 100.186
710.000000 100.204
720.000000 100.223
730.000000 100.244
740.000000 100.265
750.000000 100.288
762.000000 100.316
775.000000 100.349
788.000000 100.383
800.000000 100.417
812.000000 100.453
825.000000 100.493
838.000000 100.536
850.000000 100.578
862.000000 100.621
875.000000 100.670
885.000000 100.710
900.000000 100.772
912.000000 100.825
925.000000 100.884
938.000000 100.945
950.000000 101.004
962.000000 101.066
975.000000 101.135
988.000000 101.206
1000.000000 101.274
1015.000000 101.362
1030.000000 101.453
1044.000000 101.539
1060.000000 101.641
1075.000000 101.739
1090.000000 101.839
1106.000000 101.947
1120.000000 102.042
1138.000000 102.167
1150.000000 102.251
1172.000000 102.406
1180.000000 102.462
1206.000000 102.647
1220.000000 102.746
1241.000000 102.895
1250.000000 102.958
1265.000000 103.064
1280.000000 103.169
1315.000000 103.412
1320.000000 103.446
1340.000000 103.582
1360.000000 103.717
1380.000000 103.850
1400.000000 103.980
1430.000000 104.173
1450.000000 104.298
1475.000000 104.452
1500.000000 104.604
1525.000000 104.752
1550.000000 104.897
1575.000000 105.039
1600.000000 105.179
1625.000000 105.317
1650.000000 105.453
1675.000000 105.587
1700.000000 105.719
1725.000000 105.849
1750.000000 105.978
1775.000000 106.105
1800.000000 106.230
1825.000000 106.354
1850.000000 106.477
1875.000000 106.598
1900.000000 106.718
1925.000000 106.836
1950.000000 106.953
1975.000000 107.068
2000.000000 107.182
2030.000000 107.316
2060.000000 107.449
2090.000000 107.579
2120.000000 107.707
2140.000000 107.791
2180.000000 107.955
2200.000000 108.036
2240.000000 108.194
2270.000000 108.310
2300.000000 108.423
2330.000000 108.533
2360.000000 108.640
2400.000000 108.778
2430.000000 108.879
2470.000000 109.008
2500.000000 109.101
2540.000000 109.221
2580.000000 109.334
2620.000000 109.442
2650.000000 109.518
2690.000000 109.615
2720.000000 109.683
2760.000000 109.768
2800.000000 109.847
2850.000000 109.935
2900.000000 110.014
2950.000000 110.082
3000.000000 110.140
3040.000000 110.179
3070.000000 110.204
3110.000000 110.232
3150.000000 110.255
3200.000000 110.275
3250.000000 110.287
3300.000000 110.291
3350.000000 110.289
3400.000000 110.279
3450.000000 110.263
3500.000000 110.241
3550.000000 110.214
3600.000000 110.181
3650.000000 110.144
3700.000000 110.103
3750.000000 110.057
3820.000000 109.988
3870.000000 109.934
3950.000000 109.842
4000.000000 109.781
4060.000000 109.705
4120.000000 109.627
4180.000000 109.546
4250.000000 109.450
4310.000000 109.366
4370.000000 109.280
4440.000000 109.180
4500.000000 109.094
4550.000000 109.022
4620.000000 108.922
4680.000000 108.836
4750.000000 108.736
4820.000000 108.637
4870.000000 108.567
4940.000000 108.470
5000.000000 108.388
5080.000000 108.280
5150.000000 108.187
5220.000000 108.095
5300.000000 107.993
5380.000000 107.892
5450.000000 107.806
5520.000000 107.721
5600.000000 107.627
5700.000000 107.513
5800.000000 107.402
5900.000000 107.296
6000.000000 107.194
6080.000000 107.115
6150.000000 107.048
6220.000000 106.982
6300.000000 106.909
6400.000000 106.821
6500.000000 106.736
6600.000000 106.654
6700.000000 106.574
6800.000000 106.496
6900.000000 106.420
7000.000000 106.345
7100.000000 106.272
7200.000000 106.200
7300.000000 106.128
7400.000000 106.058
7500.000000 105.988
7620.000000 105.904
7750.000000 105.814
7880.000000 105.724
8000.000000 105.640
8120.000000 105.556
8250.000000 105.464
8380.000000 105.371
8500.000000 105.284
8620.000000 105.195
8750.000000 105.098
8850.000000 105.022
9000.000000 104.906
9120.000000 104.811
9250.000000 104.707
9380.000000 104.601
9500.000000 104.501
9620.000000 104.400
9750.000000 104.289
9880.000000 104.177
10000.000000 104.072
10150.000000 103.940
10300.000000 103.806
10440.000000 103.681
10600.000000 103.536
10750.000000 103.401
10900.000000 103.265
11060.000000 103.119
11200.000000 102.992
11380.000000 102.829
11500.000000 102.721
11720.000000 102.523
11800.000000 102.451
12060.000000 102.218
12200.000000 102.093
12410.000000 101.907
12500.000000 101.827
12650.000000 101.694
12800.000000 101.562
13150.000000 101.256
13200.000000 101.212
13400.000000 101.038
13600.000000 100.864
13800.000000 100.691
14000.000000 100.519
14300.000000 100.261
14500.000000 100.090
14750.000000 99.877
15000.000000 99.665
15250.000000 99.454
15500.000000 99.244
15750.000000 99.036
16000.000000 98.829
16250.000000 98.625
16500.000000 98.423
16750.000000 98.224
17000.000000 98.029
17250.000000 97.839
17500.000000 97.653
17750.000000 97.474
18000.000000 97.302
18250.000000 97.139
18500.000000 96.984
18750.000000 96.841
19000.000000 96.710
19250.000000 96.593
19500.000000 96.491
19750.000000 96.410
20000.000000 96.367
