* Measurement data measured by REW V5.20.13
* Source: Headset (DS by VECLAN.COM), MICROPHONE (Master Volume), L, volume: 0.710. Timing signal peak level -17.7 dBFS, measurement signal peak level -14.1 dBFS
* Format: 2M Log Swept Sine, 1 sweep at -12.0 dBFS using an acoustic timing reference
* Dated: Nov 12, 2023 6:04:39 PM
* REW Settings:
*  C-weighting compensation: Off
*  Target level: 75.0 dB
* Note: ; Delay -0.0607 ms (-21 mm, -0.82 in) using estimated IR delay relative to Acoustic reference played from HEADPHONE L with no timing offset
* Measurement: Hiby Xoe L
* Smoothing: 1/24 octave
* Frequency Step: 1/48 octave
* Start Frequency: 1.000 Hz
*
* Freq(Hz) SPL(dB) Phase(degrees)
1.000000 68.742 32.9134
1.015000 68.952 31.8282
1.030000 69.158 30.7278
1.044000 69.345 29.6885
1.060000 69.552 28.4883
1.075000 69.739 27.3527
1.090000 69.918 26.2088
1.106000 70.100 24.9751
1.120000 70.257 23.8504
1.138000 70.454 22.3380
1.150000 70.584 21.2922
1.172000 70.819 19.3060
1.180000 70.902 18.5640
1.206000 71.170 16.0921
1.220000 71.312 14.7291
1.241000 71.520 12.6534
1.250000 71.608 11.7552
1.265000 71.752 10.2505
1.280000 71.894 8.7404
1.315000 72.216 5.2234
1.320000 72.261 4.7244
1.340000 72.438 2.7437
1.360000 72.611 0.7966
1.380000 72.780 -1.1054
1.400000 72.944 -2.9509
1.430000 73.183 -5.5881
1.450000 73.337 -7.2421
1.475000 73.523 -9.1798
1.500000 73.699 -11.0290
1.525000 73.864 -12.8087
1.550000 74.020 -14.5231
1.575000 74.169 -16.1764
1.600000 74.309 -17.7727
1.625000 74.444 -19.3163
1.650000 74.574 -20.8114
1.675000 74.700 -22.2622
1.700000 74.823 -23.6728
1.725000 74.944 -25.0474
1.750000 75.065 -26.3903
1.775000 75.186 -27.7057
1.800000 75.308 -28.9977
1.825000 75.432 -30.2706
1.850000 75.558 -31.5198
1.875000 75.683 -32.7276
1.900000 75.806 -33.8950
1.925000 75.927 -35.0240
1.950000 76.047 -36.1164
1.975000 76.165 -37.1741
2.000000 76.282 -38.1991
2.030000 76.421 -39.3885
2.060000 76.558 -40.5367
2.090000 76.693 -41.6470
2.120000 76.827 -42.7226
2.140000 76.916 -43.4222
2.180000 77.091 -44.7833
2.200000 77.178 -45.4468
2.240000 77.351 -46.7188
2.270000 77.480 -47.6208
2.300000 77.608 -48.4817
2.330000 77.735 -49.3045
2.360000 77.860 -50.0920
2.400000 78.024 -51.0926
2.430000 78.144 -51.8098
2.470000 78.299 -52.7274
2.500000 78.413 -53.3906
2.540000 78.559 -54.2472
2.580000 78.698 -55.0761
2.620000 78.830 -55.8606
2.650000 78.925 -56.4182
2.690000 79.047 -57.1226
2.720000 79.135 -57.6229
2.760000 79.249 -58.2548
2.800000 79.359 -58.8485
2.850000 79.493 -59.5410
2.900000 79.624 -60.1828
2.950000 79.754 -60.7776
3.000000 79.877 -61.3191
3.040000 79.971 -61.7125
3.070000 80.040 -61.9845
3.110000 80.129 -62.3166
3.150000 80.217 -62.6138
3.200000 80.327 -62.9365
3.250000 80.438 -63.2053
3.300000 80.552 -63.4204
3.350000 80.666 -63.5652
3.400000 80.777 -63.6375
3.450000 80.888 -63.6508
3.500000 81.001 -63.6187
3.550000 81.116 -63.5550
3.600000 81.235 -63.4731
3.650000 81.360 -63.3868
3.700000 81.491 -63.2920
3.750000 81.626 -63.1593
3.820000 81.821 -62.9280
3.870000 81.966 -62.7458
3.950000 82.206 -62.4559
4.000000 82.363 -62.2933
4.060000 82.558 -62.1249
4.120000 82.763 -61.9450
4.180000 82.975 -61.7647
4.250000 83.230 -61.5804
4.310000 83.452 -61.4678
4.370000 83.675 -61.4180
4.440000 83.937 -61.4533
4.500000 84.166 -61.5414
4.550000 84.360 -61.6535
4.620000 84.632 -61.8688
4.680000 84.863 -62.1071
4.750000 85.126 -62.4472
4.820000 85.384 -62.8599
4.870000 85.567 -63.2028
4.940000 85.820 -63.7414
5.000000 86.032 -64.2495
5.080000 86.305 -64.9806
5.150000 86.533 -65.6609
5.220000 86.752 -66.4020
5.300000 86.992 -67.3148
5.380000 87.220 -68.2721
5.450000 87.408 -69.1252
5.520000 87.586 -69.9781
5.600000 87.776 -70.9857
5.700000 87.996 -72.2778
5.800000 88.196 -73.5617
5.900000 88.377 -74.7980
6.000000 88.538 -76.0197
6.080000 88.654 -76.9752
6.150000 88.748 -77.7798
6.220000 88.836 -78.5422
6.300000 88.928 -79.3653
6.400000 89.029 -80.3377
6.500000 89.121 -81.2319
6.600000 89.210 -82.0312
6.700000 89.293 -82.7266
6.800000 89.371 -83.3300
6.900000 89.450 -83.8568
7.000000 89.535 -84.3167
7.100000 89.624 -84.6864
7.200000 89.717 -84.9926
7.300000 89.818 -85.2737
7.400000 89.929 -85.5407
7.500000 90.049 -85.7675
7.620000 90.203 -86.0399
7.750000 90.379 -86.3987
7.880000 90.568 -86.7971
8.000000 90.747 -87.2203
8.120000 90.925 -87.7260
8.250000 91.120 -88.3599
8.380000 91.310 -89.0644
8.500000 91.474 -89.7725
8.620000 91.632 -90.5464
8.750000 91.791 -91.4155
8.850000 91.904 -92.0847
9.000000 92.057 -93.1179
9.120000 92.169 -93.9272
9.250000 92.280 -94.7557
9.380000 92.380 -95.5512
9.500000 92.465 -96.2365
9.620000 92.545 -96.8611
9.750000 92.624 -97.4787
9.880000 92.698 -98.0438
10.000000 92.761 -98.5149
10.150000 92.835 -99.0420
10.300000 92.910 -99.5407
10.440000 92.981 -99.9702
10.600000 93.065 -100.4598
10.750000 93.152 -100.9487
10.900000 93.244 -101.4596
11.060000 93.343 -102.0636
11.200000 93.430 -102.6433
11.380000 93.537 -103.4286
11.500000 93.602 -103.9800
11.720000 93.712 -105.0097
11.800000 93.748 -105.3783
12.060000 93.852 -106.5548
12.200000 93.904 -107.1438
12.410000 93.976 -107.9698
12.500000 94.006 -108.2951
12.650000 94.056 -108.7971
12.800000 94.108 -109.2654
13.150000 94.243 -110.2566
13.200000 94.264 -110.3972
13.400000 94.355 -110.9562
13.600000 94.450 -111.5422
13.800000 94.548 -112.1703
14.000000 94.642 -112.8352
14.300000 94.771 -113.8846
14.500000 94.844 -114.5780
14.750000 94.924 -115.3785
15.000000 94.999 -116.0789
15.250000 95.079 -116.6535
15.500000 95.175 -117.1428
15.750000 95.289 -117.5876
16.000000 95.424 -118.0763
16.250000 95.572 -118.6979
16.500000 95.723 -119.4835
16.750000 95.863 -120.4596
17.000000 95.977 -121.5573
17.250000 96.061 -122.7087
17.500000 96.110 -123.8223
17.750000 96.134 -124.7812
18.000000 96.143 -125.5552
18.250000 96.149 -126.1132
18.500000 96.172 -126.5121
18.750000 96.216 -126.8293
19.000000 96.284 -127.1377
19.250000 96.368 -127.5401
19.500000 96.457 -128.0496
19.750000 96.542 -128.6741
20.000000 96.613 -129.3676
20.299999 96.678 -130.2146
20.600000 96.725 -131.0114
20.900000 96.760 -131.7135
21.200001 96.794 -132.3187
21.400000 96.819 -132.6837
21.799999 96.872 -133.3447
22.000000 96.902 -133.6501
22.400000 96.971 -134.2206
22.700001 97.033 -134.6296
23.000000 97.107 -135.0629
23.299999 97.188 -135.5714
23.600000 97.268 -136.1776
24.000000 97.357 -137.1099
24.299999 97.402 -137.8187
24.700001 97.440 -138.6430
25.000000 97.465 -139.1236
25.400000 97.512 -139.6307
25.799999 97.580 -140.1443
26.200001 97.651 -140.7740
26.500000 97.691 -141.2839
26.900000 97.727 -141.8810
27.200001 97.754 -142.1966
27.600000 97.817 -142.4834
28.000000 97.925 -142.8584
28.500000 98.086 -143.8504
29.000000 98.181 -145.4245
29.500000 98.161 -147.0229
30.000000 98.073 -148.0239
30.400000 98.022 -148.3446
30.700001 98.019 -148.4538
31.100000 98.063 -148.6881
31.500000 98.131 -149.1848
32.000000 98.198 -150.1446
32.500000 98.217 -151.1851
33.000000 98.208 -152.0073
33.500000 98.209 -152.5605
34.000000 98.248 -153.0181
34.500000 98.316 -153.6120
35.000000 98.381 -154.4308
35.500000 98.412 -155.3459
36.000000 98.406 -156.1172
36.500000 98.395 -156.6173
37.000000 98.410 -156.9490
37.500000 98.456 -157.3343
38.200001 98.526 -158.1766
38.700001 98.550 -158.8949
39.500000 98.556 -159.9241
40.000000 98.560 -160.4858
40.599998 98.570 -161.1582
41.200001 98.579 -161.8446
41.799999 98.587 -162.5076
42.500000 98.603 -163.2504
43.099998 98.623 -163.9046
43.700001 98.641 -164.5804
44.400002 98.654 -165.3503
45.000000 98.660 -165.9640
45.500000 98.663 -166.4388
46.200001 98.668 -167.0475
46.799999 98.677 -167.5368
47.500000 98.694 -168.1352
48.200001 98.707 -168.7931
48.700001 98.710 -169.2707
49.400002 98.707 -169.9023
50.000000 98.705 -170.3997
50.799999 98.708 -171.0120
51.500000 98.723 -171.5550
52.200001 98.740 -172.1767
53.000000 98.741 -172.9112
53.799999 98.733 -173.5080
54.500000 98.739 -173.9878
55.200001 98.748 -174.5588
56.000000 98.741 -175.2603
57.000000 98.719 -176.0751
58.000000 98.687 -176.9037
59.000000 98.639 -177.5790
60.000000 98.622 -178.0954
60.799999 98.629 -178.5900
61.500000 98.635 -179.0890
62.200001 98.636 -179.6074
63.000000 98.630 179.8014
64.000000 98.610 179.1246
65.000000 98.587 178.5238
66.000000 98.559 177.9505
67.000000 98.530 177.4250
68.000000 98.505 176.8876
69.000000 98.478 176.3463
70.000000 98.458 175.8215
71.000000 98.442 175.2637
72.000000 98.427 174.7010
73.000000 98.412 174.1008
74.000000 98.384 173.4991
75.000000 98.353 172.9713
76.199997 98.319 172.3413
77.500000 98.274 171.6551
78.800003 98.227 171.0338
80.000000 98.187 170.4921
81.199997 98.148 169.9592
82.500000 98.108 169.3869
83.800003 98.070 168.7438
85.000000 98.025 168.1121
86.199997 97.979 167.5767
87.500000 97.953 167.0682
88.500000 97.941 166.6221
90.000000 97.905 165.9832
91.199997 97.870 165.5656
92.500000 97.815 165.1357
93.800003 97.754 164.8134
95.000000 97.707 164.4870
96.199997 97.662 164.0779
97.500000 97.613 163.5853
98.800003 97.566 163.0995
100.000000 97.526 162.6672
101.500000 97.473 162.1605
103.000000 97.417 161.6917
104.400002 97.361 161.2924
106.000000 97.299 160.8656
107.500000 97.243 160.4850
109.000000 97.196 160.1308
110.599998 97.147 159.6822
112.000000 97.094 159.2686
113.800003 97.018 158.7670
115.000000 96.968 158.4487
117.199997 96.883 157.8586
118.000000 96.854 157.6495
120.599998 96.759 157.0300
122.000000 96.709 156.7590
124.099998 96.636 156.3745
125.000000 96.605 156.2032
126.500000 96.553 155.9063
128.000000 96.502 155.6009
131.500000 96.386 154.8685
132.000000 96.370 154.7698
134.000000 96.302 154.3904
136.000000 96.230 154.0349
138.000000 96.158 153.7430
140.000000 96.093 153.4704
143.000000 95.991 152.9913
145.000000 95.925 152.6736
147.500000 95.849 152.2002
150.000000 95.763 151.8211
152.500000 95.689 151.5889
155.000000 95.615 151.3017
157.500000 95.540 150.9611
160.000000 95.460 150.5850
162.500000 95.374 150.3090
165.000000 95.288 150.1175
167.500000 95.206 149.9283
170.000000 95.126 149.7021
172.500000 95.042 149.5024
175.000000 94.957 149.3030
177.500000 94.873 149.0762
180.000000 94.798 148.8488
182.500000 94.727 148.6443
185.000000 94.650 148.4924
187.500000 94.567 148.3712
190.000000 94.487 148.2535
192.500000 94.413 148.0775
195.000000 94.337 147.8628
197.500000 94.261 147.6649
200.000000 94.185 147.5179
203.000000 94.095 147.3996
206.000000 94.006 147.2520
209.000000 93.917 147.1191
212.000000 93.829 147.0318
214.000000 93.769 146.9898
218.000000 93.657 146.8655
220.000000 93.608 146.7904
224.000000 93.503 146.6323
227.000000 93.409 146.5850
230.000000 93.316 146.5408
233.000000 93.229 146.4603
236.000000 93.151 146.3942
240.000000 93.056 146.3832
243.000000 92.980 146.3940
247.000000 92.884 146.3424
250.000000 92.814 146.3063
254.000000 92.702 146.3193
258.000000 92.595 146.3582
262.000000 92.505 146.4495
265.000000 92.432 146.4707
269.000000 92.335 146.3267
272.000000 92.268 146.2549
276.000000 92.180 146.3196
280.000000 92.091 146.4578
285.000000 91.977 146.6031
290.000000 91.870 146.6929
295.000000 91.771 146.7303
300.000000 91.657 146.8232
304.000000 91.571 146.9725
307.000000 91.514 147.0300
311.000000 91.449 147.0318
315.000000 91.379 147.1797
320.000000 91.261 147.4998
325.000000 91.163 147.6852
330.000000 91.091 147.8630
335.000000 91.000 148.0368
340.000000 90.899 148.2342
345.000000 90.807 148.4669
350.000000 90.713 148.6571
355.000000 90.617 148.8504
360.000000 90.519 149.1194
365.000000 90.419 149.2927
370.000000 90.316 149.3900
375.000000 90.235 149.6519
382.000000 90.130 150.1725
387.000000 90.043 150.3929
395.000000 89.908 150.7633
400.000000 89.825 151.0688
406.000000 89.720 151.4417
412.000000 89.633 151.7233
418.000000 89.541 151.9760
425.000000 89.416 152.3161
431.000000 89.309 152.6993
437.000000 89.216 153.1113
444.000000 89.121 153.5509
450.000000 89.043 153.8871
455.000000 88.978 154.1971
462.000000 88.884 154.6707
468.000000 88.798 155.0542
475.000000 88.699 155.5422
482.000000 88.607 156.0128
487.000000 88.548 156.3312
494.000000 88.469 156.7937
500.000000 88.411 157.1931
508.000000 88.314 157.7309
515.000000 88.215 158.2818
522.000000 88.132 158.8703
530.000000 88.051 159.4169
538.000000 87.964 159.9188
545.000000 87.887 160.4245
552.000000 87.812 160.9922
560.000000 87.737 161.6438
570.000000 87.650 162.3583
580.000000 87.558 163.0646
590.000000 87.464 163.7261
600.000000 87.363 164.5312
608.000000 87.287 165.2836
615.000000 87.224 165.9132
622.000000 87.165 166.4941
630.000000 87.104 167.1465
640.000000 87.030 167.9767
650.000000 86.948 168.8334
660.000000 86.872 169.6571
670.000000 86.789 170.4737
680.000000 86.707 171.3074
690.000000 86.636 172.2177
700.000000 86.576 173.0909
710.000000 86.524 173.8796
720.000000 86.480 174.7370
730.000000 86.430 175.6752
740.000000 86.378 176.6055
750.000000 86.324 177.4976
762.000000 86.260 178.5842
775.000000 86.205 179.7996
788.000000 86.167 -179.0461
800.000000 86.131 -177.9842
812.000000 86.100 -176.8784
825.000000 86.067 -175.6864
838.000000 86.034 -174.5539
850.000000 86.011 -173.4907
862.000000 86.000 -172.4240
875.000000 85.993 -171.2955
885.000000 85.990 -170.4319
900.000000 85.988 -169.1484
912.000000 85.987 -168.1429
925.000000 85.994 -167.0804
938.000000 86.006 -166.0580
950.000000 86.023 -165.1387
962.000000 86.037 -164.2204
975.000000 86.043 -163.2466
988.000000 86.057 -162.2968
1000.000000 86.079 -161.4467
1015.000000 86.111 -160.4703
1030.000000 86.139 -159.5308
1044.000000 86.161 -158.6426
1060.000000 86.185 -157.6395
1075.000000 86.212 -156.7352
1090.000000 86.242 -155.8830
1106.000000 86.289 -154.9829
1120.000000 86.339 -154.2192
1138.000000 86.402 -153.2715
1150.000000 86.441 -152.6424
1172.000000 86.506 -151.5471
1180.000000 86.530 -151.1763
1206.000000 86.609 -150.0161
1220.000000 86.651 -149.4098
1241.000000 86.715 -148.5146
1250.000000 86.742 -148.1323
1265.000000 86.783 -147.4942
1280.000000 86.821 -146.8327
1315.000000 86.909 -145.2864
1320.000000 86.919 -145.0683
1340.000000 86.949 -144.2015
1360.000000 86.961 -143.3322
1380.000000 86.976 -142.4464
1400.000000 87.008 -141.5826
1430.000000 87.058 -140.2542
1450.000000 87.087 -139.3607
1475.000000 87.123 -138.2304
1500.000000 87.163 -137.0859
1525.000000 87.203 -135.9390
1550.000000 87.241 -134.7767
1575.000000 87.275 -133.5939
1600.000000 87.311 -132.3953
1625.000000 87.352 -131.2032
1650.000000 87.398 -130.0161
1675.000000 87.446 -128.8041
1700.000000 87.496 -127.5633
1725.000000 87.545 -126.3281
1750.000000 87.597 -125.0969
1775.000000 87.655 -123.8693
1800.000000 87.718 -122.6346
1825.000000 87.783 -121.3944
1850.000000 87.849 -120.1538
1875.000000 87.919 -118.9266
1900.000000 87.996 -117.7215
1925.000000 88.077 -116.5191
1950.000000 88.160 -115.3194
1975.000000 88.245 -114.1435
2000.000000 88.336 -112.9822
2030.000000 88.452 -111.5998
2060.000000 88.575 -110.2521
2090.000000 88.702 -108.9328
2120.000000 88.834 -107.6492
2140.000000 88.926 -106.8197
2180.000000 89.117 -105.2106
2200.000000 89.212 -104.4305
2240.000000 89.399 -102.9156
2270.000000 89.543 -101.8295
2300.000000 89.689 -100.7953
2330.000000 89.839 -99.8080
2360.000000 89.990 -98.8744
2400.000000 90.191 -97.7122
2430.000000 90.336 -96.8762
2470.000000 90.525 -95.8075
2500.000000 90.669 -95.0383
2540.000000 90.860 -94.0440
2580.000000 91.038 -93.0586
2620.000000 91.206 -92.0702
2650.000000 91.338 -91.3576
2690.000000 91.522 -90.4318
2720.000000 91.660 -89.7410
2760.000000 91.842 -88.8418
2800.000000 92.024 -87.9838
2850.000000 92.252 -86.9967
2900.000000 92.480 -86.1052
2950.000000 92.711 -85.3163
3000.000000 92.936 -84.5939
3040.000000 93.109 -84.0523
3070.000000 93.237 -83.6670
3110.000000 93.408 -83.1929
3150.000000 93.579 -82.7575
3200.000000 93.786 -82.2534
3250.000000 93.986 -81.7962
3300.000000 94.182 -81.3903
3350.000000 94.377 -81.0451
3400.000000 94.570 -80.7583
3450.000000 94.759 -80.5184
3500.000000 94.943 -80.3239
3550.000000 95.123 -80.1637
3600.000000 95.296 -80.0260
3650.000000 95.463 -79.8868
3700.000000 95.631 -79.7750
3750.000000 95.805 -79.7311
3820.000000 96.044 -79.8381
3870.000000 96.195 -80.0531
3950.000000 96.399 -80.5941
4000.000000 96.503 -80.9972
4060.000000 96.599 -81.4761
4120.000000 96.670 -81.9260
4180.000000 96.719 -82.3122
4250.000000 96.754 -82.6722
4310.000000 96.763 -82.8746
4370.000000 96.757 -82.9826
4440.000000 96.745 -83.0117
4500.000000 96.732 -82.9691
4550.000000 96.722 -82.9140
4620.000000 96.702 -82.8214
4680.000000 96.678 -82.7260
4750.000000 96.646 -82.5991
4820.000000 96.610 -82.4379
4870.000000 96.578 -82.2910
4940.000000 96.527 -82.0423
5000.000000 96.485 -81.7992
5080.000000 96.430 -81.4298
5150.000000 96.378 -81.0591
5220.000000 96.323 -80.6641
5300.000000 96.259 -80.1901
5380.000000 96.192 -79.6973
5450.000000 96.132 -79.2502
5520.000000 96.073 -78.7864
5600.000000 96.007 -78.2364
5700.000000 95.915 -77.4924
5800.000000 95.814 -76.6838
5900.000000 95.720 -75.8256
6000.000000 95.627 -74.9055
6080.000000 95.549 -74.1246
6150.000000 95.481 -73.4072
6220.000000 95.414 -72.6603
6300.000000 95.341 -71.7747
6400.000000 95.253 -70.6176
6500.000000 95.174 -69.4124
6600.000000 95.108 -68.1693
6700.000000 95.051 -66.8883
6800.000000 95.011 -65.5825
6900.000000 95.005 -64.2681
7000.000000 95.041 -62.9669
7100.000000 95.109 -61.7056
7200.000000 95.200 -60.5288
7300.000000 95.311 -59.4952
7400.000000 95.443 -58.6692
7500.000000 95.595 -58.1131
7620.000000 95.800 -57.8806
7750.000000 96.023 -58.2048
7880.000000 96.139 -59.0958
8000.000000 96.152 -60.4122
8120.000000 96.081 -62.1493
8250.000000 95.899 -64.3904
8380.000000 95.581 -66.7861
8500.000000 95.148 -68.8793
8620.000000 94.586 -70.6245
8750.000000 93.848 -71.8933
8850.000000 93.215 -72.3314
9000.000000 92.195 -72.0286
9120.000000 91.349 -70.9747
9250.000000 90.433 -69.0930
9380.000000 89.538 -66.5329
9500.000000 88.745 -63.6533
9620.000000 87.983 -60.3392
9750.000000 87.201 -56.3333
9880.000000 86.473 -51.9693
10000.000000 85.846 -47.6693
10150.000000 85.118 -41.9859
10300.000000 84.450 -36.0142
10440.000000 83.881 -30.2253
10600.000000 83.293 -23.3908
10750.000000 82.794 -16.7968
10900.000000 82.350 -10.0609
11060.000000 81.945 -2.7513
11200.000000 81.644 3.7367
11380.000000 81.321 12.1892
11500.000000 81.147 17.8814
11720.000000 80.911 28.4202
11800.000000 80.852 32.2815
12060.000000 80.770 44.9077
12200.000000 80.795 51.7301
12410.000000 80.931 61.8895
12500.000000 81.025 66.1986
12650.000000 81.229 73.3290
12800.000000 81.495 80.4058
13150.000000 82.428 96.6178
13200.000000 82.604 98.8779
13400.000000 83.430 107.7014
13600.000000 84.492 116.0228
13800.000000 85.865 123.5054
14000.000000 87.624 129.5545
14300.000000 91.042 133.0854
14500.000000 93.445 127.8071
14750.000000 95.294 108.4917
15000.000000 94.845 84.3048
15250.000000 92.584 71.0187
15500.000000 89.982 69.4516
15750.000000 87.992 73.7097
16000.000000 86.710 80.1139
16250.000000 85.978 86.8762
16500.000000 85.665 92.8296
16750.000000 85.649 96.8724
17000.000000 85.720 98.0123
17250.000000 85.586 96.0097
17500.000000 84.975 92.2168
17750.000000 83.781 89.1948
18000.000000 82.117 89.0639
18250.000000 80.229 92.4828
18500.000000 78.416 98.9865
18750.000000 76.960 107.7459
19000.000000 75.949 118.0356
19250.000000 75.175 129.3592
19500.000000 74.374 141.3861
19750.000000 73.505 153.9643
20000.000000 72.634 166.9524
20300.000000 71.757 -177.2307
20600.000000 71.253 -161.3266
20900.000000 71.156 -145.7521
21200.000000 71.476 -131.5319
21400.000000 71.858 -124.9675
21800.000000 72.183 -178.8995
22000.000000 71.437 -32.3255
22400.000000 67.178 -25.1599
22700.000000 61.920 134.2725
23000.000000 55.378 -22.1836
23300.000000 48.454 -151.9609
23600.000000 44.274 62.4883
24000.000000 44.190 -60.7383
