* Measurement data measured by REW V5.31
* Source: Headset (DS by VECLAN.COM), MICROPHONE (Master Volume), L, volume: 0.720. Timing signal peak level -17.7 dBFS, measurement signal peak level -14.3 dBFS
* Format: 2M Log Swept Sine, 1 sweep at -12.0 dBFS using an acoustic timing reference
* Dated: Apr 27, 2024 4:47:02 PM
* REW Settings:
*  C-weighting compensation: Off
*  Target level: 85.0 dB
* Note: ; Delay -0.0707 ms (-24 mm, -0.96 in) using estimated IR delay relative to Acoustic reference played from HEADPHONE L with no timing offset
* Measurement: Final Type E L
* Smoothing: 1/24 octave
* Frequency Step: 1/48 octave
* Start Frequency: 1.000 Hz
*
* Freq(Hz), SPL(dB), Phase(degrees)
1.000000, 76.148, -33.4457
1.015000, 76.590, -34.2489
1.030000, 77.022, -35.0611
1.044000, 77.416, -35.8302
1.060000, 77.853, -36.7251
1.075000, 78.250, -37.5816
1.090000, 78.633, -38.4542
1.106000, 79.029, -39.3871
1.120000, 79.368, -40.1769
1.138000, 79.797, -41.1371
1.150000, 80.079, -41.7428
1.172000, 80.588, -42.7937
1.180000, 80.769, -43.1628
1.206000, 81.349, -44.2981
1.220000, 81.654, -44.8731
1.241000, 82.100, -45.6951
1.250000, 82.287, -46.0342
1.265000, 82.594, -46.5842
1.280000, 82.894, -47.1174
1.315000, 83.566, -48.3108
1.320000, 83.658, -48.4767
1.340000, 84.020, -49.1323
1.360000, 84.367, -49.7769
1.380000, 84.699, -50.4541
1.400000, 85.016, -51.1442
1.430000, 85.461, -52.1835
1.450000, 85.736, -52.8825
1.475000, 86.054, -53.7535
1.500000, 86.335, -54.5883
1.525000, 86.580, -55.3729
1.550000, 86.792, -56.1104
1.575000, 86.976, -56.8279
1.600000, 87.135, -57.5487
1.625000, 87.274, -58.2396
1.650000, 87.398, -58.9064
1.675000, 87.509, -59.5545
1.700000, 87.613, -60.1892
1.725000, 87.714, -60.8153
1.750000, 87.816, -61.4372
1.775000, 87.923, -62.0762
1.800000, 88.039, -62.7520
1.825000, 88.166, -63.4321
1.850000, 88.302, -64.1096
1.875000, 88.439, -64.7715
1.900000, 88.575, -65.4129
1.925000, 88.708, -66.0336
1.950000, 88.840, -66.6342
1.975000, 88.969, -67.2331
2.000000, 89.097, -67.8479
2.030000, 89.248, -68.5651
2.060000, 89.396, -69.2651
2.090000, 89.542, -69.9519
2.120000, 89.686, -70.6293
2.140000, 89.781, -71.0776
2.180000, 89.967, -71.9920
2.200000, 90.059, -72.4678
2.240000, 90.240, -73.4096
2.270000, 90.373, -74.1013
2.300000, 90.503, -74.7780
2.330000, 90.631, -75.4389
2.360000, 90.757, -76.0847
2.400000, 90.921, -76.9708
2.430000, 91.042, -77.6263
2.470000, 91.200, -78.4817
2.500000, 91.317, -79.1116
2.540000, 91.470, -79.9397
2.580000, 91.620, -80.7764
2.620000, 91.767, -81.6413
2.650000, 91.875, -82.2808
2.690000, 92.016, -83.1191
2.720000, 92.119, -83.7357
2.760000, 92.255, -84.5390
2.800000, 92.387, -85.3623
2.850000, 92.549, -86.3702
2.900000, 92.706, -87.3505
2.950000, 92.859, -88.3099
3.000000, 93.007, -89.2885
3.040000, 93.121, -90.0726
3.070000, 93.205, -90.6526
3.110000, 93.315, -91.4130
3.150000, 93.422, -92.1573
3.200000, 93.553, -93.0939
3.250000, 93.680, -94.0176
3.300000, 93.805, -94.9167
3.350000, 93.926, -95.7995
3.400000, 94.044, -96.7045
3.450000, 94.158, -97.6084
3.500000, 94.269, -98.4930
3.550000, 94.377, -99.3543
3.600000, 94.482, -100.2171
3.650000, 94.584, -101.0670
3.700000, 94.684, -101.8992
3.750000, 94.780, -102.7211
3.820000, 94.910, -103.8882
3.870000, 94.999, -104.7112
3.950000, 95.138, -105.9874
4.000000, 95.221, -106.7794
4.060000, 95.320, -107.7183
4.120000, 95.415, -108.6428
4.180000, 95.507, -109.5610
4.250000, 95.610, -110.6422
4.310000, 95.696, -111.5421
4.370000, 95.779, -112.4200
4.440000, 95.871, -113.4522
4.500000, 95.947, -114.3256
4.550000, 96.008, -115.0437
4.620000, 96.090, -116.0569
4.680000, 96.158, -116.9085
4.750000, 96.233, -117.8711
4.820000, 96.306, -118.8322
4.870000, 96.356, -119.5143
4.940000, 96.422, -120.4535
5.000000, 96.477, -121.2547
5.080000, 96.546, -122.3013
5.150000, 96.602, -123.1839
5.220000, 96.655, -124.0682
5.300000, 96.711, -125.0654
5.380000, 96.763, -126.0346
5.450000, 96.806, -126.8699
5.520000, 96.847, -127.6724
5.600000, 96.890, -128.5718
5.700000, 96.939, -129.6756
5.800000, 96.984, -130.7338
5.900000, 97.025, -131.7519
6.000000, 97.063, -132.7290
6.080000, 97.090, -133.4950
6.150000, 97.113, -134.1363
6.220000, 97.136, -134.7666
6.300000, 97.161, -135.4599
6.400000, 97.190, -136.2944
6.500000, 97.218, -137.1042
6.600000, 97.245, -137.8777
6.700000, 97.272, -138.6273
6.800000, 97.299, -139.3465
6.900000, 97.325, -140.0464
7.000000, 97.351, -140.7186
7.100000, 97.377, -141.3733
7.200000, 97.404, -142.0052
7.300000, 97.429, -142.6229
7.400000, 97.454, -143.2206
7.500000, 97.479, -143.8091
7.620000, 97.508, -144.4903
7.750000, 97.540, -145.1989
7.880000, 97.571, -145.8860
8.000000, 97.599, -146.4946
8.120000, 97.628, -147.0869
8.250000, 97.660, -147.7097
8.380000, 97.693, -148.3167
8.500000, 97.724, -148.8730
8.620000, 97.756, -149.4215
8.750000, 97.791, -150.0155
8.850000, 97.818, -150.4776
9.000000, 97.857, -151.1741
9.120000, 97.887, -151.7409
9.250000, 97.915, -152.3693
9.380000, 97.940, -153.0058
9.500000, 97.958, -153.5962
9.620000, 97.971, -154.1806
9.750000, 97.977, -154.8060
9.880000, 97.970, -155.4101
10.000000, 97.948, -155.9328
10.150000, 97.903, -156.5735
10.300000, 97.846, -157.1308
10.440000, 97.785, -157.5698
10.600000, 97.713, -157.9792
10.750000, 97.653, -158.2711
10.900000, 97.601, -158.4895
11.060000, 97.560, -158.6974
11.200000, 97.538, -158.8867
11.380000, 97.523, -159.1360
11.500000, 97.522, -159.3228
11.720000, 97.532, -159.7392
11.800000, 97.538, -159.9245
12.060000, 97.563, -160.6704
12.200000, 97.575, -161.1861
12.410000, 97.581, -162.0255
12.500000, 97.578, -162.3958
12.650000, 97.562, -163.0189
12.800000, 97.537, -163.6269
13.150000, 97.444, -164.9501
13.200000, 97.429, -165.1260
13.400000, 97.365, -165.7627
13.600000, 97.302, -166.2947
13.800000, 97.241, -166.7273
14.000000, 97.187, -167.0841
14.300000, 97.121, -167.5794
14.500000, 97.087, -167.8517
14.750000, 97.053, -168.1382
15.000000, 97.035, -168.3846
15.250000, 97.038, -168.6709
15.500000, 97.059, -168.9824
15.750000, 97.090, -169.3558
16.000000, 97.125, -169.8244
16.250000, 97.154, -170.4317
16.500000, 97.167, -171.0973
16.750000, 97.158, -171.7538
17.000000, 97.129, -172.3249
17.250000, 97.090, -172.7787
17.500000, 97.052, -173.0627
17.750000, 97.028, -173.2059
18.000000, 97.027, -173.2858
18.250000, 97.048, -173.4154
18.500000, 97.083, -173.6504
18.750000, 97.118, -174.0156
19.000000, 97.142, -174.4952
19.250000, 97.146, -175.0579
19.500000, 97.130, -175.6180
19.750000, 97.098, -176.1313
20.000000, 97.056, -176.5831
20.299999, 97.000, -177.0956
20.600000, 96.935, -177.5730
20.900000, 96.854, -178.0083
21.200001, 96.751, -178.3456
21.400000, 96.672, -178.4528
21.799999, 96.523, -178.2642
22.000000, 96.473, -177.9873
22.400000, 96.463, -177.3640
22.700001, 96.534, -177.1292
23.000000, 96.639, -177.3224
23.299999, 96.733, -177.9803
23.600000, 96.779, -178.9271
24.000000, 96.756, 179.7954
24.299999, 96.701, 179.0692
24.700001, 96.645, 178.5099
25.000000, 96.650, 178.2155
25.400000, 96.708, 177.5912
25.799999, 96.757, 176.5718
26.200001, 96.734, 175.4175
26.500000, 96.666, 174.7656
26.900000, 96.561, 174.4733
27.200001, 96.520, 174.6467
27.600000, 96.557, 175.0281
28.000000, 96.675, 175.0968
28.500000, 96.817, 174.4509
29.000000, 96.855, 173.4476
29.500000, 96.802, 172.7153
30.000000, 96.735, 172.4312
30.400000, 96.699, 172.3237
30.700001, 96.676, 172.2214
31.100000, 96.635, 172.0504
31.500000, 96.576, 171.9242
32.000000, 96.508, 171.9647
32.500000, 96.488, 172.0535
33.000000, 96.517, 171.8192
33.500000, 96.532, 171.0888
34.000000, 96.481, 170.1887
34.500000, 96.382, 169.6061
35.000000, 96.319, 169.4866
35.500000, 96.347, 169.4172
36.000000, 96.426, 168.9539
36.500000, 96.475, 168.1623
37.000000, 96.475, 167.4953
37.500000, 96.486, 167.1771
38.200001, 96.597, 166.7240
38.700001, 96.675, 165.9241
39.500000, 96.620, 164.4570
40.000000, 96.496, 164.1479
40.599998, 96.374, 164.5704
41.200001, 96.355, 165.3360
41.799999, 96.426, 165.7489
42.500000, 96.523, 165.2711
43.099998, 96.509, 164.2697
43.700001, 96.380, 163.3992
44.400002, 96.195, 163.1128
45.000000, 96.101, 163.2083
45.500000, 96.067, 163.2042
46.200001, 96.044, 162.9816
46.799999, 96.043, 162.6353
47.500000, 96.041, 162.0134
48.200001, 95.999, 161.4122
48.700001, 95.964, 161.2095
49.400002, 95.962, 161.0857
50.000000, 95.987, 160.7725
50.799999, 95.956, 160.1833
51.500000, 95.893, 160.0791
52.200001, 95.892, 160.1836
53.000000, 95.928, 159.7421
53.799999, 95.876, 158.9185
54.500000, 95.787, 158.4205
55.200001, 95.705, 157.9933
56.000000, 95.579, 157.6200
57.000000, 95.482, 158.0381
58.000000, 95.619, 157.8976
59.000000, 95.664, 156.4159
60.000000, 95.589, 155.5947
60.799999, 95.591, 155.2679
61.500000, 95.602, 154.7632
62.200001, 95.581, 154.2106
63.000000, 95.526, 153.7772
64.000000, 95.460, 153.5754
65.000000, 95.427, 153.4608
66.000000, 95.402, 153.2208
67.000000, 95.382, 152.9395
68.000000, 95.368, 152.4143
69.000000, 95.304, 151.8791
70.000000, 95.262, 151.7322
71.000000, 95.282, 151.3129
72.000000, 95.260, 150.4910
73.000000, 95.186, 149.8216
74.000000, 95.100, 149.4149
75.000000, 95.032, 149.2455
76.199997, 94.998, 149.0510
77.500000, 94.972, 148.6801
78.800003, 94.938, 148.3185
80.000000, 94.882, 148.1361
81.199997, 94.872, 148.3645
82.500000, 94.935, 147.9013
83.800003, 94.890, 146.8555
85.000000, 94.794, 146.1064
86.199997, 94.690, 145.6453
87.500000, 94.633, 145.3649
88.500000, 94.607, 145.0081
90.000000, 94.543, 144.5997
91.199997, 94.499, 144.3743
92.500000, 94.430, 144.0375
93.800003, 94.338, 143.7565
95.000000, 94.264, 143.5526
96.199997, 94.210, 143.2241
97.500000, 94.167, 142.8411
98.800003, 94.165, 142.3437
100.000000, 94.139, 141.5704
101.500000, 94.045, 141.2272
103.000000, 94.022, 141.1197
104.400002, 93.979, 140.8252
106.000000, 93.935, 140.5794
107.500000, 93.889, 140.1095
109.000000, 93.831, 139.6211
110.599998, 93.784, 139.1581
112.000000, 93.758, 138.7487
113.800003, 93.713, 138.3871
115.000000, 93.679, 138.2314
117.199997, 93.548, 138.1824
118.000000, 93.504, 138.3481
120.599998, 93.480, 138.0951
122.000000, 93.433, 137.2908
124.099998, 93.337, 136.4709
125.000000, 93.309, 136.2191
126.500000, 93.268, 135.8408
128.000000, 93.225, 135.4888
131.500000, 93.099, 134.6929
132.000000, 93.080, 134.5922
134.000000, 93.009, 134.2237
136.000000, 92.941, 133.9503
138.000000, 92.894, 133.6712
140.000000, 92.843, 133.2196
143.000000, 92.751, 132.7802
145.000000, 92.701, 132.6000
147.500000, 92.654, 132.2115
150.000000, 92.612, 131.5947
152.500000, 92.550, 130.9326
155.000000, 92.460, 130.4886
157.500000, 92.365, 130.2667
160.000000, 92.280, 130.0380
162.500000, 92.192, 129.7216
165.000000, 92.112, 129.4361
167.500000, 92.069, 129.0971
170.000000, 92.049, 128.7525
172.500000, 92.002, 128.4590
175.000000, 91.907, 128.2119
177.500000, 91.799, 127.9405
180.000000, 91.718, 127.6730
182.500000, 91.647, 127.4482
185.000000, 91.575, 127.4978
187.500000, 91.564, 127.3384
190.000000, 91.546, 126.8143
192.500000, 91.493, 126.5152
195.000000, 91.431, 126.3732
197.500000, 91.382, 126.2831
200.000000, 91.362, 126.1362
203.000000, 91.321, 125.5555
206.000000, 91.234, 124.9259
209.000000, 91.161, 124.6968
212.000000, 91.092, 124.3610
214.000000, 91.033, 124.0236
218.000000, 90.973, 123.4549
220.000000, 90.957, 123.2480
224.000000, 90.871, 123.1022
227.000000, 90.778, 123.2365
230.000000, 90.725, 123.4445
233.000000, 90.736, 123.3888
236.000000, 90.776, 123.2044
240.000000, 90.797, 123.0338
243.000000, 90.775, 123.1539
247.000000, 90.650, 122.4380
250.000000, 90.469, 121.7409
254.000000, 90.350, 120.9621
258.000000, 90.275, 119.8790
262.000000, 90.255, 118.8424
265.000000, 90.294, 118.7679
269.000000, 90.296, 119.6672
272.000000, 90.209, 120.0613
276.000000, 90.084, 119.7664
280.000000, 90.036, 119.3073
285.000000, 89.961, 119.0695
290.000000, 89.890, 118.6697
295.000000, 89.867, 118.3398
300.000000, 89.813, 117.9990
304.000000, 89.712, 117.9204
307.000000, 89.676, 118.1002
311.000000, 89.692, 118.1472
315.000000, 89.731, 117.7917
320.000000, 89.761, 117.3127
325.000000, 89.703, 117.2201
330.000000, 89.539, 117.5281
335.000000, 89.398, 116.6719
340.000000, 89.356, 115.7451
345.000000, 89.388, 116.4935
350.000000, 89.379, 116.9219
355.000000, 89.386, 116.3688
360.000000, 89.394, 115.8844
365.000000, 89.380, 115.7088
370.000000, 89.254, 115.5955
375.000000, 89.174, 114.2825
382.000000, 89.207, 114.3653
387.000000, 89.156, 114.2321
395.000000, 89.128, 113.9781
400.000000, 89.079, 113.5858
406.000000, 89.051, 113.0926
412.000000, 89.037, 112.9232
418.000000, 88.995, 112.6493
425.000000, 88.945, 112.0914
431.000000, 88.948, 111.3354
437.000000, 88.992, 110.7016
444.000000, 88.993, 111.3619
450.000000, 88.909, 111.7950
455.000000, 88.866, 111.6804
462.000000, 88.857, 111.3267
468.000000, 88.850, 111.2331
475.000000, 88.848, 111.0341
482.000000, 88.834, 110.5721
487.000000, 88.815, 110.1910
494.000000, 88.741, 110.2282
500.000000, 88.709, 110.5848
508.000000, 88.739, 110.6133
515.000000, 88.752, 110.4677
522.000000, 88.791, 109.7758
530.000000, 88.836, 109.5454
538.000000, 88.800, 109.5930
545.000000, 88.796, 109.2549
552.000000, 88.830, 109.0943
560.000000, 88.843, 108.9788
570.000000, 88.861, 108.8381
580.000000, 88.903, 108.4554
590.000000, 88.948, 108.6253
600.000000, 88.981, 108.7435
608.000000, 88.977, 108.6183
615.000000, 88.971, 108.3377
622.000000, 88.977, 108.1521
630.000000, 88.990, 107.9926
640.000000, 89.009, 107.9169
650.000000, 89.026, 107.6543
660.000000, 89.066, 107.3474
670.000000, 89.103, 107.2363
680.000000, 89.117, 107.0888
690.000000, 89.140, 106.9572
700.000000, 89.176, 106.8902
710.000000, 89.220, 106.9094
720.000000, 89.273, 106.8608
730.000000, 89.319, 106.6731
740.000000, 89.359, 106.4308
750.000000, 89.390, 106.2560
762.000000, 89.430, 106.2960
775.000000, 89.485, 106.3635
788.000000, 89.542, 106.4478
800.000000, 89.605, 106.4818
812.000000, 89.664, 106.4744
825.000000, 89.740, 106.3471
838.000000, 89.819, 106.2018
850.000000, 89.874, 106.2703
862.000000, 89.946, 106.4597
875.000000, 90.034, 106.4640
885.000000, 90.095, 106.3759
900.000000, 90.203, 106.2970
912.000000, 90.285, 106.2996
925.000000, 90.346, 106.3352
938.000000, 90.426, 106.3224
950.000000, 90.518, 106.3076
962.000000, 90.610, 106.3070
975.000000, 90.709, 106.3614
988.000000, 90.810, 106.4049
1000.000000, 90.907, 106.4514
1015.000000, 91.027, 106.4678
1030.000000, 91.152, 106.4719
1044.000000, 91.281, 106.4156
1060.000000, 91.446, 106.4222
1075.000000, 91.604, 106.3812
1090.000000, 91.770, 106.2559
1106.000000, 91.960, 106.0950
1120.000000, 92.132, 105.8639
1138.000000, 92.358, 105.4218
1150.000000, 92.507, 105.0899
1172.000000, 92.768, 104.4012
1180.000000, 92.861, 104.0923
1206.000000, 93.154, 103.0685
1220.000000, 93.303, 102.4893
1241.000000, 93.526, 101.5500
1250.000000, 93.620, 101.1915
1265.000000, 93.775, 100.5768
1280.000000, 93.921, 99.8409
1315.000000, 94.199, 98.0515
1320.000000, 94.230, 97.8266
1340.000000, 94.351, 96.8360
1360.000000, 94.461, 95.8283
1380.000000, 94.569, 94.9189
1400.000000, 94.687, 94.0136
1430.000000, 94.851, 92.7234
1450.000000, 94.952, 91.8995
1475.000000, 95.082, 90.8322
1500.000000, 95.205, 89.8268
1525.000000, 95.319, 88.8156
1550.000000, 95.420, 87.8536
1575.000000, 95.514, 86.8920
1600.000000, 95.606, 85.9230
1625.000000, 95.690, 84.9660
1650.000000, 95.761, 84.0658
1675.000000, 95.827, 83.1710
1700.000000, 95.892, 82.2792
1725.000000, 95.954, 81.3922
1750.000000, 96.008, 80.5352
1775.000000, 96.052, 79.6830
1800.000000, 96.087, 78.8884
1825.000000, 96.117, 78.1487
1850.000000, 96.147, 77.4463
1875.000000, 96.178, 76.8246
1900.000000, 96.214, 76.2639
1925.000000, 96.258, 75.7068
1950.000000, 96.311, 75.0974
1975.000000, 96.372, 74.3498
2000.000000, 96.426, 73.4795
2030.000000, 96.460, 72.3632
2060.000000, 96.454, 71.3042
2090.000000, 96.429, 70.3347
2120.000000, 96.395, 69.4488
2140.000000, 96.368, 68.9338
2180.000000, 96.309, 68.1617
2200.000000, 96.279, 67.8484
2240.000000, 96.232, 67.3148
2270.000000, 96.211, 66.9005
2300.000000, 96.195, 66.4059
2330.000000, 96.172, 65.9017
2360.000000, 96.139, 65.4171
2400.000000, 96.078, 64.8218
2430.000000, 96.023, 64.4676
2470.000000, 95.951, 64.0755
2500.000000, 95.902, 63.8248
2540.000000, 95.833, 63.6216
2580.000000, 95.764, 63.4842
2620.000000, 95.701, 63.4025
2650.000000, 95.653, 63.4016
2690.000000, 95.601, 63.4609
2720.000000, 95.571, 63.5054
2760.000000, 95.533, 63.5993
2800.000000, 95.495, 63.7179
2850.000000, 95.462, 63.8296
2900.000000, 95.436, 63.9241
2950.000000, 95.408, 64.0283
3000.000000, 95.386, 64.1502
3040.000000, 95.375, 64.2365
3070.000000, 95.371, 64.2455
3110.000000, 95.367, 64.1480
3150.000000, 95.346, 63.9783
3200.000000, 95.277, 63.7243
3250.000000, 95.165, 63.6539
3300.000000, 95.033, 64.0883
3350.000000, 94.949, 64.9197
3400.000000, 94.947, 65.8362
3450.000000, 95.005, 66.5268
3500.000000, 95.090, 66.8282
3550.000000, 95.167, 66.8241
3600.000000, 95.219, 66.5516
3650.000000, 95.243, 66.1542
3700.000000, 95.233, 65.7581
3750.000000, 95.197, 65.3792
3820.000000, 95.115, 64.8928
3870.000000, 95.038, 64.5374
3950.000000, 94.867, 64.0287
4000.000000, 94.730, 63.7800
4060.000000, 94.546, 63.5478
4120.000000, 94.331, 63.4255
4180.000000, 94.085, 63.4480
4250.000000, 93.766, 63.6858
4310.000000, 93.460, 64.1982
4370.000000, 93.130, 65.0141
4440.000000, 92.741, 66.4089
4500.000000, 92.412, 67.9332
4550.000000, 92.143, 69.4946
4620.000000, 91.790, 72.0336
4680.000000, 91.520, 74.5813
4750.000000, 91.257, 77.9293
4820.000000, 91.066, 81.6519
4870.000000, 90.980, 84.4892
4940.000000, 90.943, 88.6746
5000.000000, 91.005, 92.3310
5080.000000, 91.233, 97.1161
5150.000000, 91.574, 100.9995
5220.000000, 92.057, 104.3137
5300.000000, 92.761, 106.8602
5380.000000, 93.561, 107.5561
5450.000000, 94.239, 106.2283
5520.000000, 94.763, 103.1689
5600.000000, 95.028, 98.2785
5700.000000, 94.757, 92.0277
5800.000000, 93.966, 87.8540
5900.000000, 92.946, 86.7930
6000.000000, 91.957, 88.4207
6080.000000, 91.279, 91.1803
6150.000000, 90.784, 94.2846
6220.000000, 90.381, 97.7665
6300.000000, 90.025, 102.0983
6400.000000, 89.721, 107.7554
6500.000000, 89.563, 113.5233
6600.000000, 89.539, 119.2486
6700.000000, 89.626, 124.8710
6800.000000, 89.834, 130.2792
6900.000000, 90.171, 135.3936
7000.000000, 90.630, 140.1277
7100.000000, 91.193, 144.3344
7200.000000, 91.838, 147.8410
7300.000000, 92.544, 150.5871
7400.000000, 93.288, 152.3532
7500.000000, 94.042, 153.0687
7620.000000, 94.915, 152.4278
7750.000000, 95.704, 150.1348
7880.000000, 96.160, 146.7540
8000.000000, 96.283, 143.4266
8120.000000, 96.182, 140.5044
8250.000000, 95.900, 138.2531
8380.000000, 95.525, 137.1905
8500.000000, 95.172, 137.0898
8620.000000, 94.846, 137.6548
8750.000000, 94.528, 138.6692
8850.000000, 94.323, 139.6941
9000.000000, 94.112, 141.2290
9120.000000, 94.003, 142.0588
9250.000000, 93.887, 142.2649
9380.000000, 93.706, 141.9021
9500.000000, 93.438, 141.2374
9620.000000, 93.059, 140.6240
9750.000000, 92.535, 140.3284
9880.000000, 91.918, 140.6655
10000.000000, 91.299, 141.7719
10150.000000, 90.518, 144.1791
10300.000000, 89.799, 147.5881
10440.000000, 89.233, 151.4348
10600.000000, 88.731, 156.1042
10750.000000, 88.385, 160.3245
10900.000000, 88.102, 164.0669
11060.000000, 87.840, 167.6826
11200.000000, 87.635, 170.5172
11380.000000, 87.345, 173.7650
11500.000000, 87.147, 175.9340
11720.000000, 86.859, 179.4952
11800.000000, 86.765, -179.4973
12060.000000, 86.384, -177.6466
12200.000000, 86.073, -177.3887
12410.000000, 85.371, -177.6371
12500.000000, 84.967, -177.8080
12650.000000, 84.153, -177.8135
12800.000000, 83.176, -177.1642
13150.000000, 80.489, -171.8596
13200.000000, 80.078, -170.6304
13400.000000, 78.399, -164.5753
13600.000000, 76.688, -156.4408
13800.000000, 75.013, -145.8142
14000.000000, 73.532, -132.0395
14300.000000, 72.200, -107.0929
14500.000000, 72.026, -90.9968
14750.000000, 72.275, -73.5141
15000.000000, 72.841, -58.2660
15250.000000, 73.714, -45.5152
15500.000000, 74.743, -36.3453
15750.000000, 75.639, -30.2070
16000.000000, 76.273, -25.3022
