* Measurement data measured by REW V5.20.13
* Source: Headset (DS by VECLAN.COM), MICROPHONE (Master Volume), L, volume: 0.720. Timing signal peak level -19.0 dBFS, measurement signal peak level -14.9 dBFS
* Format: 2M Log Swept Sine, 1 sweep at -12.0 dBFS using an acoustic timing reference
* Dated: Jan 23, 2024 6:57:36 PM
* REW Settings:
*  C-weighting compensation: Off
*  Target level: 75.0 dB
* Note: ; Delay -0.0626 ms (-21 mm, -0.85 in) using estimated IR delay relative to Acoustic reference played from HEADPHONE R with no timing offset
* Measurement: Hisenior Mega5EST R
* Smoothing: 1/24 octave
* Frequency Step: 1/48 octave
* Start Frequency: 1.000 Hz
*
* Freq(Hz) SPL(dB) Phase(degrees)
1.000000 75.786 -37.7309
1.015000 76.054 -36.2272
1.030000 76.316 -34.9087
1.044000 76.556 -33.8532
1.060000 76.822 -32.8636
1.075000 77.064 -32.1553
1.090000 77.297 -31.6686
1.106000 77.537 -31.4248
1.120000 77.743 -31.5585
1.138000 78.005 -32.2007
1.150000 78.178 -32.8986
1.172000 78.491 -34.6786
1.180000 78.603 -35.4711
1.206000 78.963 -38.5057
1.220000 79.152 -40.3892
1.241000 79.432 -43.4731
1.250000 79.550 -44.8715
1.265000 79.744 -47.2798
1.280000 79.934 -49.7581
1.315000 80.364 -55.6385
1.320000 80.424 -56.4729
1.340000 80.659 -59.7501
1.360000 80.886 -62.8756
1.380000 81.107 -65.7759
1.400000 81.319 -68.3773
1.430000 81.623 -71.5579
1.450000 81.816 -73.0899
1.475000 82.043 -74.2443
1.500000 82.254 -74.7628
1.525000 82.449 -74.7721
1.550000 82.628 -74.3458
1.575000 82.794 -73.5577
1.600000 82.948 -72.4816
1.625000 83.092 -71.1911
1.650000 83.227 -69.7601
1.675000 83.354 -68.2624
1.700000 83.476 -66.7716
1.725000 83.593 -65.3616
1.750000 83.707 -64.1061
1.775000 83.820 -63.0789
1.800000 83.933 -62.3536
1.825000 84.047 -62.0042
1.850000 84.161 -62.0371
1.875000 84.267 -62.3127
1.900000 84.367 -62.7936
1.925000 84.460 -63.4484
1.950000 84.549 -64.2458
1.975000 84.633 -65.1543
2.000000 84.715 -66.1426
2.030000 84.810 -67.3898
2.060000 84.904 -68.6523
2.090000 84.998 -69.8762
2.120000 85.094 -71.0070
2.140000 85.161 -71.6825
2.180000 85.300 -72.7728
2.200000 85.374 -73.1562
2.240000 85.528 -73.7043
2.270000 85.646 -73.9839
2.300000 85.766 -74.1696
2.330000 85.887 -74.2781
2.360000 86.010 -74.3264
2.400000 86.174 -74.3263
2.430000 86.298 -74.2997
2.470000 86.463 -74.2608
2.500000 86.586 -74.2511
2.540000 86.748 -74.2961
2.580000 86.909 -74.4296
2.620000 87.068 -74.5594
2.650000 87.187 -74.6446
2.690000 87.345 -74.7525
2.720000 87.463 -74.8365
2.760000 87.621 -74.9633
2.800000 87.778 -75.1191
2.850000 87.975 -75.3750
2.900000 88.172 -75.7232
2.950000 88.370 -76.1938
3.000000 88.570 -76.8256
3.040000 88.730 -77.4221
3.070000 88.850 -77.9055
3.110000 89.010 -78.5770
3.150000 89.170 -79.2551
3.200000 89.369 -80.0722
3.250000 89.565 -80.8073
3.300000 89.758 -81.4092
3.350000 89.950 -81.8416
3.400000 90.141 -82.1417
3.450000 90.331 -82.3663
3.500000 90.519 -82.5723
3.550000 90.703 -82.8164
3.600000 90.884 -83.1555
3.650000 91.061 -83.6463
3.700000 91.233 -84.3338
3.750000 91.402 -85.1909
3.820000 91.633 -86.5786
3.870000 91.794 -87.6345
3.950000 92.042 -89.2946
4.000000 92.192 -90.2344
4.060000 92.366 -91.1916
4.120000 92.533 -92.0071
4.180000 92.695 -92.7380
4.250000 92.876 -93.5518
4.310000 93.024 -94.2744
4.370000 93.166 -95.0740
4.440000 93.323 -96.1600
4.500000 93.450 -97.2001
4.550000 93.551 -98.1118
4.620000 93.685 -99.4084
4.680000 93.794 -100.4933
4.750000 93.916 -101.6698
4.820000 94.030 -102.7233
4.870000 94.107 -103.4282
4.940000 94.208 -104.3672
5.000000 94.290 -105.1430
5.080000 94.394 -106.1620
5.150000 94.481 -107.0624
5.220000 94.562 -107.9667
5.300000 94.649 -108.9878
5.380000 94.730 -109.9804
5.450000 94.800 -110.8133
5.520000 94.869 -111.6026
5.600000 94.944 -112.4536
5.700000 95.035 -113.4562
5.800000 95.123 -114.4090
5.900000 95.214 -115.3262
6.000000 95.304 -116.1851
6.080000 95.376 -116.8445
6.150000 95.439 -117.4160
6.220000 95.501 -117.9948
6.300000 95.574 -118.6677
6.400000 95.664 -119.5095
6.500000 95.754 -120.3478
6.600000 95.840 -121.1775
6.700000 95.924 -121.9946
6.800000 96.005 -122.8035
6.900000 96.082 -123.6120
7.000000 96.152 -124.4296
7.100000 96.217 -125.2669
7.200000 96.276 -126.1009
7.300000 96.329 -126.9028
7.400000 96.376 -127.6589
7.500000 96.416 -128.3857
7.620000 96.457 -129.2068
7.750000 96.498 -130.0173
7.880000 96.532 -130.7517
8.000000 96.562 -131.3593
8.120000 96.597 -131.8902
8.250000 96.637 -132.3708
8.380000 96.684 -132.7972
8.500000 96.738 -133.1675
8.620000 96.801 -133.4946
8.750000 96.877 -133.8554
8.850000 96.942 -134.1675
9.000000 97.052 -134.6599
9.120000 97.144 -135.1059
9.250000 97.245 -135.6694
9.380000 97.350 -136.3027
9.500000 97.440 -136.9445
9.620000 97.518 -137.6494
9.750000 97.595 -138.4811
9.880000 97.655 -139.3345
10.000000 97.689 -140.1358
10.150000 97.709 -141.1558
10.300000 97.708 -142.1122
10.440000 97.684 -142.9537
10.600000 97.642 -143.8260
10.750000 97.598 -144.5191
10.900000 97.549 -145.1103
11.060000 97.505 -145.6434
11.200000 97.472 -146.0186
11.380000 97.444 -146.4408
11.500000 97.435 -146.6847
11.720000 97.438 -147.1166
11.800000 97.446 -147.2916
12.060000 97.492 -147.9158
12.200000 97.523 -148.3324
12.410000 97.576 -149.0485
12.500000 97.595 -149.3823
12.650000 97.625 -149.9833
12.800000 97.650 -150.6086
13.150000 97.681 -152.0947
13.200000 97.684 -152.3011
13.400000 97.688 -153.1097
13.600000 97.689 -153.8760
13.800000 97.689 -154.5898
14.000000 97.691 -155.2727
14.300000 97.698 -156.2520
14.500000 97.704 -156.8961
14.750000 97.713 -157.6963
15.000000 97.721 -158.4909
15.250000 97.728 -159.2666
15.500000 97.734 -159.9990
15.750000 97.740 -160.6779
16.000000 97.749 -161.2963
16.250000 97.763 -161.8809
16.500000 97.784 -162.4497
16.750000 97.812 -163.0301
17.000000 97.843 -163.6377
17.250000 97.874 -164.2700
17.500000 97.900 -164.9206
17.750000 97.921 -165.5601
18.000000 97.936 -166.1743
18.250000 97.949 -166.7474
18.500000 97.963 -167.2786
18.750000 97.980 -167.7832
19.000000 98.003 -168.2759
19.250000 98.031 -168.7885
19.500000 98.060 -169.3320
19.750000 98.089 -169.9142
20.000000 98.112 -170.5298
20.299999 98.130 -171.2881
20.600000 98.137 -172.0385
20.900000 98.134 -172.7512
21.200001 98.126 -173.4067
21.400000 98.120 -173.8121
21.799999 98.110 -174.5651
22.000000 98.107 -174.9249
22.400000 98.108 -175.6396
22.700001 98.112 -176.1864
23.000000 98.118 -176.7490
23.299999 98.124 -177.3265
23.600000 98.129 -177.9144
24.000000 98.135 -178.7061
24.299999 98.138 -179.3008
24.700001 98.142 179.9071
25.000000 98.143 179.3133
25.400000 98.142 178.5230
25.799999 98.135 177.7448
26.200001 98.123 177.0028
26.500000 98.112 176.4886
26.900000 98.097 175.8736
27.200001 98.091 175.4600
27.600000 98.093 174.9410
28.000000 98.107 174.4029
28.500000 98.131 173.6348
29.000000 98.146 172.7624
29.500000 98.143 171.8673
30.000000 98.125 171.0397
30.400000 98.107 170.4415
30.700001 98.095 170.0177
31.100000 98.082 169.4615
31.500000 98.070 168.9004
32.000000 98.053 168.1936
32.500000 98.034 167.5011
33.000000 98.014 166.8333
33.500000 97.996 166.1803
34.000000 97.981 165.5297
34.500000 97.968 164.8805
35.000000 97.956 164.2319
35.500000 97.946 163.5692
36.000000 97.934 162.8758
36.500000 97.914 162.1645
37.000000 97.885 161.4836
37.500000 97.853 160.8716
38.200001 97.819 160.0911
38.700001 97.802 159.5125
39.500000 97.771 158.5191
40.000000 97.747 157.9118
40.599998 97.720 157.2102
41.200001 97.696 156.4959
41.799999 97.669 155.7798
42.500000 97.637 155.0042
43.099998 97.622 154.3535
43.700001 97.610 153.6358
44.400002 97.582 152.7562
45.000000 97.546 152.0755
45.500000 97.518 151.5679
46.200001 97.487 150.8644
46.799999 97.458 150.2424
47.500000 97.417 149.5668
48.200001 97.384 148.9567
48.700001 97.368 148.5073
49.400002 97.346 147.8049
50.000000 97.320 147.1666
50.799999 97.277 146.3482
51.500000 97.241 145.6495
52.200001 97.203 144.9146
53.000000 97.146 144.0878
53.799999 97.083 143.3894
54.500000 97.041 142.8431
55.200001 97.009 142.2581
56.000000 96.970 141.5265
57.000000 96.909 140.6375
58.000000 96.852 139.8350
59.000000 96.806 138.9663
60.000000 96.742 138.0335
60.799999 96.682 137.3892
61.500000 96.637 136.8786
62.200001 96.598 136.3454
63.000000 96.551 135.7086
64.000000 96.488 134.9510
65.000000 96.433 134.2002
66.000000 96.377 133.3747
67.000000 96.309 132.5625
68.000000 96.242 131.8101
69.000000 96.179 131.0701
70.000000 96.119 130.3369
71.000000 96.060 129.5998
72.000000 95.996 128.8977
73.000000 95.935 128.2510
74.000000 95.876 127.5980
75.000000 95.811 126.9397
76.199997 95.727 126.1947
77.500000 95.637 125.3977
78.800003 95.549 124.5754
80.000000 95.464 123.7873
81.199997 95.376 123.0599
82.500000 95.294 122.3307
83.800003 95.219 121.5783
85.000000 95.148 120.8707
86.199997 95.075 120.1752
87.500000 94.994 119.4439
88.500000 94.932 118.8869
90.000000 94.839 118.0814
91.199997 94.769 117.4674
92.500000 94.695 116.8000
93.800003 94.616 116.1348
95.000000 94.537 115.5589
96.199997 94.455 115.0273
97.500000 94.373 114.4656
98.800003 94.295 113.8457
100.000000 94.219 113.2628
101.500000 94.126 112.5826
103.000000 94.037 111.9373
104.400002 93.953 111.3482
106.000000 93.851 110.6797
107.500000 93.753 110.0642
109.000000 93.663 109.4401
110.599998 93.572 108.7520
112.000000 93.491 108.1954
113.800003 93.386 107.5805
115.000000 93.314 107.2058
117.199997 93.182 106.4869
118.000000 93.132 106.1900
120.599998 92.975 105.2924
122.000000 92.909 104.8285
124.099998 92.808 104.1371
125.000000 92.763 103.8525
126.500000 92.683 103.3799
128.000000 92.601 102.9314
131.500000 92.424 101.8468
132.000000 92.397 101.7014
134.000000 92.293 101.2033
136.000000 92.198 100.7724
138.000000 92.106 100.3305
140.000000 92.015 99.8734
143.000000 91.881 99.1923
145.000000 91.795 98.7461
147.500000 91.692 98.1509
150.000000 91.593 97.6136
152.500000 91.515 97.1173
155.000000 91.415 96.1943
157.500000 91.242 95.3893
160.000000 91.133 95.0586
162.500000 91.089 94.9374
165.000000 91.033 94.8725
167.500000 90.934 94.6646
170.000000 90.836 94.2385
172.500000 90.761 93.7364
175.000000 90.684 93.3715
177.500000 90.597 93.1185
180.000000 90.513 92.8237
182.500000 90.435 92.4898
185.000000 90.354 92.1783
187.500000 90.274 91.8712
190.000000 90.204 91.5520
192.500000 90.149 91.2805
195.000000 90.098 91.0269
197.500000 90.039 90.7727
200.000000 89.976 90.5090
203.000000 89.902 90.2141
206.000000 89.836 89.9744
209.000000 89.782 89.6983
212.000000 89.729 89.3708
214.000000 89.695 89.1582
218.000000 89.632 88.7876
220.000000 89.601 88.6300
224.000000 89.535 88.3186
227.000000 89.483 88.0857
230.000000 89.440 87.8326
233.000000 89.402 87.5220
236.000000 89.362 87.2233
240.000000 89.310 86.9714
243.000000 89.267 86.8095
247.000000 89.212 86.4953
250.000000 89.191 86.2252
254.000000 89.180 85.9104
258.000000 89.162 85.6661
262.000000 89.132 85.4470
265.000000 89.111 85.2377
269.000000 89.090 84.9249
272.000000 89.077 84.6842
276.000000 89.067 84.3790
280.000000 89.060 84.1188
285.000000 89.031 83.8096
290.000000 89.010 83.4571
295.000000 88.996 82.9995
300.000000 88.986 82.6218
304.000000 88.989 82.3637
307.000000 88.989 82.1503
311.000000 88.991 81.9016
315.000000 88.997 81.6588
320.000000 89.004 81.2851
325.000000 89.010 80.9249
330.000000 89.014 80.5966
335.000000 89.015 80.2561
340.000000 89.017 79.9067
345.000000 89.023 79.5704
350.000000 89.029 79.2338
355.000000 89.036 78.8785
360.000000 89.047 78.5157
365.000000 89.058 78.1644
370.000000 89.065 77.8138
375.000000 89.068 77.4601
382.000000 89.074 77.0450
387.000000 89.077 76.7696
395.000000 89.083 76.2534
400.000000 89.096 75.8946
406.000000 89.112 75.5069
412.000000 89.125 75.1098
418.000000 89.133 74.7128
425.000000 89.143 74.2911
431.000000 89.151 73.9438
437.000000 89.159 73.6097
444.000000 89.170 73.2047
450.000000 89.175 72.8504
455.000000 89.177 72.5729
462.000000 89.180 72.2048
468.000000 89.184 71.8877
475.000000 89.194 71.5084
482.000000 89.207 71.1397
487.000000 89.217 70.8902
494.000000 89.229 70.5643
500.000000 89.237 70.2940
508.000000 89.250 69.9375
515.000000 89.263 69.6386
522.000000 89.268 69.3465
530.000000 89.268 69.0000
538.000000 89.275 68.6609
545.000000 89.282 68.4127
552.000000 89.289 68.1847
560.000000 89.297 67.9221
570.000000 89.307 67.6190
580.000000 89.318 67.3165
590.000000 89.328 67.0370
600.000000 89.339 66.7516
608.000000 89.346 66.5329
615.000000 89.350 66.3711
622.000000 89.353 66.2315
630.000000 89.355 66.1014
640.000000 89.353 65.9458
650.000000 89.344 65.7453
660.000000 89.337 65.6166
670.000000 89.351 65.5669
680.000000 89.370 65.5071
690.000000 89.390 65.3862
700.000000 89.399 65.2401
710.000000 89.402 65.1947
720.000000 89.401 65.2315
730.000000 89.395 65.2731
740.000000 89.394 65.3105
750.000000 89.407 65.3288
762.000000 89.425 65.3312
775.000000 89.437 65.3764
788.000000 89.447 65.4741
800.000000 89.460 65.5785
812.000000 89.475 65.7110
825.000000 89.492 65.8832
838.000000 89.513 66.0515
850.000000 89.537 66.2252
862.000000 89.568 66.4184
875.000000 89.600 66.6465
885.000000 89.624 66.7887
900.000000 89.663 66.9548
912.000000 89.694 67.1115
925.000000 89.725 67.3171
938.000000 89.759 67.5148
950.000000 89.793 67.6913
962.000000 89.827 67.8675
975.000000 89.862 68.0592
988.000000 89.895 68.2824
1000.000000 89.923 68.5077
1015.000000 89.961 68.8131
1030.000000 90.003 69.1564
1044.000000 90.051 69.4870
1060.000000 90.116 69.8657
1075.000000 90.189 70.2051
1090.000000 90.277 70.4574
1106.000000 90.384 70.6477
1120.000000 90.485 70.7708
1138.000000 90.614 70.8166
1150.000000 90.697 70.7962
1172.000000 90.828 70.7466
1180.000000 90.868 70.7175
1206.000000 90.983 70.6140
1220.000000 91.043 70.5416
1241.000000 91.129 70.4266
1250.000000 91.164 70.3977
1265.000000 91.222 70.3603
1280.000000 91.277 70.3173
1315.000000 91.395 70.2622
1320.000000 91.410 70.2660
1340.000000 91.464 70.2933
1360.000000 91.495 70.3327
1380.000000 91.516 70.4131
1400.000000 91.543 70.5310
1430.000000 91.593 70.7468
1450.000000 91.631 70.9127
1475.000000 91.677 71.1597
1500.000000 91.720 71.4665
1525.000000 91.764 71.7931
1550.000000 91.806 72.1462
1575.000000 91.840 72.5508
1600.000000 91.871 72.9887
1625.000000 91.907 73.4442
1650.000000 91.945 73.9208
1675.000000 91.987 74.4274
1700.000000 92.033 74.9464
1725.000000 92.084 75.4819
1750.000000 92.137 76.0370
1775.000000 92.190 76.6047
1800.000000 92.244 77.1843
1825.000000 92.300 77.7772
1850.000000 92.361 78.3825
1875.000000 92.429 78.9803
1900.000000 92.505 79.5769
1925.000000 92.584 80.1746
1950.000000 92.663 80.7747
1975.000000 92.740 81.3869
2000.000000 92.819 81.9947
2030.000000 92.919 82.7072
2060.000000 93.022 83.4149
2090.000000 93.132 84.1026
2120.000000 93.250 84.7668
2140.000000 93.333 85.2025
2180.000000 93.506 86.0530
2200.000000 93.596 86.4589
2240.000000 93.783 87.2258
2270.000000 93.925 87.7694
2300.000000 94.068 88.2856
2330.000000 94.213 88.7674
2360.000000 94.362 89.2072
2400.000000 94.568 89.7285
2430.000000 94.727 90.0715
2470.000000 94.945 90.4437
2500.000000 95.112 90.6609
2540.000000 95.338 90.8585
2580.000000 95.563 90.9484
2620.000000 95.785 90.9317
2650.000000 95.949 90.8479
2690.000000 96.165 90.6394
2720.000000 96.322 90.4079
2760.000000 96.522 90.0090
2800.000000 96.713 89.5003
2850.000000 96.943 88.7009
2900.000000 97.154 87.7403
2950.000000 97.339 86.6413
3000.000000 97.497 85.4217
3040.000000 97.603 84.3739
3070.000000 97.669 83.5555
3110.000000 97.738 82.4391
3150.000000 97.783 81.3106
3200.000000 97.812 79.9014
3250.000000 97.811 78.5266
3300.000000 97.781 77.2180
3350.000000 97.727 75.9911
3400.000000 97.659 74.8594
3450.000000 97.577 73.8348
3500.000000 97.478 72.9366
3550.000000 97.362 72.1621
3600.000000 97.235 71.5059
3650.000000 97.107 70.9588
3700.000000 96.982 70.5056
3750.000000 96.858 70.1465
3820.000000 96.682 69.7746
3870.000000 96.555 69.5818
3950.000000 96.350 69.3571
4000.000000 96.225 69.2484
4060.000000 96.075 69.1343
4120.000000 95.923 69.0274
4180.000000 95.768 68.9207
4250.000000 95.579 68.7837
4310.000000 95.404 68.6651
4370.000000 95.205 68.5607
4440.000000 94.939 68.4958
4500.000000 94.687 68.5321
4550.000000 94.462 68.6606
4620.000000 94.132 69.0391
4680.000000 93.841 69.5770
4750.000000 93.502 70.4710
4820.000000 93.177 71.6376
4870.000000 92.959 72.6206
4940.000000 92.677 74.1744
5000.000000 92.460 75.6314
5080.000000 92.207 77.6822
5150.000000 92.021 79.5051
5220.000000 91.869 81.2992
5300.000000 91.725 83.2748
5380.000000 91.600 85.1487
5450.000000 91.502 86.6997
5520.000000 91.411 88.1743
5600.000000 91.310 89.7943
5700.000000 91.183 91.7633
5800.000000 91.049 93.7558
5900.000000 90.920 95.8419
6000.000000 90.813 98.0295
6080.000000 90.748 99.8178
6150.000000 90.706 101.3828
6220.000000 90.671 102.9467
6300.000000 90.640 104.7314
6400.000000 90.618 106.9797
6500.000000 90.610 109.3038
6600.000000 90.632 111.7143
6700.000000 90.701 114.1843
6800.000000 90.830 116.6603
6900.000000 91.021 119.1549
7000.000000 91.301 121.7277
7100.000000 91.715 124.0293
7200.000000 92.193 125.5166
7300.000000 92.658 126.3740
7400.000000 93.120 126.7911
7500.000000 93.587 126.6671
7620.000000 94.146 125.6673
7750.000000 94.687 123.5170
7880.000000 95.020 120.4388
8000.000000 95.117 117.1453
8120.000000 95.020 113.8874
8250.000000 94.720 110.9162
8380.000000 94.267 108.9254
8500.000000 93.771 108.1208
8620.000000 93.250 108.2988
8750.000000 92.691 109.4692
8850.000000 92.289 110.9380
9000.000000 91.756 113.8659
9120.000000 91.399 116.6955
9250.000000 91.096 120.1051
9380.000000 90.886 123.7468
9500.000000 90.774 127.2013
9620.000000 90.742 130.6338
9750.000000 90.799 134.1974
9880.000000 90.945 137.4474
10000.000000 91.148 140.0207
10150.000000 91.468 142.4331
10300.000000 91.816 143.6955
10440.000000 92.093 143.6919
10600.000000 92.261 142.3311
10750.000000 92.193 140.1106
10900.000000 91.856 137.6779
11060.000000 91.204 135.7771
11200.000000 90.435 135.2921
11380.000000 89.299 136.5939
11500.000000 88.515 138.5834
11720.000000 87.126 144.0787
11800.000000 86.645 146.5581
12060.000000 85.182 156.1099
12200.000000 84.464 162.1367
12410.000000 83.511 172.1548
12500.000000 83.157 176.7180
12650.000000 82.641 -175.4309
12800.000000 82.212 -167.3395
13150.000000 81.553 -147.8435
13200.000000 81.498 -145.0210
13400.000000 81.368 -133.7126
13600.000000 81.380 -122.4522
13800.000000 81.539 -111.3353
14000.000000 81.848 -100.4241
14300.000000 82.593 -84.5845
14500.000000 83.319 -74.6630
14750.000000 84.504 -63.8084
15000.000000 85.897 -55.8178
15250.000000 87.274 -51.8028
15500.000000 88.320 -52.1006
15750.000000 88.712 -54.9966
16000.000000 88.368 -57.0564
16250.000000 87.527 -55.7673
16500.000000 86.539 -50.8884
16750.000000 85.659 -43.5068
17000.000000 84.995 -34.9272
17250.000000 84.542 -26.2444
17500.000000 84.223 -18.1451
17750.000000 83.929 -10.7408
18000.000000 83.622 -3.9489
18250.000000 83.292 1.8533
18500.000000 82.839 6.6140
18750.000000 82.181 11.9767
19000.000000 81.401 20.1029
19250.000000 80.612 31.4496
19500.000000 79.824 44.6819
19750.000000 79.022 58.2253
20000.000000 78.129 71.3101
20300.000000 76.872 86.6747
20600.000000 75.454 102.8452
20900.000000 73.873 120.6473
21200.000000 72.184 139.8463
21400.000000 71.042 150.2938
21800.000000 68.481 69.8270
22000.000000 66.582 126.4197
22400.000000 60.333 60.7842
22700.000000 53.599 154.4805
23000.000000 45.638 154.8574
23300.000000 37.605 -66.9238
23600.000000 32.817 -99.2578
24000.000000 31.482 -3.9648
