* Measurement data measured by REW V5.20.13
* Source: Headset (DS by VECLAN.COM), MICROPHONE (Master Volume), L, volume: 0.880. Timing signal peak level -15.9 dBFS, measurement signal peak level -15.3 dBFS
* Format: 2M Log Swept Sine, 1 sweep at -12.0 dBFS using an acoustic timing reference
* Dated: Nov 11, 2023 4:42:40 PM
* REW Settings:
*  C-weighting compensation: Off
*  Target level: 75.0 dB
* Note: ; Delay -0.1189 ms (-41 mm, -1.61 in) using estimated IR delay relative to Acoustic reference played from HEADPHONE R with no timing offset
* Measurement: HZSound ObieMirror R
* Smoothing: 1/24 octave
* Frequency Step: 1/48 octave
* Start Frequency: 1.000 Hz
*
* Freq(Hz) SPL(dB) Phase(degrees)
1.000000 67.011 -68.2913
1.015000 67.288 -65.1144
1.030000 67.560 -62.1052
1.044000 67.808 -59.4640
1.060000 68.083 -56.6630
1.075000 68.332 -54.2666
1.090000 68.570 -52.1109
1.106000 68.812 -50.0909
1.120000 69.025 -48.5296
1.138000 69.300 -46.7797
1.150000 69.485 -45.7645
1.172000 69.825 -44.1948
1.180000 69.949 -43.7114
1.206000 70.352 -42.4331
1.220000 70.568 -41.9139
1.241000 70.889 -41.3306
1.250000 71.026 -41.1452
1.265000 71.253 -40.9127
1.280000 71.477 -40.7653
1.315000 71.986 -40.6844
1.320000 72.057 -40.6963
1.340000 72.336 -40.7846
1.360000 72.607 -40.9166
1.380000 72.867 -41.0634
1.400000 73.117 -41.1964
1.430000 73.468 -41.3072
1.450000 73.685 -41.2800
1.475000 73.935 -41.1112
1.500000 74.163 -41.0146
1.525000 74.369 -41.0349
1.550000 74.557 -41.1562
1.575000 74.728 -41.3628
1.600000 74.884 -41.6388
1.625000 75.027 -41.9685
1.650000 75.159 -42.3360
1.675000 75.282 -42.7255
1.700000 75.398 -43.1213
1.725000 75.509 -43.5076
1.750000 75.616 -43.8685
1.775000 75.722 -44.1883
1.800000 75.829 -44.4511
1.825000 75.938 -44.6412
1.850000 76.047 -44.7587
1.875000 76.148 -44.8368
1.900000 76.240 -44.8825
1.925000 76.325 -44.9012
1.950000 76.404 -44.8985
1.975000 76.479 -44.8799
2.000000 76.550 -44.8509
2.030000 76.632 -44.8101
2.060000 76.714 -44.7718
2.090000 76.796 -44.7455
2.120000 76.882 -44.7407
2.140000 76.941 -44.7542
2.180000 77.070 -44.8339
2.200000 77.140 -44.9057
2.240000 77.288 -45.1017
2.270000 77.402 -45.2842
2.300000 77.520 -45.4917
2.330000 77.640 -45.7192
2.360000 77.761 -45.9617
2.400000 77.926 -46.3001
2.430000 78.050 -46.5587
2.470000 78.215 -46.9005
2.500000 78.339 -47.1482
2.540000 78.502 -47.4577
2.580000 78.663 -47.7339
2.620000 78.822 -47.9839
2.650000 78.942 -48.1595
2.690000 79.102 -48.3837
2.720000 79.221 -48.5482
2.760000 79.381 -48.7683
2.800000 79.540 -48.9960
2.850000 79.740 -49.3018
2.900000 79.941 -49.6444
2.950000 80.143 -50.0357
3.000000 80.347 -50.4662
3.040000 80.512 -50.8332
3.070000 80.635 -51.1196
3.110000 80.800 -51.5139
3.150000 80.965 -51.9201
3.200000 81.169 -52.4398
3.250000 81.372 -52.9675
3.300000 81.571 -53.4977
3.350000 81.768 -54.0369
3.400000 81.963 -54.5905
3.450000 82.158 -55.1562
3.500000 82.350 -55.7312
3.550000 82.539 -56.3132
3.600000 82.726 -56.8995
3.650000 82.909 -57.4876
3.700000 83.089 -58.0789
3.750000 83.265 -58.6796
3.820000 83.508 -59.5315
3.870000 83.677 -60.1438
3.950000 83.943 -61.1218
4.000000 84.106 -61.7274
4.060000 84.297 -62.4466
4.120000 84.484 -63.1685
4.180000 84.667 -63.8900
4.250000 84.875 -64.7234
4.310000 85.051 -65.4242
4.370000 85.223 -66.1063
4.440000 85.421 -66.8736
4.500000 85.586 -67.5117
4.550000 85.721 -68.0316
4.620000 85.908 -68.7432
4.680000 86.066 -69.3402
4.750000 86.249 -70.0243
4.820000 86.431 -70.6935
4.870000 86.560 -71.1599
4.940000 86.739 -71.7993
5.000000 86.891 -72.3377
5.080000 87.093 -73.0462
5.150000 87.270 -73.6604
5.220000 87.447 -74.2583
5.300000 87.648 -74.9272
5.380000 87.848 -75.5942
5.450000 88.022 -76.1877
5.520000 88.195 -76.7984
5.600000 88.393 -77.5051
5.700000 88.638 -78.4027
5.800000 88.878 -79.3275
5.900000 89.112 -80.2905
6.000000 89.340 -81.2898
6.080000 89.519 -82.1116
6.150000 89.669 -82.8451
6.220000 89.814 -83.5903
6.300000 89.972 -84.4627
6.400000 90.161 -85.5853
6.500000 90.338 -86.7219
6.600000 90.500 -87.8491
6.700000 90.648 -88.9808
6.800000 90.781 -90.1145
6.900000 90.902 -91.2183
7.000000 91.008 -92.2665
7.100000 91.100 -93.2839
7.200000 91.178 -94.2540
7.300000 91.248 -95.1485
7.400000 91.308 -95.9540
7.500000 91.357 -96.6870
7.620000 91.408 -97.4571
7.750000 91.463 -98.1353
7.880000 91.513 -98.6452
8.000000 91.562 -99.0011
8.120000 91.624 -99.2679
8.250000 91.700 -99.4263
8.380000 91.791 -99.5283
8.500000 91.891 -99.6250
8.620000 92.006 -99.6887
8.750000 92.143 -99.7931
8.850000 92.254 -99.9408
9.000000 92.437 -100.2328
9.120000 92.585 -100.5500
9.250000 92.743 -101.0046
9.380000 92.902 -101.5635
9.500000 93.039 -102.1449
9.620000 93.161 -102.7875
9.750000 93.281 -103.5578
9.880000 93.382 -104.3423
10.000000 93.453 -105.0676
10.150000 93.518 -105.9813
10.300000 93.564 -106.8164
10.440000 93.585 -107.5250
10.600000 93.601 -108.2438
10.750000 93.617 -108.8022
10.900000 93.633 -109.2684
11.060000 93.663 -109.7091
11.200000 93.701 -110.0335
11.380000 93.766 -110.4521
11.500000 93.822 -110.7387
11.720000 93.942 -111.3311
11.800000 93.991 -111.5909
12.060000 94.166 -112.5809
12.200000 94.260 -113.2375
12.410000 94.401 -114.3666
12.500000 94.455 -114.8889
12.650000 94.538 -115.8233
12.800000 94.611 -116.7977
13.150000 94.732 -119.1432
13.200000 94.744 -119.4728
13.400000 94.780 -120.7820
13.600000 94.798 -122.0182
13.800000 94.800 -123.1624
14.000000 94.792 -124.1814
14.300000 94.765 -125.4546
14.500000 94.744 -126.1051
14.750000 94.730 -126.7061
15.000000 94.738 -127.0896
15.250000 94.784 -127.3327
15.500000 94.872 -127.5561
15.750000 94.998 -127.8478
16.000000 95.153 -128.3444
16.250000 95.313 -129.1158
16.500000 95.463 -130.1667
16.750000 95.582 -131.4750
17.000000 95.655 -132.9003
17.250000 95.678 -134.3346
17.500000 95.650 -135.6395
17.750000 95.586 -136.6602
18.000000 95.504 -137.3612
18.250000 95.423 -137.7064
18.500000 95.371 -137.7869
18.750000 95.357 -137.7220
19.000000 95.386 -137.6244
19.250000 95.449 -137.6591
19.500000 95.530 -137.8622
19.750000 95.616 -138.2592
20.000000 95.691 -138.8070
20.299999 95.762 -139.5720
20.600000 95.814 -140.3759
20.900000 95.853 -141.1647
21.200001 95.885 -141.9355
21.400000 95.903 -142.4525
21.799999 95.927 -143.4791
22.000000 95.931 -143.9627
22.400000 95.927 -144.7763
22.700001 95.928 -145.1918
23.000000 95.956 -145.4663
23.299999 96.022 -145.7468
23.600000 96.116 -146.1929
24.000000 96.248 -147.2079
24.299999 96.309 -148.2231
24.700001 96.311 -149.5622
25.000000 96.268 -150.2415
25.400000 96.216 -150.5176
25.799999 96.257 -150.4048
26.200001 96.396 -150.6384
26.500000 96.502 -151.3441
26.900000 96.552 -152.8462
27.200001 96.485 -153.9148
27.600000 96.288 -154.5029
28.000000 96.118 -153.7675
28.500000 96.184 -152.0330
29.000000 96.512 -151.6549
29.500000 96.771 -153.4327
30.000000 96.741 -155.8228
30.400000 96.564 -156.8432
30.700001 96.433 -156.8746
31.100000 96.367 -156.4261
31.500000 96.430 -156.1895
32.000000 96.550 -156.8773
32.500000 96.565 -158.1755
33.000000 96.483 -159.0728
33.500000 96.418 -159.3439
34.000000 96.426 -159.5109
34.500000 96.458 -159.9252
35.000000 96.471 -160.3932
35.500000 96.487 -160.6823
36.000000 96.539 -160.9505
36.500000 96.609 -161.4674
37.000000 96.649 -162.2083
37.500000 96.649 -162.9182
38.200001 96.627 -163.6559
38.700001 96.613 -164.1243
39.500000 96.567 -164.7830
40.000000 96.538 -164.9825
40.599998 96.543 -165.1024
41.200001 96.585 -165.4150
41.799999 96.619 -166.0009
42.500000 96.615 -166.7236
43.099998 96.599 -167.1572
43.700001 96.598 -167.4866
44.400002 96.608 -167.9212
45.000000 96.605 -168.3454
45.500000 96.589 -168.6480
46.200001 96.565 -168.9231
46.799999 96.557 -169.0849
47.500000 96.562 -169.3206
48.200001 96.572 -169.6407
48.700001 96.581 -169.9206
49.400002 96.594 -170.4210
50.000000 96.596 -170.9661
50.799999 96.568 -171.7436
51.500000 96.515 -172.2520
52.200001 96.471 -172.4450
53.000000 96.488 -172.5012
53.799999 96.552 -172.9253
54.500000 96.568 -173.5682
55.200001 96.543 -174.0259
56.000000 96.528 -174.2840
57.000000 96.517 -174.6969
58.000000 96.486 -174.8173
59.000000 96.534 -174.9446
60.000000 96.565 -175.7057
60.799999 96.540 -176.2846
61.500000 96.520 -176.7122
62.200001 96.494 -177.1871
63.000000 96.443 -177.6247
64.000000 96.405 -177.8915
65.000000 96.405 -178.2612
66.000000 96.402 -178.7014
67.000000 96.409 -179.1887
68.000000 96.389 -179.7811
69.000000 96.348 179.8947
70.000000 96.335 179.6844
71.000000 96.322 179.4082
72.000000 96.305 179.2090
73.000000 96.297 178.9631
74.000000 96.277 178.6523
75.000000 96.250 178.3414
76.199997 96.211 177.9000
77.500000 96.151 177.4940
78.800003 96.111 177.2804
80.000000 96.112 177.0418
81.199997 96.114 176.6408
82.500000 96.091 176.1728
83.800003 96.045 175.8581
85.000000 96.022 175.7052
86.199997 96.017 175.3663
87.500000 95.980 174.9714
88.500000 95.960 174.8689
90.000000 95.978 174.6232
91.199997 95.983 174.1619
92.500000 95.933 173.6193
93.800003 95.853 173.3596
95.000000 95.801 173.2521
96.199997 95.773 173.0518
97.500000 95.744 172.6924
98.800003 95.709 172.3294
100.000000 95.671 172.0293
101.500000 95.614 171.8114
103.000000 95.578 171.6963
104.400002 95.558 171.5176
106.000000 95.546 171.1769
107.500000 95.520 170.9085
109.000000 95.501 170.7595
110.599998 95.463 170.7489
112.000000 95.448 170.7515
113.800003 95.404 170.2534
115.000000 95.342 169.9041
117.199997 95.292 169.3584
118.000000 95.285 169.1077
120.599998 95.245 168.6843
122.000000 95.217 168.7139
124.099998 95.175 168.7382
125.000000 95.157 168.6474
126.500000 95.123 168.3333
128.000000 95.071 167.9687
131.500000 94.923 167.5642
132.000000 94.894 167.5156
134.000000 94.767 167.5454
136.000000 94.738 167.6491
138.000000 94.770 167.3145
140.000000 94.779 167.0265
143.000000 94.734 166.9980
145.000000 94.674 166.9696
147.500000 94.591 166.7854
150.000000 94.521 166.6581
152.500000 94.445 166.3785
155.000000 94.325 166.1980
157.500000 94.207 166.3287
160.000000 94.163 166.2378
162.500000 94.125 165.9528
165.000000 94.128 165.7209
167.500000 94.095 165.5435
170.000000 94.031 165.6633
172.500000 93.998 165.6646
175.000000 93.965 165.1744
177.500000 93.900 164.6841
180.000000 93.827 164.5767
182.500000 93.747 164.8096
185.000000 93.669 165.0889
187.500000 93.594 165.2119
190.000000 93.533 165.3496
192.500000 93.485 165.4790
195.000000 93.425 165.5901
197.500000 93.376 165.6823
200.000000 93.337 165.6266
203.000000 93.284 165.4087
206.000000 93.235 165.4252
209.000000 93.176 165.8023
212.000000 93.102 166.0471
214.000000 93.062 165.9028
218.000000 92.982 165.7912
220.000000 92.934 166.0624
224.000000 92.846 166.2834
227.000000 92.795 166.1674
230.000000 92.746 166.3191
233.000000 92.686 166.5408
236.000000 92.617 166.5139
240.000000 92.530 166.4027
243.000000 92.480 166.5828
247.000000 92.375 167.0473
250.000000 92.284 167.4155
254.000000 92.216 167.4348
258.000000 92.188 167.2356
262.000000 92.165 167.3865
265.000000 92.112 167.6747
269.000000 92.022 168.0251
272.000000 91.972 168.1504
276.000000 91.900 168.1674
280.000000 91.826 168.2539
285.000000 91.759 168.5622
290.000000 91.649 168.9285
295.000000 91.555 169.2880
300.000000 91.435 169.6531
304.000000 91.392 169.7402
307.000000 91.387 169.9118
311.000000 91.367 170.3482
315.000000 91.321 170.7413
320.000000 91.237 171.0984
325.000000 91.167 171.3439
330.000000 91.125 171.5544
335.000000 91.086 171.9571
340.000000 91.011 172.2960
345.000000 90.906 172.5148
350.000000 90.821 172.9347
355.000000 90.776 173.1221
360.000000 90.728 173.1390
365.000000 90.678 173.1318
370.000000 90.551 173.4178
375.000000 90.380 174.3289
382.000000 90.332 175.5336
387.000000 90.361 176.1881
395.000000 90.308 177.0719
400.000000 90.263 177.4860
406.000000 90.208 178.0500
412.000000 90.149 178.7518
418.000000 90.143 179.5112
425.000000 90.103 -179.9274
431.000000 90.020 -179.4538
437.000000 89.901 -178.9160
444.000000 89.797 -178.2305
450.000000 89.749 -177.7669
455.000000 89.719 -177.3436
462.000000 89.677 -176.6094
468.000000 89.644 -176.0214
475.000000 89.603 -175.3541
482.000000 89.546 -174.7086
487.000000 89.498 -174.3567
494.000000 89.443 -173.9208
500.000000 89.406 -173.4947
508.000000 89.323 -172.7730
515.000000 89.206 -171.8923
522.000000 89.124 -170.9554
530.000000 89.074 -169.8189
538.000000 89.035 -168.7175
545.000000 88.986 -167.7281
552.000000 88.920 -166.6583
560.000000 88.826 -165.4663
570.000000 88.726 -163.7289
580.000000 88.749 -161.5574
590.000000 88.839 -160.3622
600.000000 88.946 -160.4459
608.000000 88.996 -160.2921
615.000000 88.977 -159.7112
622.000000 88.961 -159.2225
630.000000 88.984 -158.7494
640.000000 89.042 -157.4126
650.000000 88.998 -155.1705
660.000000 88.743 -153.8244
670.000000 88.668 -154.4135
680.000000 88.819 -153.5118
690.000000 88.774 -151.4150
700.000000 88.652 -150.1722
710.000000 88.591 -149.4420
720.000000 88.592 -148.4799
730.000000 88.595 -147.0545
740.000000 88.580 -145.7220
750.000000 88.588 -144.3748
762.000000 88.604 -142.8267
775.000000 88.613 -141.2920
788.000000 88.654 -139.8430
800.000000 88.687 -138.3142
812.000000 88.641 -136.7924
825.000000 88.635 -135.0810
838.000000 88.695 -133.3110
850.000000 88.754 -131.5809
862.000000 88.791 -129.9445
875.000000 88.821 -128.3434
885.000000 88.870 -127.0106
900.000000 88.971 -124.7451
912.000000 89.070 -122.9792
925.000000 89.193 -121.2214
938.000000 89.334 -119.5142
950.000000 89.496 -117.9412
962.000000 89.671 -116.4603
975.000000 89.872 -114.9558
988.000000 90.091 -113.5379
1000.000000 90.298 -112.3713
1015.000000 90.560 -111.1709
1030.000000 90.836 -110.1836
1044.000000 91.087 -109.4746
1060.000000 91.363 -108.9362
1075.000000 91.604 -108.6298
1090.000000 91.835 -108.4083
1106.000000 92.057 -108.3190
1120.000000 92.222 -108.3309
1138.000000 92.418 -108.2587
1150.000000 92.539 -108.2639
1172.000000 92.718 -108.2975
1180.000000 92.777 -108.2690
1206.000000 92.953 -108.1757
1220.000000 93.045 -108.1023
1241.000000 93.176 -107.9376
1250.000000 93.228 -107.8563
1265.000000 93.312 -107.7023
1280.000000 93.393 -107.5151
1315.000000 93.557 -107.0464
1320.000000 93.580 -106.9729
1340.000000 93.666 -106.6620
1360.000000 93.728 -106.3300
1380.000000 93.781 -105.9770
1400.000000 93.844 -105.6276
1430.000000 93.943 -105.0629
1450.000000 94.004 -104.6579
1475.000000 94.075 -104.1340
1500.000000 94.140 -103.6129
1525.000000 94.200 -103.0609
1550.000000 94.252 -102.4967
1575.000000 94.292 -101.9132
1600.000000 94.322 -101.2877
1625.000000 94.350 -100.6512
1650.000000 94.406 -100.0542
1675.000000 94.461 -99.3806
1700.000000 94.503 -98.7235
1725.000000 94.544 -98.1003
1750.000000 94.585 -97.4774
1775.000000 94.621 -96.8886
1800.000000 94.649 -96.2983
1825.000000 94.669 -95.6908
1850.000000 94.684 -95.0554
1875.000000 94.699 -94.4081
1900.000000 94.712 -93.7620
1925.000000 94.722 -93.0754
1950.000000 94.726 -92.3854
1975.000000 94.729 -91.6829
2000.000000 94.732 -90.9576
2030.000000 94.733 -90.0733
2060.000000 94.731 -89.1438
2090.000000 94.732 -88.2141
2120.000000 94.735 -87.2742
2140.000000 94.733 -86.6246
2180.000000 94.723 -85.2899
2200.000000 94.717 -84.6196
2240.000000 94.702 -83.2473
2270.000000 94.691 -82.1833
2300.000000 94.682 -81.1035
2330.000000 94.668 -79.9905
2360.000000 94.652 -78.8470
2400.000000 94.636 -77.3233
2430.000000 94.624 -76.1374
2470.000000 94.611 -74.5286
2500.000000 94.603 -73.3091
2540.000000 94.593 -71.6311
2580.000000 94.586 -69.9251
2620.000000 94.584 -68.1640
2650.000000 94.585 -66.8216
2690.000000 94.593 -64.9883
2720.000000 94.603 -63.5904
2760.000000 94.625 -61.7344
2800.000000 94.654 -59.8614
2850.000000 94.697 -57.4963
2900.000000 94.756 -55.0818
2950.000000 94.837 -52.6189
3000.000000 94.940 -50.1621
3040.000000 95.044 -48.3173
3070.000000 95.130 -47.0169
3110.000000 95.250 -45.3950
3150.000000 95.369 -43.8880
3200.000000 95.504 -42.0636
3250.000000 95.630 -40.2805
3300.000000 95.758 -38.5259
3350.000000 95.891 -36.7992
3400.000000 96.037 -35.1135
3450.000000 96.198 -33.4960
3500.000000 96.372 -31.9763
3550.000000 96.553 -30.5733
3600.000000 96.741 -29.3363
3650.000000 96.925 -28.2448
3700.000000 97.104 -27.3164
3750.000000 97.279 -26.5674
3820.000000 97.498 -25.7878
3870.000000 97.631 -25.4526
3950.000000 97.786 -25.2666
4000.000000 97.841 -25.3517
4060.000000 97.844 -25.5310
4120.000000 97.772 -25.6376
4180.000000 97.646 -25.5156
4250.000000 97.470 -25.0297
4310.000000 97.305 -24.3662
4370.000000 97.127 -23.5876
4440.000000 96.909 -22.6322
4500.000000 96.704 -21.7740
4550.000000 96.515 -21.0139
4620.000000 96.221 -19.8304
4680.000000 95.943 -18.6562
4750.000000 95.591 -17.0510
4820.000000 95.219 -15.1484
4870.000000 94.951 -13.6135
4940.000000 94.584 -11.2283
5000.000000 94.274 -8.9667
5080.000000 93.865 -5.6637
5150.000000 93.515 -2.5279
5220.000000 93.178 0.8102
5300.000000 92.822 4.8786
5380.000000 92.509 9.2200
5450.000000 92.281 13.1152
5520.000000 92.086 16.9205
5600.000000 91.871 21.2195
5700.000000 91.601 26.7955
5800.000000 91.361 32.6018
5900.000000 91.164 38.5688
6000.000000 91.018 44.6389
6080.000000 90.933 49.5710
6150.000000 90.882 53.9271
6220.000000 90.859 58.3031
6300.000000 90.868 63.2983
6400.000000 90.922 69.5191
6500.000000 91.024 75.6837
6600.000000 91.184 81.7354
6700.000000 91.396 87.6486
6800.000000 91.666 93.3751
6900.000000 92.008 98.8764
7000.000000 92.423 104.0903
7100.000000 92.894 108.9478
7200.000000 93.403 113.3883
7300.000000 93.951 117.3221
7400.000000 94.528 120.6733
7500.000000 95.117 123.3777
7620.000000 95.816 125.6807
7750.000000 96.511 126.9076
7880.000000 96.995 126.8630
8000.000000 97.212 125.9761
8120.000000 97.193 124.7980
8250.000000 96.907 123.9498
8380.000000 96.416 124.1765
8500.000000 95.839 125.6396
8620.000000 95.212 128.2994
8750.000000 94.534 132.3738
8850.000000 94.040 136.2191
9000.000000 93.387 142.8850
9120.000000 92.954 148.8182
9250.000000 92.588 155.6572
9380.000000 92.339 162.7742
9500.000000 92.212 169.4783
9620.000000 92.185 176.2144
9750.000000 92.275 -176.5532
9880.000000 92.492 -169.5079
10000.000000 92.807 -163.2865
10150.000000 93.357 -156.0858
10300.000000 94.074 -149.8253
10440.000000 94.878 -145.2121
10600.000000 95.907 -142.0241
10750.000000 96.858 -141.6973
10900.000000 97.615 -144.3096
11060.000000 97.979 -149.7090
11200.000000 97.806 -155.0693
11380.000000 96.961 -160.0057
11500.000000 96.143 -161.0432
11720.000000 94.589 -158.1355
11800.000000 94.125 -155.9305
12060.000000 93.349 -148.1306
12200.000000 93.323 -145.7961
12410.000000 93.261 -146.8740
12500.000000 93.076 -148.7626
12650.000000 92.439 -152.6557
12800.000000 91.372 -156.0292
13150.000000 87.710 -156.4380
13200.000000 87.121 -155.5336
13400.000000 84.754 -149.9043
13600.000000 82.481 -141.7158
13800.000000 80.377 -131.7200
14000.000000 78.473 -120.4602
14300.000000 75.967 -101.9610
14500.000000 74.502 -88.9111
14750.000000 72.883 -72.1208
15000.000000 71.487 -55.0298
15250.000000 70.310 -37.8147
15500.000000 69.371 -20.6596
15750.000000 68.677 -3.6843
16000.000000 68.190 12.9277
16250.000000 67.882 28.9536
16500.000000 67.762 44.1636
16750.000000 67.830 58.2432
17000.000000 68.071 70.7806
17250.000000 68.451 81.2670
17500.000000 68.880 89.1174
17750.000000 69.191 93.9331
18000.000000 69.177 95.9735
18250.000000 68.691 96.4891
18500.000000 67.747 97.2706
18750.000000 66.505 99.8122
19000.000000 65.078 105.0013
19250.000000 63.409 113.2602
19500.000000 61.365 124.8086
19750.000000 58.931 138.8784
20000.000000 56.237 143.5063
20300.000000 52.979 20.8740
20600.000000 50.967 91.9464
20900.000000 52.616 -71.8691
21200.000000 55.324 108.8372
21400.000000 55.972 176.7271
21800.000000 54.202 -169.3232
22000.000000 52.266 89.6387
22400.000000 48.204 -110.2305
22700.000000 48.701 54.5391
23000.000000 51.301 61.4453
23300.000000 53.569 -26.8047
23600.000000 55.362 -64.8750
24000.000000 56.890 37.2812
