* Measurement data measured by REW V5.20.13
* Source: Headset (DS by VECLAN.COM), MICROPHONE (Master Volume), L, volume: 0.600. Timing signal peak level -10.7 dBFS, measurement signal peak level -9.1 dBFS
* Format: 2M Log Swept Sine, 1 sweep at -12.0 dBFS using an acoustic timing reference
* Dated: Oct 15, 2023 7:54:19 PM
* REW Settings:
*  C-weighting compensation: Off
*  Target level: 75.0 dB
* Note: ; Delay -0.0750 ms (-26 mm, -1.01 in) using estimated IR delay relative to Acoustic reference played from HEADPHONE L with no timing offset
* Measurement: HZSound HeartMirror L
* Smoothing: 1/24 octave
* Frequency Step: 1/48 octave
* Start Frequency: 1.000 Hz
*
* Freq(Hz) SPL(dB) Phase(degrees)
1.000000 73.897 -107.1572
1.015000 73.948 -107.3685
1.030000 73.991 -107.5559
1.044000 74.025 -107.7071
1.060000 74.056 -107.8494
1.075000 74.077 -107.9508
1.090000 74.090 -108.0188
1.106000 74.094 -108.0564
1.120000 74.090 -108.0836
1.138000 74.072 -108.1149
1.150000 74.054 -108.1317
1.172000 74.008 -108.1499
1.180000 73.987 -108.1513
1.206000 73.905 -108.1310
1.220000 73.853 -108.1014
1.241000 73.765 -108.0273
1.250000 73.723 -107.9833
1.265000 73.651 -107.8918
1.280000 73.573 -107.7758
1.315000 73.375 -107.3962
1.320000 73.345 -107.3284
1.340000 73.222 -107.0194
1.360000 73.093 -106.6463
1.380000 72.961 -106.2037
1.400000 72.826 -105.6862
1.430000 72.619 -104.7577
1.450000 72.480 -104.0293
1.475000 72.303 -102.9840
1.500000 72.097 -101.7687
1.525000 71.861 -100.3940
1.550000 71.601 -98.8765
1.575000 71.324 -97.2330
1.600000 71.035 -95.4803
1.625000 70.743 -93.6350
1.650000 70.453 -91.7138
1.675000 70.172 -89.7336
1.700000 69.906 -87.7110
1.725000 69.662 -85.6629
1.750000 69.447 -83.6058
1.775000 69.267 -81.5566
1.800000 69.129 -79.5319
1.825000 69.039 -77.5486
1.850000 68.998 -75.5609
1.875000 68.995 -73.4429
1.900000 69.026 -71.2167
1.925000 69.087 -68.9105
1.950000 69.177 -66.5527
1.975000 69.292 -64.1718
2.000000 69.428 -61.7961
2.030000 69.615 -58.9922
2.060000 69.824 -56.2857
2.090000 70.049 -53.7259
2.120000 70.284 -51.3616
2.140000 70.444 -49.9184
2.180000 70.765 -47.4163
2.200000 70.923 -46.3861
2.240000 71.268 -44.6883
2.270000 71.560 -43.6787
2.300000 71.873 -42.8731
2.330000 72.202 -42.2516
2.360000 72.544 -41.7946
2.400000 73.007 -41.4066
2.430000 73.355 -41.2560
2.470000 73.808 -41.2048
2.500000 74.133 -41.2529
2.540000 74.537 -41.3947
2.580000 74.900 -41.6060
2.620000 75.240 -42.0486
2.650000 75.484 -42.5370
2.690000 75.797 -43.3610
2.720000 76.022 -44.0841
2.760000 76.310 -45.1525
2.800000 76.586 -46.2992
2.850000 76.916 -47.7747
2.900000 77.232 -49.2153
2.950000 77.534 -50.5539
3.000000 77.817 -51.9098
3.040000 78.031 -53.0290
3.070000 78.184 -53.8859
3.110000 78.380 -55.0485
3.150000 78.565 -56.2302
3.200000 78.784 -57.7280
3.250000 78.991 -59.2413
3.300000 79.187 -60.7623
3.350000 79.369 -62.3228
3.400000 79.537 -63.9333
3.450000 79.691 -65.5715
3.500000 79.832 -67.2151
3.550000 79.962 -68.8418
3.600000 80.081 -70.4291
3.650000 80.190 -71.9548
3.700000 80.290 -73.4180
3.750000 80.376 -74.8556
3.820000 80.478 -76.8158
3.870000 80.539 -78.1694
3.950000 80.619 -80.2360
4.000000 80.660 -81.4552
4.060000 80.701 -82.8425
4.120000 80.726 -84.1797
4.180000 80.738 -85.4537
4.250000 80.742 -86.8325
4.310000 80.739 -87.8985
4.370000 80.736 -88.8359
4.440000 80.731 -89.7484
4.500000 80.715 -90.3906
4.550000 80.699 -90.8351
4.620000 80.677 -91.3293
4.680000 80.665 -91.6440
4.750000 80.669 -91.8967
4.820000 80.690 -91.9972
4.870000 80.709 -91.9516
4.940000 80.747 -91.7697
5.000000 80.792 -91.5461
5.080000 80.878 -91.2208
5.150000 80.982 -90.9649
5.220000 81.115 -90.6430
5.300000 81.296 -90.2157
5.380000 81.501 -89.8158
5.450000 81.695 -89.5631
5.520000 81.897 -89.4573
5.600000 82.153 -89.4468
5.700000 82.500 -89.5880
5.800000 82.851 -89.9364
5.900000 83.186 -90.5329
6.000000 83.519 -91.4015
6.080000 83.781 -92.2492
6.150000 84.001 -93.0685
6.220000 84.205 -93.9324
6.300000 84.421 -94.9966
6.400000 84.671 -96.4746
6.500000 84.896 -98.0314
6.600000 85.092 -99.5754
6.700000 85.258 -101.1373
6.800000 85.396 -102.7244
6.900000 85.510 -104.2584
7.000000 85.603 -105.6740
7.100000 85.669 -107.0183
7.200000 85.715 -108.2728
7.300000 85.751 -109.3957
7.400000 85.778 -110.3601
7.500000 85.790 -111.1863
7.620000 85.800 -112.0107
7.750000 85.821 -112.7043
7.880000 85.847 -113.1569
8.000000 85.882 -113.4497
8.120000 85.937 -113.6965
8.250000 86.018 -113.8542
8.380000 86.115 -113.9998
8.500000 86.217 -114.2059
8.620000 86.334 -114.4420
8.750000 86.465 -114.7589
8.850000 86.561 -115.0702
9.000000 86.707 -115.6415
9.120000 86.817 -116.1414
9.250000 86.923 -116.7035
9.380000 87.018 -117.3032
9.500000 87.097 -117.8321
9.620000 87.165 -118.3078
9.750000 87.228 -118.7862
9.880000 87.285 -119.2072
10.000000 87.332 -119.5252
10.150000 87.386 -119.8512
10.300000 87.448 -120.1574
10.440000 87.512 -120.4031
10.600000 87.594 -120.7238
10.750000 87.685 -121.1283
10.900000 87.784 -121.6176
11.060000 87.885 -122.2994
11.200000 87.971 -123.0367
11.380000 88.060 -124.0954
11.500000 88.101 -124.8815
11.720000 88.140 -126.3598
11.800000 88.140 -126.8721
12.060000 88.099 -128.4332
12.200000 88.057 -129.0846
12.410000 87.976 -129.8208
12.500000 87.946 -130.0225
12.650000 87.894 -130.1948
12.800000 87.857 -130.2390
13.150000 87.867 -129.9808
13.200000 87.879 -129.9535
13.400000 87.962 -129.8596
13.600000 88.072 -129.9594
13.800000 88.203 -130.3270
14.000000 88.323 -130.9423
14.300000 88.463 -132.2727
14.500000 88.509 -133.2897
14.750000 88.518 -134.4856
15.000000 88.481 -135.4844
15.250000 88.423 -136.1227
15.500000 88.374 -136.4272
15.750000 88.353 -136.4500
16.000000 88.378 -136.3470
16.250000 88.444 -136.3199
16.500000 88.540 -136.4592
16.750000 88.644 -136.8636
17.000000 88.733 -137.4790
17.250000 88.796 -138.2307
17.500000 88.824 -139.0118
17.750000 88.825 -139.6742
18.000000 88.809 -140.1742
18.250000 88.790 -140.4663
18.500000 88.791 -140.6044
18.750000 88.816 -140.6766
19.000000 88.871 -140.7661
19.250000 88.946 -141.0021
19.500000 89.026 -141.4080
19.750000 89.100 -141.9976
20.000000 89.151 -142.7123
20.299999 89.177 -143.6023
20.600000 89.169 -144.3922
20.900000 89.141 -144.9671
21.200001 89.118 -145.2914
21.400000 89.118 -145.4172
21.799999 89.162 -145.6249
22.000000 89.202 -145.7975
22.400000 89.297 -146.4225
22.700001 89.351 -147.1177
23.000000 89.373 -147.8848
23.299999 89.362 -148.5582
23.600000 89.333 -149.0273
24.000000 89.305 -149.2882
24.299999 89.318 -149.3252
24.700001 89.387 -149.4399
25.000000 89.458 -149.7462
25.400000 89.532 -150.4939
25.799999 89.543 -151.3932
26.200001 89.489 -152.0522
26.500000 89.434 -152.2221
26.900000 89.389 -152.0297
27.200001 89.403 -151.7458
27.600000 89.490 -151.5066
28.000000 89.613 -151.7086
28.500000 89.734 -152.5859
29.000000 89.767 -153.6786
29.500000 89.737 -154.4801
30.000000 89.716 -154.8679
30.400000 89.737 -155.0755
30.700001 89.773 -155.3006
31.100000 89.827 -155.7761
31.500000 89.866 -156.4019
32.000000 89.876 -157.1563
32.500000 89.867 -157.6379
33.000000 89.880 -157.8745
33.500000 89.921 -158.0994
34.000000 89.958 -158.4082
34.500000 89.973 -158.6059
35.000000 89.996 -158.5354
35.500000 90.066 -158.4198
36.000000 90.161 -158.6843
36.500000 90.210 -159.4219
37.000000 90.166 -160.2264
37.500000 90.058 -160.6598
38.200001 89.924 -160.6838
38.700001 89.870 -160.6769
39.500000 89.823 -160.8949
40.000000 89.835 -161.2838
40.599998 89.859 -162.3927
41.200001 89.779 -163.9720
41.799999 89.586 -164.8656
42.500000 89.470 -164.4164
43.099998 89.605 -164.1174
43.700001 89.774 -164.8891
44.400002 89.814 -166.0448
45.000000 89.800 -166.1115
45.500000 89.859 -165.7776
46.200001 90.005 -165.6387
46.799999 90.078 -165.7957
47.500000 90.115 -165.6245
48.200001 90.196 -165.3585
48.700001 90.259 -165.5511
49.400002 90.254 -166.2726
50.000000 90.156 -166.6831
50.799999 90.033 -166.5452
51.500000 90.017 -166.3957
52.200001 90.039 -166.6371
53.000000 90.067 -167.0921
53.799999 90.129 -167.5899
54.500000 90.193 -168.2449
55.200001 90.215 -168.9896
56.000000 90.177 -169.4610
57.000000 90.141 -169.1886
58.000000 90.190 -168.7616
59.000000 90.277 -168.7572
60.000000 90.367 -169.6799
60.799999 90.313 -171.0590
61.500000 90.146 -171.7552
62.200001 90.001 -171.4625
63.000000 90.012 -170.6549
64.000000 90.192 -170.5094
65.000000 90.284 -171.1633
66.000000 90.262 -171.2392
67.000000 90.285 -170.8977
68.000000 90.296 -171.3427
69.000000 90.152 -172.1393
70.000000 89.968 -172.4574
71.000000 89.870 -172.8758
72.000000 89.818 -173.2638
73.000000 89.942 -173.1776
74.000000 90.243 -173.8912
75.000000 90.411 -175.5819
76.199997 90.321 -176.3541
77.500000 90.230 -175.0532
78.800003 90.228 -173.9360
80.000000 90.205 -173.3823
81.199997 90.260 -173.2794
82.500000 90.348 -174.1643
83.800003 90.364 -174.3944
85.000000 90.535 -173.0222
86.199997 91.048 -171.8991
87.500000 91.385 -174.5559
88.500000 91.079 -176.5509
90.000000 90.500 -176.3587
91.199997 90.229 -176.1656
92.500000 90.088 -176.3929
93.800003 90.019 -176.8537
95.000000 90.049 -176.9231
96.199997 90.076 -176.9884
97.500000 90.113 -176.4489
98.800003 90.164 -176.5352
100.000000 90.104 -176.6944
101.500000 90.119 -176.8656
103.000000 90.126 -177.8410
104.400002 90.090 -178.0360
106.000000 90.174 -178.0153
107.500000 90.143 -178.5044
109.000000 90.048 -178.1460
110.599998 90.103 -178.0071
112.000000 90.093 -178.8811
113.800003 89.942 -179.1201
115.000000 89.916 -178.6685
117.199997 90.012 -178.5320
118.000000 90.030 -178.7969
120.599998 89.993 -179.5491
122.000000 89.979 -179.7478
124.099998 89.962 -179.9130
125.000000 89.960 -179.8740
126.500000 89.987 -179.7050
128.000000 90.069 -179.6366
131.500000 90.135 179.4479
132.000000 90.119 179.4184
134.000000 90.065 179.4762
136.000000 90.044 179.5947
138.000000 90.084 179.4507
140.000000 90.088 179.0771
143.000000 90.020 179.2399
145.000000 89.986 179.4087
147.500000 89.951 179.3055
150.000000 89.924 179.0652
152.500000 89.878 178.7042
155.000000 89.842 178.4278
157.500000 89.811 178.0266
160.000000 89.739 177.5333
162.500000 89.590 177.1643
165.000000 89.489 177.4335
167.500000 89.556 177.4201
170.000000 89.653 176.8714
172.500000 89.732 176.5262
175.000000 89.786 176.4758
177.500000 89.760 176.5682
180.000000 89.684 176.8781
182.500000 89.628 177.1347
185.000000 89.593 177.0090
187.500000 89.579 176.7975
190.000000 89.620 176.7952
192.500000 89.638 176.6699
195.000000 89.583 176.2120
197.500000 89.490 175.7539
200.000000 89.396 175.8514
203.000000 89.293 176.0821
206.000000 89.299 175.8990
209.000000 89.332 175.9252
212.000000 89.328 175.7813
214.000000 89.640 174.7724
218.000000 90.907 171.4648
220.000000 90.972 171.2683
224.000000 89.747 175.8977
227.000000 89.117 176.3478
230.000000 89.082 175.3579
233.000000 89.180 175.4465
236.000000 89.182 175.4059
240.000000 89.103 174.9702
243.000000 89.030 174.8607
247.000000 88.953 174.9834
250.000000 88.953 175.2120
254.000000 89.001 175.0936
258.000000 89.010 174.9156
262.000000 88.970 175.0959
265.000000 88.912 175.2950
269.000000 88.824 175.5375
272.000000 88.790 175.5162
276.000000 88.745 175.2250
280.000000 88.769 175.2867
285.000000 89.004 175.1928
290.000000 89.156 176.6112
295.000000 89.084 175.7585
300.000000 88.581 175.3945
304.000000 88.401 175.7248
307.000000 88.327 176.0503
311.000000 88.306 177.0409
315.000000 88.424 177.7668
320.000000 88.572 177.0612
325.000000 88.840 175.3124
330.000000 88.999 173.6992
335.000000 88.540 174.9343
340.000000 88.221 176.5770
345.000000 88.176 176.8093
350.000000 88.144 176.9267
355.000000 88.120 177.1416
360.000000 88.115 177.5476
365.000000 88.089 177.9887
370.000000 88.037 178.1554
375.000000 88.000 178.3118
382.000000 87.937 178.7839
387.000000 87.867 179.0350
395.000000 87.817 179.0898
400.000000 87.818 179.1407
406.000000 87.789 179.5825
412.000000 87.758 179.9074
418.000000 87.749 179.8771
425.000000 87.680 179.9163
431.000000 87.594 179.7935
437.000000 87.488 179.0945
444.000000 87.427 179.7585
450.000000 87.447 -178.8827
455.000000 87.448 -178.2299
462.000000 87.404 -177.8630
468.000000 87.367 -177.6557
475.000000 87.348 -177.0330
482.000000 87.323 -176.5161
487.000000 87.313 -176.1959
494.000000 87.298 -175.7279
500.000000 87.228 -175.5625
508.000000 87.155 -175.4887
515.000000 87.147 -175.1606
522.000000 87.130 -174.5882
530.000000 87.089 -174.0007
538.000000 87.019 -173.4880
545.000000 86.953 -172.8540
552.000000 86.905 -172.2343
560.000000 86.874 -171.6712
570.000000 86.837 -171.2063
580.000000 86.804 -170.5994
590.000000 86.779 -169.8533
600.000000 86.695 -169.1602
608.000000 86.625 -168.6489
615.000000 86.580 -168.2390
622.000000 86.537 -167.6478
630.000000 86.502 -166.4914
640.000000 86.498 -164.6834
650.000000 86.558 -163.8440
660.000000 86.623 -164.1043
670.000000 86.679 -163.8330
680.000000 86.719 -163.0556
690.000000 86.692 -161.9968
700.000000 86.693 -161.2810
710.000000 86.631 -160.7893
720.000000 86.567 -159.9961
730.000000 86.573 -159.1486
740.000000 86.578 -158.2233
750.000000 86.587 -157.2808
762.000000 86.617 -156.2659
775.000000 86.618 -155.1803
788.000000 86.596 -154.0966
800.000000 86.599 -153.0601
812.000000 86.626 -151.9609
825.000000 86.661 -150.7488
838.000000 86.698 -149.5639
850.000000 86.731 -148.4375
862.000000 86.779 -147.3722
875.000000 86.852 -146.2364
885.000000 86.907 -145.2952
900.000000 86.973 -143.8861
912.000000 87.023 -142.7345
925.000000 87.091 -141.5129
938.000000 87.168 -140.3730
950.000000 87.246 -139.3470
962.000000 87.372 -138.3521
975.000000 87.486 -137.3369
988.000000 87.600 -136.0005
1000.000000 87.788 -134.7930
1015.000000 88.000 -133.5311
1030.000000 88.216 -132.5236
1044.000000 88.434 -131.6725
1060.000000 88.671 -130.7570
1075.000000 88.881 -130.1255
1090.000000 89.102 -129.6752
1106.000000 89.352 -129.3575
1120.000000 89.569 -129.2531
1138.000000 89.830 -129.2755
1150.000000 89.993 -129.3155
1172.000000 90.266 -129.4272
1180.000000 90.352 -129.4884
1206.000000 90.594 -129.7855
1220.000000 90.714 -129.9947
1241.000000 90.882 -130.2274
1250.000000 90.953 -130.3090
1265.000000 91.074 -130.4340
1280.000000 91.200 -130.5747
1315.000000 91.456 -130.8007
1320.000000 91.488 -130.8145
1340.000000 91.605 -130.8674
1360.000000 91.699 -130.9205
1380.000000 91.780 -130.9241
1400.000000 91.868 -130.8586
1430.000000 92.030 -130.7861
1450.000000 92.154 -130.7664
1475.000000 92.304 -130.6817
1500.000000 92.448 -130.6055
1525.000000 92.582 -130.5311
1550.000000 92.711 -130.4554
1575.000000 92.847 -130.3902
1600.000000 92.992 -130.3678
1625.000000 93.131 -130.3682
1650.000000 93.259 -130.3289
1675.000000 93.396 -130.3353
1700.000000 93.545 -130.4226
1725.000000 93.680 -130.5180
1750.000000 93.799 -130.6162
1775.000000 93.917 -130.7551
1800.000000 94.046 -130.9372
1825.000000 94.186 -131.1813
1850.000000 94.327 -131.4676
1875.000000 94.465 -131.7819
1900.000000 94.595 -132.1337
1925.000000 94.719 -132.5220
1950.000000 94.838 -132.9625
1975.000000 94.951 -133.4427
2000.000000 95.054 -133.9574
2030.000000 95.161 -134.6130
2060.000000 95.254 -135.2986
2090.000000 95.342 -136.0449
2120.000000 95.422 -136.8380
2140.000000 95.470 -137.3682
2180.000000 95.552 -138.4708
2200.000000 95.583 -139.0344
2240.000000 95.621 -140.1379
2270.000000 95.632 -140.9671
2300.000000 95.631 -141.7741
2330.000000 95.619 -142.5467
2360.000000 95.602 -143.3028
2400.000000 95.569 -144.2691
2430.000000 95.525 -144.9232
2470.000000 95.441 -145.7056
2500.000000 95.368 -146.2352
2540.000000 95.261 -146.8519
2580.000000 95.143 -147.3584
2620.000000 95.017 -147.7453
2650.000000 94.925 -147.9664
2690.000000 94.808 -148.1779
2720.000000 94.718 -148.2649
2760.000000 94.586 -148.2663
2800.000000 94.442 -148.1524
2850.000000 94.252 -147.8416
2900.000000 94.066 -147.3465
2950.000000 93.899 -146.6841
3000.000000 93.756 -145.8668
3040.000000 93.662 -145.1566
3070.000000 93.604 -144.6193
3110.000000 93.538 -143.9137
3150.000000 93.483 -143.2357
3200.000000 93.420 -142.4116
3250.000000 93.353 -141.5742
3300.000000 93.287 -140.6951
3350.000000 93.230 -139.7816
3400.000000 93.177 -138.8086
3450.000000 93.137 -137.7985
3500.000000 93.113 -136.7670
3550.000000 93.095 -135.6958
3600.000000 93.088 -134.6188
3650.000000 93.091 -133.5460
3700.000000 93.094 -132.4445
3750.000000 93.106 -131.3408
3820.000000 93.144 -129.7745
3870.000000 93.185 -128.6378
3950.000000 93.275 -126.8173
4000.000000 93.348 -125.7082
4060.000000 93.453 -124.4394
4120.000000 93.578 -123.2622
4180.000000 93.713 -122.1766
4250.000000 93.885 -121.0420
4310.000000 94.041 -120.2078
4370.000000 94.196 -119.4879
4440.000000 94.388 -118.8388
4500.000000 94.565 -118.4594
4550.000000 94.712 -118.2593
4620.000000 94.919 -118.1863
4680.000000 95.089 -118.3230
4750.000000 95.265 -118.7000
4820.000000 95.419 -119.3131
4870.000000 95.516 -119.8978
4940.000000 95.625 -120.8816
5000.000000 95.689 -121.8506
5080.000000 95.724 -123.2621
5150.000000 95.696 -124.5163
5220.000000 95.620 -125.7207
5300.000000 95.484 -126.9662
5380.000000 95.296 -127.9802
5450.000000 95.101 -128.6414
5520.000000 94.892 -129.0657
5600.000000 94.644 -129.2838
5700.000000 94.329 -129.2317
5800.000000 94.010 -128.7860
5900.000000 93.693 -127.8875
6000.000000 93.401 -126.5942
6080.000000 93.195 -125.3152
6150.000000 93.038 -124.0514
6220.000000 92.902 -122.6775
6300.000000 92.766 -120.9966
6400.000000 92.626 -118.7704
6500.000000 92.547 -116.5010
6600.000000 92.524 -114.2363
6700.000000 92.545 -112.0165
6800.000000 92.620 -109.8872
6900.000000 92.753 -107.8386
7000.000000 92.943 -105.8372
7100.000000 93.195 -103.8788
7200.000000 93.519 -101.9914
7300.000000 93.945 -100.3276
7400.000000 94.490 -99.1999
7500.000000 95.127 -99.0475
7620.000000 95.952 -100.5768
7750.000000 96.796 -104.6028
7880.000000 97.318 -111.0793
8000.000000 97.382 -118.4905
8120.000000 97.014 -125.9674
8250.000000 96.199 -132.6835
8380.000000 95.110 -137.1161
8500.000000 93.993 -139.0871
8620.000000 92.865 -139.2986
8750.000000 91.710 -137.9805
8850.000000 90.892 -136.1193
9000.000000 89.797 -132.3059
9120.000000 89.039 -128.6230
9250.000000 88.332 -124.1770
9380.000000 87.745 -119.4010
9500.000000 87.308 -114.7935
9620.000000 86.963 -110.0645
9750.000000 86.699 -104.8843
9880.000000 86.553 -99.7231
10000.000000 86.518 -95.0474
10150.000000 86.598 -89.4349
10300.000000 86.822 -84.2568
10440.000000 87.173 -80.0618
10600.000000 87.735 -76.4295
10750.000000 88.356 -74.6655
10900.000000 88.944 -74.9890
11060.000000 89.338 -77.6737
11200.000000 89.328 -81.0024
11380.000000 88.796 -83.6644
11500.000000 88.292 -83.0768
11720.000000 87.815 -78.1878
11800.000000 87.893 -76.3698
12060.000000 88.546 -75.3500
12200.000000 88.692 -77.8318
12410.000000 88.327 -81.9839
12500.000000 87.999 -83.0219
12650.000000 87.351 -83.2604
12800.000000 86.710 -81.7369
13150.000000 85.820 -73.8260
13200.000000 85.796 -72.4593
13400.000000 86.030 -67.0964
13600.000000 86.874 -62.9794
13800.000000 88.362 -62.3913
14000.000000 90.105 -69.2487
14300.000000 91.075 -98.3253
14500.000000 89.601 -119.1850
14750.000000 85.972 -130.9770
15000.000000 82.022 -129.7993
15250.000000 78.819 -122.8172
15500.000000 76.500 -113.6018
15750.000000 74.918 -103.6431
16000.000000 73.915 -93.7724
16250.000000 73.436 -84.7801
16500.000000 73.470 -77.8020
16750.000000 73.925 -74.7770
17000.000000 74.439 -78.3763
17250.000000 74.315 -89.2705
17500.000000 72.973 -102.2251
17750.000000 70.443 -109.7972
18000.000000 67.275 -109.7487
18250.000000 64.066 -104.1112
18500.000000 61.197 -95.1775
18750.000000 58.870 -84.2709
19000.000000 57.079 -71.9768
19250.000000 55.537 -58.3855
19500.000000 53.866 -43.1496
19750.000000 51.906 -25.1238
20000.000000 49.754 -2.7256
20300.000000 47.775 29.4681
20600.000000 47.856 57.2368
20900.000000 48.497 64.3482
21200.000000 47.495 26.4675
21400.000000 45.534 -82.9945
21800.000000 38.758 -32.3787
22000.000000 34.246 -130.9167
22400.000000 23.767 24.6201
22700.000000 15.952 2.9180
23000.000000 11.491 153.3047
23300.000000 10.256 165.5039
23600.000000 9.791 -48.0938
24000.000000 9.237 -58.4688
