* Measurement data measured by REW V5.20.13
* Source: Headset (DS by VECLAN.COM), MICROPHONE (Master Volume), L, volume: 0.720. Timing signal peak level -17.1 dBFS, measurement signal peak level -14.7 dBFS
* Format: 2M Log Swept Sine, 1 sweep at -12.0 dBFS using an acoustic timing reference
* Dated: Nov 24, 2023 2:17:02 PM
* REW Settings:
*  C-weighting compensation: Off
*  Target level: 75.0 dB
* Note: ; Delay -0.0604 ms (-21 mm, -0.82 in) using estimated IR delay relative to Acoustic reference played from HEADPHONE L with no timing offset
* Measurement: Intime Sora 1 3.5mm CP145 L
* Smoothing: 1/24 octave
* Frequency Step: 1/48 octave
* Start Frequency: 1.000 Hz
*
* Freq(Hz) SPL(dB) Phase(degrees)
1.000000 84.013 -90.8065
1.015000 84.713 -91.8287
1.030000 85.381 -92.8075
1.044000 85.970 -93.6779
1.060000 86.595 -94.6166
1.075000 87.128 -95.4378
1.090000 87.604 -96.1971
1.106000 88.046 -96.9347
1.120000 88.402 -97.5215
1.138000 88.829 -98.2020
1.150000 89.094 -98.6125
1.172000 89.545 -99.2829
1.180000 89.698 -99.5023
1.206000 90.157 -100.1353
1.220000 90.382 -100.4307
1.241000 90.694 -100.8230
1.250000 90.819 -100.9747
1.265000 91.016 -101.2090
1.280000 91.201 -101.4234
1.315000 91.593 -101.8687
1.320000 91.645 -101.9282
1.340000 91.846 -102.1618
1.360000 92.037 -102.3953
1.380000 92.221 -102.6382
1.400000 92.401 -102.8999
1.430000 92.670 -103.3483
1.450000 92.854 -103.6981
1.475000 93.090 -104.2026
1.500000 93.308 -104.7344
1.525000 93.502 -105.2778
1.550000 93.675 -105.8301
1.575000 93.830 -106.3886
1.600000 93.969 -106.9504
1.625000 94.094 -107.5127
1.650000 94.207 -108.0727
1.675000 94.311 -108.6277
1.700000 94.409 -109.1749
1.725000 94.502 -109.7114
1.750000 94.594 -110.2345
1.775000 94.685 -110.7413
1.800000 94.780 -111.2291
1.825000 94.880 -111.6951
1.850000 94.983 -112.1373
1.875000 95.081 -112.5574
1.900000 95.173 -112.9580
1.925000 95.261 -113.3417
1.950000 95.344 -113.7109
1.975000 95.424 -114.0681
2.000000 95.501 -114.4159
2.030000 95.591 -114.8243
2.060000 95.678 -115.2270
2.090000 95.764 -115.6284
2.120000 95.849 -116.0329
2.140000 95.907 -116.3063
2.180000 96.023 -116.8682
2.200000 96.083 -117.1591
2.240000 96.204 -117.7503
2.270000 96.295 -118.1971
2.300000 96.386 -118.6460
2.330000 96.476 -119.0962
2.360000 96.564 -119.5470
2.400000 96.681 -120.1479
2.430000 96.767 -120.5973
2.470000 96.878 -121.1936
2.500000 96.959 -121.6377
2.540000 97.063 -122.2242
2.580000 97.162 -122.8037
2.620000 97.257 -123.3829
2.650000 97.325 -123.8172
2.690000 97.412 -124.3943
2.720000 97.476 -124.8247
2.760000 97.557 -125.3937
2.800000 97.637 -125.9551
2.850000 97.733 -126.6432
2.900000 97.827 -127.3123
2.950000 97.919 -127.9584
3.000000 98.008 -128.5793
3.040000 98.076 -129.0606
3.070000 98.127 -129.4144
3.110000 98.192 -129.8788
3.150000 98.255 -130.3370
3.200000 98.332 -130.9052
3.250000 98.407 -131.4734
3.300000 98.481 -132.0465
3.350000 98.551 -132.6264
3.400000 98.619 -133.2091
3.450000 98.685 -133.7904
3.500000 98.748 -134.3662
3.550000 98.810 -134.9322
3.600000 98.870 -135.4843
3.650000 98.929 -136.0183
3.700000 98.987 -136.5300
3.750000 99.043 -137.0200
3.820000 99.118 -137.6793
3.870000 99.170 -138.1381
3.950000 99.251 -138.8656
4.000000 99.301 -139.3241
4.060000 99.361 -139.8849
4.120000 99.419 -140.4502
4.180000 99.476 -141.0161
4.250000 99.541 -141.6736
4.310000 99.595 -142.2318
4.370000 99.648 -142.7822
4.440000 99.709 -143.4107
4.500000 99.759 -143.9381
4.550000 99.800 -144.3720
4.620000 99.855 -144.9749
4.680000 99.901 -145.4912
4.750000 99.954 -146.0976
4.820000 100.005 -146.7114
4.870000 100.040 -147.1524
4.940000 100.088 -147.7709
5.000000 100.128 -148.2999
5.080000 100.179 -148.9999
5.150000 100.221 -149.6044
5.220000 100.260 -150.2042
5.300000 100.303 -150.8844
5.380000 100.344 -151.5578
5.450000 100.377 -152.1404
5.520000 100.408 -152.7160
5.600000 100.441 -153.3676
5.700000 100.480 -154.1709
5.800000 100.515 -154.9588
5.900000 100.547 -155.7280
6.000000 100.576 -156.4806
6.080000 100.597 -157.0704
6.150000 100.615 -157.5769
6.220000 100.631 -158.0740
6.300000 100.650 -158.6296
6.400000 100.670 -159.3061
6.500000 100.690 -159.9660
6.600000 100.709 -160.6131
6.700000 100.727 -161.2464
6.800000 100.744 -161.8654
6.900000 100.761 -162.4727
7.000000 100.777 -163.0707
7.100000 100.793 -163.6567
7.200000 100.808 -164.2328
7.300000 100.823 -164.8020
7.400000 100.837 -165.3667
7.500000 100.850 -165.9254
7.620000 100.864 -166.5857
7.750000 100.877 -167.2867
7.880000 100.889 -167.9742
8.000000 100.898 -168.5943
8.120000 100.906 -169.1982
8.250000 100.912 -169.8353
8.380000 100.918 -170.4536
8.500000 100.923 -171.0059
8.620000 100.927 -171.5403
8.750000 100.932 -172.1039
8.850000 100.936 -172.5282
9.000000 100.943 -173.1461
9.120000 100.949 -173.6332
9.250000 100.958 -174.1594
9.380000 100.968 -174.6803
9.500000 100.977 -175.1652
9.620000 100.983 -175.6593
9.750000 100.988 -176.2009
9.880000 100.985 -176.7495
10.000000 100.973 -177.2659
10.150000 100.948 -177.9197
10.300000 100.912 -178.5619
10.440000 100.867 -179.1535
10.600000 100.808 -179.8087
10.750000 100.751 179.6081
10.900000 100.689 179.0517
11.060000 100.623 178.4944
11.200000 100.566 178.0369
11.380000 100.494 177.4916
11.500000 100.447 177.1596
11.720000 100.367 176.5939
11.800000 100.341 176.3978
12.060000 100.267 175.7870
12.200000 100.234 175.4465
12.410000 100.192 174.9214
12.500000 100.174 174.6849
12.650000 100.146 174.2759
12.800000 100.117 173.8530
13.150000 100.040 172.8179
13.200000 100.028 172.6704
13.400000 99.977 172.0784
13.600000 99.924 171.5113
13.800000 99.867 170.9805
14.000000 99.812 170.4880
14.300000 99.732 169.8173
14.500000 99.684 169.4029
14.750000 99.632 168.8869
15.000000 99.590 168.3543
15.250000 99.553 167.7684
15.500000 99.517 167.1357
15.750000 99.475 166.4662
16.000000 99.423 165.7879
16.250000 99.362 165.1365
16.500000 99.292 164.5324
16.750000 99.219 164.0026
17.000000 99.148 163.5486
17.250000 99.083 163.1595
17.500000 99.026 162.8184
17.750000 98.979 162.4882
18.000000 98.940 162.1484
18.250000 98.906 161.7770
18.500000 98.875 161.3621
18.750000 98.842 160.9097
19.000000 98.806 160.4258
19.250000 98.764 159.9329
19.500000 98.716 159.4495
19.750000 98.662 158.9907
20.000000 98.606 158.5726
20.299999 98.537 158.1223
20.600000 98.470 157.7176
20.900000 98.408 157.3379
21.200001 98.350 156.9587
21.400000 98.312 156.6982
21.799999 98.233 156.1626
22.000000 98.192 155.8949
22.400000 98.104 155.3852
22.700001 98.036 155.0444
23.000000 97.971 154.7431
23.299999 97.910 154.4646
23.600000 97.856 154.1881
24.000000 97.790 153.7929
24.299999 97.742 153.4678
24.700001 97.674 153.0097
25.000000 97.620 152.6685
25.400000 97.544 152.2412
25.799999 97.467 151.8546
26.200001 97.394 151.4985
26.500000 97.341 151.2425
26.900000 97.273 150.9084
27.200001 97.224 150.6595
27.600000 97.162 150.3222
28.000000 97.100 149.9666
28.500000 97.020 149.4907
29.000000 96.929 149.0162
29.500000 96.828 148.6107
30.000000 96.727 148.3103
30.400000 96.654 148.1198
30.700001 96.604 147.9797
31.100000 96.543 147.7702
31.500000 96.483 147.5303
32.000000 96.405 147.2129
32.500000 96.324 146.9083
33.000000 96.243 146.6199
33.500000 96.162 146.3353
34.000000 96.082 146.0606
34.500000 96.001 145.8155
35.000000 95.924 145.5993
35.500000 95.852 145.3845
36.000000 95.781 145.1500
36.500000 95.707 144.9071
37.000000 95.630 144.6842
37.500000 95.553 144.4908
38.200001 95.451 144.2359
38.700001 95.380 144.0441
39.500000 95.263 143.7427
40.000000 95.190 143.5765
40.599998 95.105 143.3954
41.200001 95.024 143.2195
41.799999 94.944 143.0430
42.500000 94.852 142.8390
43.099998 94.774 142.6708
43.700001 94.696 142.5159
44.400002 94.607 142.3548
45.000000 94.532 142.2253
45.500000 94.472 142.1143
46.200001 94.388 141.9464
46.799999 94.315 141.7936
47.500000 94.227 141.6259
48.200001 94.139 141.4966
48.700001 94.078 141.4303
49.400002 93.999 141.3514
50.000000 93.935 141.2774
50.799999 93.849 141.1740
51.500000 93.774 141.0959
52.200001 93.699 141.0250
53.000000 93.613 140.9402
53.799999 93.523 140.8596
54.500000 93.441 140.8093
55.200001 93.361 140.7847
56.000000 93.276 140.7648
57.000000 93.176 140.6976
58.000000 93.077 140.5927
59.000000 92.976 140.4780
60.000000 92.870 140.4272
60.799999 92.792 140.4641
61.500000 92.734 140.4888
62.200001 92.676 140.4759
63.000000 92.603 140.4565
64.000000 92.508 140.4658
65.000000 92.415 140.5039
66.000000 92.328 140.5178
67.000000 92.237 140.4682
68.000000 92.138 140.4770
69.000000 92.052 140.5281
70.000000 91.971 140.5421
71.000000 91.890 140.5656
72.000000 91.810 140.6011
73.000000 91.730 140.6506
74.000000 91.651 140.7228
75.000000 91.575 140.7881
76.199997 91.481 140.8489
77.500000 91.378 140.9300
78.800003 91.279 141.0293
80.000000 91.190 141.1217
81.199997 91.101 141.2287
82.500000 91.008 141.3600
83.800003 90.920 141.4939
85.000000 90.841 141.6032
86.199997 90.766 141.7291
87.500000 90.692 141.8643
88.500000 90.635 141.9527
90.000000 90.542 142.1163
91.199997 90.464 142.2593
92.500000 90.377 142.3910
93.800003 90.286 142.5374
95.000000 90.213 142.6906
96.199997 90.148 142.8095
97.500000 90.079 142.9992
98.800003 90.024 143.2971
100.000000 89.985 143.5271
101.500000 89.917 143.6909
103.000000 89.821 143.8380
104.400002 89.726 143.9910
106.000000 89.629 144.1371
107.500000 89.551 144.2961
109.000000 89.489 144.4776
110.599998 89.423 144.7264
112.000000 89.372 144.9659
113.800003 89.294 145.1804
115.000000 89.238 145.3136
117.199997 89.123 145.5159
118.000000 89.083 145.6321
120.599998 88.983 145.9698
122.000000 88.928 146.0842
124.099998 88.838 146.3134
125.000000 88.798 146.4443
126.500000 88.735 146.7006
128.000000 88.676 146.9620
131.500000 88.558 147.5284
132.000000 88.543 147.5778
134.000000 88.475 147.7690
136.000000 88.412 148.0164
138.000000 88.355 148.3052
140.000000 88.301 148.5912
143.000000 88.204 149.0479
145.000000 88.145 149.3711
147.500000 88.077 149.6910
150.000000 88.012 150.0288
152.500000 87.949 150.4087
155.000000 87.882 150.8183
157.500000 87.817 151.1849
160.000000 87.752 151.4820
162.500000 87.692 151.8167
165.000000 87.638 152.1882
167.500000 87.576 152.5485
170.000000 87.507 152.8807
172.500000 87.443 153.1977
175.000000 87.394 153.5651
177.500000 87.347 153.9355
180.000000 87.292 154.3217
182.500000 87.233 154.6896
185.000000 87.175 155.0479
187.500000 87.121 155.3903
190.000000 87.073 155.7264
192.500000 87.033 156.0951
195.000000 86.995 156.5057
197.500000 86.954 156.8907
200.000000 86.912 157.2080
203.000000 86.861 157.5355
206.000000 86.815 157.8776
209.000000 86.771 158.2232
212.000000 86.725 158.6087
214.000000 86.695 158.8848
218.000000 86.638 159.4442
220.000000 86.611 159.7042
224.000000 86.555 160.1945
227.000000 86.514 160.5590
230.000000 86.477 160.9237
233.000000 86.440 161.2899
236.000000 86.403 161.6585
240.000000 86.356 162.1719
243.000000 86.324 162.5557
247.000000 86.282 163.0234
250.000000 86.251 163.3590
254.000000 86.208 163.8174
258.000000 86.166 164.2949
262.000000 86.131 164.7843
265.000000 86.107 165.1524
269.000000 86.077 165.6152
272.000000 86.056 165.9435
276.000000 86.029 166.3721
280.000000 86.000 166.8068
285.000000 85.964 167.3691
290.000000 85.932 167.9141
295.000000 85.903 168.4697
300.000000 85.876 169.0128
304.000000 85.853 169.4467
307.000000 85.836 169.7725
311.000000 85.818 170.2025
315.000000 85.802 170.6264
320.000000 85.783 171.1370
325.000000 85.761 171.6447
330.000000 85.742 172.1438
335.000000 85.724 172.6357
340.000000 85.703 173.1503
345.000000 85.681 173.6591
350.000000 85.662 174.1454
355.000000 85.648 174.5996
360.000000 85.634 175.0627
365.000000 85.619 175.5461
370.000000 85.603 176.0294
375.000000 85.587 176.4963
382.000000 85.566 177.1342
387.000000 85.553 177.6022
395.000000 85.531 178.3267
400.000000 85.518 178.7495
406.000000 85.503 179.2584
412.000000 85.491 179.7805
418.000000 85.478 -179.6982
425.000000 85.463 -179.0979
431.000000 85.451 -178.5838
437.000000 85.441 -178.0703
444.000000 85.430 -177.4813
450.000000 85.422 -176.9897
455.000000 85.415 -176.5884
462.000000 85.407 -176.0309
468.000000 85.400 -175.5481
475.000000 85.393 -174.9816
482.000000 85.385 -174.4241
487.000000 85.381 -174.0311
494.000000 85.379 -173.4811
500.000000 85.378 -173.0133
508.000000 85.378 -172.4002
515.000000 85.379 -171.8746
522.000000 85.379 -171.3455
530.000000 85.378 -170.7306
538.000000 85.380 -170.1194
545.000000 85.384 -169.5984
552.000000 85.389 -169.0837
560.000000 85.396 -168.4955
570.000000 85.403 -167.7572
580.000000 85.409 -167.0199
590.000000 85.418 -166.3013
600.000000 85.429 -165.5898
608.000000 85.436 -165.0090
615.000000 85.440 -164.4930
622.000000 85.444 -163.9807
630.000000 85.448 -163.4049
640.000000 85.455 -162.6937
650.000000 85.465 -161.9862
660.000000 85.474 -161.2761
670.000000 85.486 -160.5595
680.000000 85.501 -159.8542
690.000000 85.519 -159.1579
700.000000 85.536 -158.4593
710.000000 85.553 -157.7490
720.000000 85.571 -157.0345
730.000000 85.592 -156.3315
740.000000 85.618 -155.6414
750.000000 85.646 -154.9500
762.000000 85.681 -154.1153
775.000000 85.717 -153.2104
788.000000 85.757 -152.2900
800.000000 85.805 -151.4518
812.000000 85.870 -150.7080
825.000000 85.939 -150.1873
838.000000 85.948 -149.7713
850.000000 85.920 -149.0649
862.000000 85.911 -148.0141
875.000000 85.959 -146.7917
885.000000 86.020 -146.0087
900.000000 86.111 -145.0529
912.000000 86.176 -144.3586
925.000000 86.243 -143.6194
938.000000 86.310 -142.8937
950.000000 86.372 -142.2468
962.000000 86.433 -141.6195
975.000000 86.499 -140.9600
988.000000 86.564 -140.3209
1000.000000 86.625 -139.7475
1015.000000 86.702 -139.0570
1030.000000 86.776 -138.3982
1044.000000 86.844 -137.8102
1060.000000 86.922 -137.1632
1075.000000 86.995 -136.5817
1090.000000 87.073 -136.0244
1106.000000 87.162 -135.4535
1120.000000 87.241 -134.9686
1138.000000 87.339 -134.3631
1150.000000 87.402 -133.9720
1172.000000 87.514 -133.2762
1180.000000 87.554 -133.0259
1206.000000 87.685 -132.2275
1220.000000 87.757 -131.8083
1241.000000 87.864 -131.1765
1250.000000 87.908 -130.9014
1265.000000 87.980 -130.4458
1280.000000 88.051 -129.9962
1315.000000 88.214 -128.9321
1320.000000 88.236 -128.7773
1340.000000 88.317 -128.1556
1360.000000 88.378 -127.5281
1380.000000 88.439 -126.8926
1400.000000 88.514 -126.2488
1430.000000 88.635 -125.2698
1450.000000 88.715 -124.6063
1475.000000 88.818 -123.7655
1500.000000 88.924 -122.9218
1525.000000 89.030 -122.0722
1550.000000 89.131 -121.2081
1575.000000 89.232 -120.3376
1600.000000 89.337 -119.4801
1625.000000 89.448 -118.6269
1650.000000 89.563 -117.7755
1675.000000 89.682 -116.9367
1700.000000 89.803 -116.0990
1725.000000 89.927 -115.2697
1750.000000 90.054 -114.4538
1775.000000 90.184 -113.6547
1800.000000 90.317 -112.8704
1825.000000 90.453 -112.1022
1850.000000 90.591 -111.3513
1875.000000 90.733 -110.6174
1900.000000 90.878 -109.9012
1925.000000 91.026 -109.2023
1950.000000 91.179 -108.5218
1975.000000 91.342 -107.8679
2000.000000 91.513 -107.2355
2030.000000 91.722 -106.4916
2060.000000 91.937 -105.7954
2090.000000 92.162 -105.1866
2120.000000 92.396 -104.7009
2140.000000 92.556 -104.4518
2180.000000 92.879 -104.1297
2200.000000 93.038 -104.0488
2240.000000 93.346 -104.0215
2270.000000 93.569 -104.1107
2300.000000 93.786 -104.2896
2330.000000 93.997 -104.5595
2360.000000 94.202 -104.9217
2400.000000 94.465 -105.5501
2430.000000 94.652 -106.1280
2470.000000 94.879 -107.0292
2500.000000 95.031 -107.7941
2540.000000 95.210 -108.9147
2580.000000 95.361 -110.1310
2620.000000 95.481 -111.4065
2650.000000 95.550 -112.3811
2690.000000 95.615 -113.6922
2720.000000 95.644 -114.6794
2760.000000 95.653 -115.9824
2800.000000 95.627 -117.2427
2850.000000 95.548 -118.7005
2900.000000 95.416 -119.9098
2950.000000 95.243 -120.6565
3000.000000 95.087 -120.8590
3040.000000 95.015 -120.9571
3070.000000 94.971 -121.1945
3110.000000 94.882 -121.6643
3150.000000 94.751 -122.0698
3200.000000 94.556 -122.2743
3250.000000 94.358 -122.1425
3300.000000 94.171 -121.7519
3350.000000 94.000 -121.1721
3400.000000 93.849 -120.4613
3450.000000 93.720 -119.6651
3500.000000 93.610 -118.8124
3550.000000 93.513 -117.9141
3600.000000 93.427 -116.9708
3650.000000 93.351 -115.9846
3700.000000 93.287 -114.9574
3750.000000 93.232 -113.8927
3820.000000 93.172 -112.3592
3870.000000 93.142 -111.2520
3950.000000 93.114 -109.4749
4000.000000 93.111 -108.3684
4060.000000 93.125 -107.0540
4120.000000 93.156 -105.7637
4180.000000 93.207 -104.5250
4250.000000 93.291 -103.1936
4310.000000 93.379 -102.1881
4370.000000 93.475 -101.3393
4440.000000 93.593 -100.5866
4500.000000 93.695 -100.1743
4550.000000 93.776 -100.0006
4620.000000 93.872 -100.0050
4680.000000 93.932 -100.2094
4750.000000 93.970 -100.6359
4820.000000 93.969 -101.2086
4870.000000 93.941 -101.6799
4940.000000 93.865 -102.3939
5000.000000 93.764 -103.0250
5080.000000 93.577 -103.8343
5150.000000 93.366 -104.4477
5220.000000 93.111 -104.9045
5300.000000 92.772 -105.1609
5380.000000 92.393 -105.0785
5450.000000 92.037 -104.7002
5520.000000 91.668 -104.0255
5600.000000 91.239 -102.8908
5700.000000 90.701 -100.9403
5800.000000 90.190 -98.4597
5900.000000 89.717 -95.5030
6000.000000 89.286 -92.1288
6080.000000 88.974 -89.1703
6150.000000 88.727 -86.4151
6220.000000 88.506 -83.5187
6300.000000 88.287 -80.0518
6400.000000 88.065 -75.4933
6500.000000 87.906 -70.6820
6600.000000 87.820 -65.6558
6700.000000 87.805 -60.4355
6800.000000 87.880 -54.8846
6900.000000 88.127 -48.9172
7000.000000 88.645 -42.8493
7100.000000 89.447 -37.6991
7200.000000 90.360 -34.4707
7300.000000 91.204 -32.8416
7400.000000 91.990 -31.7905
7500.000000 92.833 -31.0354
7620.000000 94.030 -31.2859
7750.000000 95.464 -34.6338
7880.000000 96.631 -42.8938
8000.000000 97.074 -54.7307
8120.000000 96.661 -67.6085
8250.000000 95.342 -78.2914
8380.000000 93.528 -83.6048
8500.000000 91.780 -84.4402
8620.000000 90.154 -82.6060
8750.000000 88.596 -78.6690
8850.000000 87.548 -74.6976
9000.000000 86.216 -67.7329
9120.000000 85.352 -61.7443
9250.000000 84.570 -55.1940
9380.000000 83.887 -48.5452
9500.000000 83.331 -42.2009
9620.000000 82.860 -35.6749
9750.000000 82.454 -28.5273
9880.000000 82.129 -21.3942
10000.000000 81.865 -14.5784
10150.000000 81.668 -5.2686
10300.000000 81.738 4.0482
10440.000000 81.955 12.1418
10600.000000 82.338 21.0300
10750.000000 82.867 29.0937
10900.000000 83.608 36.7168
11060.000000 84.683 44.0253
11200.000000 85.915 49.2282
11380.000000 87.927 52.8505
11500.000000 89.429 51.8691
11720.000000 91.630 38.7629
11800.000000 91.948 30.5030
12060.000000 90.540 4.8296
12200.000000 88.622 -1.1569
12410.000000 85.414 0.2705
12500.000000 84.154 3.3995
12650.000000 82.339 10.6605
12800.000000 80.903 19.6684
13150.000000 79.027 43.8232
13200.000000 78.924 47.2728
13400.000000 78.831 60.1247
13600.000000 79.038 70.9758
13800.000000 79.322 80.1612
14000.000000 79.614 88.5998
14300.000000 80.169 101.2188
14500.000000 80.746 109.7274
14750.000000 81.848 119.8553
15000.000000 83.484 128.1534
15250.000000 85.625 132.3087
15500.000000 87.826 128.8939
15750.000000 89.138 116.3251
16000.000000 88.850 101.3082
16250.000000 87.248 94.8362
16500.000000 85.766 100.4735
16750.000000 86.422 108.4488
17000.000000 87.828 103.7206
17250.000000 88.149 88.4906
17500.000000 87.140 71.0157
17750.000000 84.788 58.7415
18000.000000 81.499 56.0042
18250.000000 78.004 61.3187
18500.000000 74.923 71.4783
18750.000000 72.594 84.2680
19000.000000 71.034 98.5844
19250.000000 69.958 113.9461
19500.000000 69.038 129.9201
19750.000000 68.187 146.2264
20000.000000 67.446 162.7147
20300.000000 66.868 -177.3829
20600.000000 66.877 -157.3685
20900.000000 67.617 -137.8984
21200.000000 69.184 -120.7087
21400.000000 70.539 -112.5678
21800.000000 72.511 -131.0659
22000.000000 72.303 136.0702
22400.000000 68.670 -31.8217
22700.000000 63.540 108.7720
23000.000000 57.173 35.1367
23300.000000 53.539 -138.1875
23600.000000 54.777 139.4297
24000.000000 55.671 39.1562
