* Measurement data measured by REW V5.20.13
* Source: Headset (DS by VECLAN.COM), MICROPHONE (Master Volume), L, volume: 0.720. Timing signal peak level -15.7 dBFS, measurement signal peak level -15.4 dBFS
* Format: 2M Log Swept Sine, 1 sweep at -12.0 dBFS using an acoustic timing reference
* Dated: Nov 24, 2023 2:46:01 PM
* REW Settings:
*  C-weighting compensation: Off
*  Target level: 75.0 dB
* Note: ; Delay -0.0672 ms (-23 mm, -0.91 in) using estimated IR delay relative to Acoustic reference played from HEADPHONE L with no timing offset
* Measurement: Intime Sora TI3 CP145 L
* Smoothing: 1/24 octave
* Frequency Step: 1/48 octave
* Start Frequency: 1.000 Hz
*
* Freq(Hz) SPL(dB) Phase(degrees)
1.000000 83.227 87.9360
1.015000 83.443 88.6439
1.030000 83.657 89.2840
1.044000 83.855 89.8163
1.060000 84.078 90.3431
1.075000 84.285 90.7533
1.090000 84.489 91.0782
1.106000 84.703 91.3212
1.120000 84.891 91.4198
1.138000 85.135 91.3945
1.150000 85.298 91.2900
1.172000 85.597 90.9341
1.180000 85.706 90.7567
1.206000 86.059 90.0263
1.220000 86.248 89.5479
1.241000 86.531 88.7395
1.250000 86.651 88.3652
1.265000 86.849 87.7118
1.280000 87.046 87.0294
1.315000 87.494 85.3774
1.320000 87.556 85.1397
1.340000 87.803 84.1985
1.360000 88.043 83.2892
1.380000 88.275 82.4342
1.400000 88.498 81.6558
1.430000 88.816 80.6803
1.450000 89.015 80.1905
1.475000 89.247 79.7869
1.500000 89.463 79.5387
1.525000 89.663 79.4079
1.550000 89.849 79.3765
1.575000 90.022 79.4267
1.600000 90.184 79.5402
1.625000 90.335 79.6992
1.650000 90.477 79.8857
1.675000 90.612 80.0815
1.700000 90.741 80.2688
1.725000 90.864 80.4295
1.750000 90.984 80.5455
1.775000 91.101 80.5990
1.800000 91.217 80.5718
1.825000 91.334 80.4460
1.850000 91.449 80.2186
1.875000 91.555 79.9209
1.900000 91.655 79.5629
1.925000 91.748 79.1535
1.950000 91.835 78.7011
1.975000 91.918 78.2146
2.000000 91.997 77.7027
2.030000 92.088 77.0670
2.060000 92.176 76.4222
2.090000 92.264 75.7833
2.120000 92.352 75.1654
2.140000 92.411 74.7726
2.180000 92.535 74.0527
2.200000 92.601 73.7343
2.240000 92.734 73.1467
2.270000 92.836 72.7322
2.300000 92.938 72.3365
2.330000 93.040 71.9565
2.360000 93.142 71.5889
2.400000 93.276 71.1125
2.430000 93.375 70.7612
2.470000 93.504 70.2948
2.500000 93.597 69.9423
2.540000 93.717 69.4624
2.580000 93.831 68.9670
2.620000 93.940 68.4734
2.650000 94.018 68.1063
2.690000 94.118 67.6192
2.720000 94.191 67.2542
2.760000 94.286 66.7662
2.800000 94.377 66.2745
2.850000 94.489 65.6508
2.900000 94.598 65.0129
2.950000 94.706 64.3542
3.000000 94.811 63.6588
3.040000 94.893 63.0827
3.070000 94.953 62.6443
3.110000 95.031 62.0578
3.150000 95.107 61.4763
3.200000 95.199 60.7687
3.250000 95.289 60.0969
3.300000 95.377 59.4765
3.350000 95.461 58.9169
3.400000 95.543 58.4065
3.450000 95.622 57.9294
3.500000 95.698 57.4700
3.550000 95.772 57.0123
3.600000 95.844 56.5406
3.650000 95.913 56.0391
3.700000 95.981 55.4962
3.750000 96.046 54.9211
3.820000 96.133 54.0860
3.870000 96.192 53.4853
3.950000 96.284 52.5518
4.000000 96.340 52.0053
4.060000 96.406 51.4057
4.120000 96.470 50.8598
4.180000 96.532 50.3509
4.250000 96.602 49.7821
4.310000 96.660 49.2975
4.370000 96.716 48.7986
4.440000 96.779 48.1824
4.500000 96.830 47.6354
4.550000 96.871 47.1740
4.620000 96.926 46.5303
4.680000 96.972 45.9908
4.750000 97.024 45.3891
4.820000 97.075 44.8243
4.870000 97.111 44.4380
4.940000 97.159 43.9151
5.000000 97.199 43.4782
5.080000 97.251 42.9034
5.150000 97.294 42.4000
5.220000 97.336 41.8988
5.300000 97.381 41.3335
5.380000 97.425 40.7792
5.450000 97.463 40.3058
5.520000 97.500 39.8455
5.600000 97.542 39.3352
5.700000 97.593 38.7174
5.800000 97.643 38.1172
5.900000 97.692 37.5310
6.000000 97.740 36.9648
6.080000 97.778 36.5225
6.150000 97.810 36.1393
6.220000 97.843 35.7566
6.300000 97.880 35.3191
6.400000 97.926 34.7765
6.500000 97.971 34.2394
6.600000 98.015 33.7089
6.700000 98.059 33.1870
6.800000 98.101 32.6720
6.900000 98.142 32.1596
7.000000 98.182 31.6458
7.100000 98.220 31.1295
7.200000 98.257 30.6155
7.300000 98.293 30.1087
7.400000 98.326 29.6118
7.500000 98.358 29.1221
7.620000 98.394 28.5449
7.750000 98.431 27.9338
7.880000 98.465 27.3369
8.000000 98.496 26.7990
8.120000 98.526 26.2755
8.250000 98.558 25.7258
8.380000 98.588 25.1871
8.500000 98.617 24.6950
8.620000 98.645 24.2112
8.750000 98.675 23.6894
8.850000 98.697 23.2857
9.000000 98.729 22.6795
9.120000 98.754 22.1938
9.250000 98.778 21.6651
9.380000 98.802 21.1341
9.500000 98.819 20.6479
9.620000 98.831 20.1654
9.750000 98.838 19.6461
9.880000 98.836 19.1455
10.000000 98.825 18.7029
10.150000 98.798 18.1746
10.300000 98.765 17.6950
10.440000 98.724 17.2946
10.600000 98.676 16.8821
10.750000 98.637 16.5408
10.900000 98.600 16.2364
11.060000 98.569 15.9176
11.200000 98.548 15.6490
11.380000 98.528 15.2929
11.500000 98.517 15.0445
11.720000 98.504 14.5617
11.800000 98.500 14.3721
12.060000 98.489 13.7150
12.200000 98.482 13.3391
12.410000 98.468 12.7566
12.500000 98.460 12.5150
12.650000 98.443 12.1164
12.800000 98.424 11.7369
13.150000 98.375 10.9626
13.200000 98.369 10.8625
13.400000 98.347 10.4943
13.600000 98.332 10.1461
13.800000 98.325 9.8112
14.000000 98.324 9.4536
14.300000 98.330 8.8606
14.500000 98.332 8.4153
14.750000 98.331 7.8263
15.000000 98.323 7.2158
15.250000 98.309 6.6215
15.500000 98.290 6.0718
15.750000 98.268 5.5794
16.000000 98.247 5.1494
16.250000 98.230 4.7577
16.500000 98.217 4.3915
16.750000 98.209 4.0325
17.000000 98.205 3.6739
17.250000 98.203 3.3153
17.500000 98.203 2.9583
17.750000 98.205 2.6037
18.000000 98.208 2.2461
18.250000 98.212 1.8789
18.500000 98.217 1.4900
18.750000 98.220 1.0796
19.000000 98.220 0.6480
19.250000 98.214 0.2122
19.500000 98.202 -0.2071
19.750000 98.184 -0.5936
20.000000 98.164 -0.9270
20.299999 98.141 -1.2638
20.600000 98.125 -1.5514
20.900000 98.118 -1.8259
21.200001 98.118 -2.1292
21.400000 98.119 -2.3613
21.799999 98.119 -2.8924
22.000000 98.115 -3.1815
22.400000 98.097 -3.7690
22.700001 98.076 -4.1870
23.000000 98.053 -4.5709
23.299999 98.030 -4.9293
23.600000 98.008 -5.2763
24.000000 97.981 -5.7396
24.299999 97.959 -6.0874
24.700001 97.925 -6.5272
25.000000 97.897 -6.8141
25.400000 97.863 -7.1230
25.799999 97.841 -7.3780
26.200001 97.834 -7.6551
26.500000 97.832 -7.9190
26.900000 97.826 -8.3499
27.200001 97.810 -8.6913
27.600000 97.775 -9.0835
28.000000 97.736 -9.3257
28.500000 97.712 -9.4576
29.000000 97.731 -9.6551
29.500000 97.766 -10.1515
30.000000 97.770 -10.9132
30.400000 97.736 -11.5382
30.700001 97.696 -11.9319
31.100000 97.636 -12.3226
31.500000 97.583 -12.5993
32.000000 97.532 -12.8917
32.500000 97.493 -13.1943
33.000000 97.462 -13.5140
33.500000 97.439 -13.8705
34.000000 97.422 -14.3136
34.500000 97.396 -14.8355
35.000000 97.355 -15.3440
35.500000 97.308 -15.7532
36.000000 97.270 -16.0856
36.500000 97.242 -16.4260
37.000000 97.214 -16.8056
37.500000 97.180 -17.1707
38.200001 97.133 -17.5787
38.700001 97.110 -17.8508
39.500000 97.078 -18.3954
40.000000 97.048 -18.7641
40.599998 97.006 -19.1637
41.200001 96.965 -19.5284
41.799999 96.925 -19.8998
42.500000 96.872 -20.3266
43.099998 96.827 -20.6494
43.700001 96.787 -20.9444
44.400002 96.747 -21.3010
45.000000 96.715 -21.6391
45.500000 96.687 -21.9369
46.200001 96.644 -22.3499
46.799999 96.606 -22.6809
47.500000 96.566 -23.0532
48.200001 96.527 -23.4357
48.700001 96.498 -23.7100
49.400002 96.454 -24.0755
50.000000 96.416 -24.3689
50.799999 96.365 -24.7407
51.500000 96.321 -25.0555
52.200001 96.277 -25.3736
53.000000 96.221 -25.7339
53.799999 96.164 -26.0635
54.500000 96.117 -26.3471
55.200001 96.070 -26.6558
56.000000 96.014 -27.0222
57.000000 95.942 -27.4505
58.000000 95.877 -27.8570
59.000000 95.816 -28.3047
60.000000 95.744 -28.7391
60.799999 95.687 -28.9957
61.500000 95.645 -29.1943
62.200001 95.607 -29.4159
63.000000 95.559 -29.6799
64.000000 95.494 -29.9923
65.000000 95.426 -30.3015
66.000000 95.353 -30.5855
67.000000 95.282 -30.8451
68.000000 95.218 -31.1273
69.000000 95.156 -31.4586
70.000000 95.094 -31.8304
71.000000 95.029 -32.2169
72.000000 94.961 -32.5831
73.000000 94.891 -32.8942
74.000000 94.823 -33.1349
75.000000 94.763 -33.3319
76.199997 94.696 -33.5821
77.500000 94.618 -33.8641
78.800003 94.536 -34.1171
80.000000 94.459 -34.3674
81.199997 94.374 -34.6090
82.500000 94.283 -34.7963
83.800003 94.205 -34.9859
85.000000 94.134 -35.2091
86.199997 94.063 -35.4315
87.500000 93.990 -35.6791
88.500000 93.933 -35.8897
90.000000 93.840 -36.1678
91.199997 93.769 -36.3422
92.500000 93.696 -36.5424
93.800003 93.622 -36.7466
95.000000 93.552 -36.9199
96.199997 93.483 -37.0793
97.500000 93.408 -37.2312
98.800003 93.337 -37.3724
100.000000 93.272 -37.5191
101.500000 93.184 -37.7001
103.000000 93.095 -37.8658
104.400002 93.013 -38.0198
106.000000 92.922 -38.1748
107.500000 92.840 -38.2885
109.000000 92.764 -38.3787
110.599998 92.687 -38.5148
112.000000 92.612 -38.6731
113.800003 92.511 -38.8475
115.000000 92.449 -38.9450
117.199997 92.340 -39.0856
118.000000 92.303 -39.1052
120.599998 92.187 -39.2120
122.000000 92.107 -39.2672
124.099998 91.992 -39.2775
125.000000 91.947 -39.3056
126.500000 91.873 -39.3938
128.000000 91.796 -39.4667
131.500000 91.648 -39.5915
132.000000 91.627 -39.6403
134.000000 91.529 -39.7971
136.000000 91.433 -39.8293
138.000000 91.346 -39.8228
140.000000 91.259 -39.7944
143.000000 91.133 -39.7213
145.000000 91.054 -39.7083
147.500000 90.953 -39.7338
150.000000 90.849 -39.7265
152.500000 90.748 -39.7014
155.000000 90.651 -39.6610
157.500000 90.555 -39.6099
160.000000 90.458 -39.5857
162.500000 90.353 -39.5536
165.000000 90.252 -39.4941
167.500000 90.154 -39.4202
170.000000 90.062 -39.2930
172.500000 89.973 -39.2091
175.000000 89.874 -39.1332
177.500000 89.773 -38.9821
180.000000 89.683 -38.7842
182.500000 89.604 -38.6557
185.000000 89.524 -38.5878
187.500000 89.438 -38.5254
190.000000 89.343 -38.4384
192.500000 89.245 -38.2881
195.000000 89.150 -38.1047
197.500000 89.065 -37.9141
200.000000 88.991 -37.7348
203.000000 88.906 -37.5324
206.000000 88.810 -37.3596
209.000000 88.715 -37.2232
212.000000 88.625 -37.0452
214.000000 88.565 -36.8692
218.000000 88.447 -36.4957
220.000000 88.392 -36.3519
224.000000 88.284 -36.0991
227.000000 88.197 -35.9005
230.000000 88.111 -35.6871
233.000000 88.029 -35.4561
236.000000 87.948 -35.1962
240.000000 87.843 -34.8095
243.000000 87.767 -34.5330
247.000000 87.667 -34.2140
250.000000 87.599 -34.0040
254.000000 87.506 -33.6837
258.000000 87.402 -33.3023
262.000000 87.309 -32.9234
265.000000 87.243 -32.6216
269.000000 87.149 -32.2346
272.000000 87.083 -31.9577
276.000000 87.005 -31.5795
280.000000 86.924 -31.1695
285.000000 86.830 -30.5842
290.000000 86.746 -29.9956
295.000000 86.647 -29.4926
300.000000 86.540 -29.0019
304.000000 86.466 -28.6549
307.000000 86.419 -28.3841
311.000000 86.350 -27.9495
315.000000 86.280 -27.5039
320.000000 86.207 -27.0352
325.000000 86.134 -26.5862
330.000000 86.053 -26.0684
335.000000 85.972 -25.5168
340.000000 85.893 -24.8928
345.000000 85.814 -24.3157
350.000000 85.750 -23.8010
355.000000 85.696 -23.2507
360.000000 85.631 -22.6850
365.000000 85.556 -22.1457
370.000000 85.487 -21.6858
375.000000 85.433 -21.1587
382.000000 85.358 -20.3428
387.000000 85.303 -19.7581
395.000000 85.214 -18.8240
400.000000 85.159 -18.2534
406.000000 85.098 -17.5745
412.000000 85.040 -16.8953
418.000000 84.982 -16.1961
425.000000 84.919 -15.4244
431.000000 84.865 -14.8363
437.000000 84.813 -14.1956
444.000000 84.750 -13.3368
450.000000 84.696 -12.6359
455.000000 84.661 -12.0802
462.000000 84.617 -11.3273
468.000000 84.578 -10.6826
475.000000 84.525 -9.9275
482.000000 84.466 -9.1136
487.000000 84.445 -8.5251
494.000000 84.430 -7.5566
500.000000 84.407 -6.6849
508.000000 84.362 -6.0255
515.000000 84.322 -5.4800
522.000000 84.306 -4.6760
530.000000 84.301 -3.7562
538.000000 84.287 -2.8986
545.000000 84.270 -2.1467
552.000000 84.255 -1.3968
560.000000 84.242 -0.5530
570.000000 84.232 0.4885
580.000000 84.226 1.5286
590.000000 84.216 2.5830
600.000000 84.213 3.6230
608.000000 84.218 4.4300
615.000000 84.225 5.1223
622.000000 84.231 5.8100
630.000000 84.239 6.6091
640.000000 84.251 7.6169
650.000000 84.271 8.6158
660.000000 84.299 9.5924
670.000000 84.333 10.4913
680.000000 84.375 11.3632
690.000000 84.424 12.2246
700.000000 84.480 13.0389
710.000000 84.547 13.7464
720.000000 84.624 14.2439
730.000000 84.697 14.4180
740.000000 84.711 14.2345
750.000000 84.607 14.1393
762.000000 84.399 15.1820
775.000000 84.335 17.4161
788.000000 84.444 19.2028
800.000000 84.529 20.1555
812.000000 84.548 21.0701
825.000000 84.563 22.3920
838.000000 84.615 23.8109
850.000000 84.688 25.0113
862.000000 84.768 26.1080
875.000000 84.860 27.2070
885.000000 84.936 27.9900
900.000000 85.053 29.0870
912.000000 85.148 29.8975
925.000000 85.249 30.7375
938.000000 85.349 31.5411
950.000000 85.445 32.2365
962.000000 85.546 32.8862
975.000000 85.655 33.5387
988.000000 85.762 34.1631
1000.000000 85.858 34.7240
1015.000000 85.978 35.3852
1030.000000 86.095 35.9620
1044.000000 86.202 36.4347
1060.000000 86.325 36.9409
1075.000000 86.438 37.3805
1090.000000 86.554 37.7789
1106.000000 86.684 38.1602
1120.000000 86.797 38.4600
1138.000000 86.942 38.8134
1150.000000 87.034 39.0155
1172.000000 87.196 39.3182
1180.000000 87.252 39.4190
1206.000000 87.435 39.7083
1220.000000 87.534 39.8338
1241.000000 87.679 39.9956
1250.000000 87.738 40.0580
1265.000000 87.833 40.1509
1280.000000 87.925 40.2314
1315.000000 88.125 40.3742
1320.000000 88.152 40.3901
1340.000000 88.250 40.4411
1360.000000 88.323 40.4833
1380.000000 88.390 40.5192
1400.000000 88.465 40.5499
1430.000000 88.578 40.5767
1450.000000 88.648 40.5899
1475.000000 88.726 40.6140
1500.000000 88.794 40.6375
1525.000000 88.856 40.6607
1550.000000 88.911 40.6880
1575.000000 88.957 40.7197
1600.000000 88.996 40.7590
1625.000000 89.029 40.8051
1650.000000 89.055 40.8788
1675.000000 89.077 40.9646
1700.000000 89.094 41.0600
1725.000000 89.104 41.1819
1750.000000 89.109 41.3245
1775.000000 89.111 41.4869
1800.000000 89.111 41.6638
1825.000000 89.109 41.8615
1850.000000 89.103 42.0915
1875.000000 89.092 42.3412
1900.000000 89.077 42.6095
1925.000000 89.062 42.9176
1950.000000 89.047 43.2845
1975.000000 89.030 43.6783
2000.000000 89.010 44.0872
2030.000000 88.987 44.6471
2060.000000 88.964 45.2922
2090.000000 88.950 46.0199
2120.000000 88.953 46.7994
2140.000000 88.966 47.3166
2180.000000 89.008 48.2892
2200.000000 89.032 48.7199
2240.000000 89.076 49.4803
2270.000000 89.102 49.9979
2300.000000 89.122 50.4934
2330.000000 89.139 50.9929
2360.000000 89.153 51.5123
2400.000000 89.169 52.2424
2430.000000 89.181 52.8174
2470.000000 89.198 53.6097
2500.000000 89.215 54.2193
2540.000000 89.243 55.0342
2580.000000 89.278 55.8503
2620.000000 89.318 56.6685
2650.000000 89.351 57.2749
2690.000000 89.396 58.0770
2720.000000 89.431 58.6618
2760.000000 89.483 59.4092
2800.000000 89.538 60.1164
2850.000000 89.612 60.9502
2900.000000 89.686 61.7339
2950.000000 89.758 62.4654
3000.000000 89.829 63.1405
3040.000000 89.888 63.6361
3070.000000 89.932 63.9828
3110.000000 89.991 64.4168
3150.000000 90.048 64.8344
3200.000000 90.117 65.3425
3250.000000 90.192 65.7870
3300.000000 90.270 66.1345
3350.000000 90.348 66.3531
3400.000000 90.423 66.4249
3450.000000 90.484 66.3714
3500.000000 90.527 66.2195
3550.000000 90.554 66.0009
3600.000000 90.563 65.7326
3650.000000 90.545 65.4625
3700.000000 90.498 65.2125
3750.000000 90.427 64.9917
3820.000000 90.289 64.8036
3870.000000 90.164 64.7921
3950.000000 89.935 65.0444
4000.000000 89.783 65.3776
4060.000000 89.599 65.9361
4120.000000 89.415 66.6260
4180.000000 89.231 67.4169
4250.000000 89.014 68.4562
4310.000000 88.822 69.4713
4370.000000 88.627 70.5970
4440.000000 88.402 72.0281
4500.000000 88.213 73.3329
4550.000000 88.057 74.4661
4620.000000 87.841 76.1118
4680.000000 87.661 77.5711
4750.000000 87.457 79.3395
4820.000000 87.254 81.2057
4870.000000 87.108 82.6160
4940.000000 86.906 84.7131
5000.000000 86.740 86.6211
5080.000000 86.537 89.2978
5150.000000 86.379 91.7383
5220.000000 86.238 94.2409
5300.000000 86.101 97.1513
5380.000000 85.986 100.0978
5450.000000 85.898 102.7001
5520.000000 85.823 105.3179
5600.000000 85.749 108.3359
5700.000000 85.677 112.1593
5800.000000 85.626 116.0513
5900.000000 85.600 120.0388
6000.000000 85.606 124.1263
6080.000000 85.636 127.4560
6150.000000 85.684 130.4016
6220.000000 85.750 133.3686
6300.000000 85.848 136.7753
6400.000000 86.002 141.0592
6500.000000 86.185 145.4442
6600.000000 86.419 150.1093
6700.000000 86.772 155.0564
6800.000000 87.279 159.7600
6900.000000 87.896 163.8943
7000.000000 88.592 167.6296
7100.000000 89.374 171.0594
7200.000000 90.264 174.0663
7300.000000 91.278 176.4249
7400.000000 92.409 177.8426
7500.000000 93.638 177.9751
7620.000000 95.199 175.8395
7750.000000 96.805 169.9468
7880.000000 97.967 160.1339
8000.000000 98.446 148.7103
8120.000000 98.311 137.2310
8250.000000 97.623 127.0060
8380.000000 96.648 119.8567
8500.000000 95.701 115.4799
8620.000000 94.810 112.4068
8750.000000 93.920 109.7176
8850.000000 93.269 107.7119
9000.000000 92.274 104.4952
9120.000000 91.394 101.7936
9250.000000 90.297 99.0709
9380.000000 89.036 97.0353
9500.000000 87.747 96.1364
9620.000000 86.376 96.3891
9750.000000 84.851 98.0175
9880.000000 83.342 100.9713
10000.000000 81.992 104.7413
10150.000000 80.386 110.6615
10300.000000 78.884 117.7069
10440.000000 77.587 125.1281
10600.000000 76.240 134.4631
10750.000000 75.117 143.9414
10900.000000 74.136 154.0579
11060.000000 73.264 165.4480
11200.000000 72.664 175.7559
11380.000000 72.116 -170.7676
11500.000000 71.889 -161.7107
11720.000000 71.792 -145.1341
11800.000000 71.868 -139.2203
12060.000000 72.518 -121.1505
12200.000000 73.086 -112.5027
12410.000000 74.144 -101.3156
12500.000000 74.660 -97.2082
12650.000000 75.598 -91.2838
12800.000000 76.649 -86.5591
13150.000000 79.654 -82.2305
13200.000000 80.126 -82.8333
13400.000000 81.834 -90.2004
13600.000000 82.635 -105.9892
13800.000000 81.923 -124.3280
14000.000000 79.838 -136.1398
14300.000000 75.727 -138.0167
14500.000000 73.221 -132.8980
14750.000000 70.676 -123.2607
15000.000000 68.735 -111.8635
15250.000000 67.325 -99.8087
15500.000000 66.458 -88.0910
15750.000000 66.131 -77.6490
16000.000000 66.337 -69.6516
16250.000000 67.077 -66.4635
16500.000000 68.023 -72.5731
16750.000000 68.218 -91.8723
17000.000000 66.672 -118.7515
17250.000000 63.310 -141.7712
17500.000000 59.051 -158.8407
17750.000000 55.288 -173.1357
18000.000000 53.165 175.2610
18250.000000 52.613 168.1003
18500.000000 52.810 166.1178
18750.000000 53.250 169.0390
19000.000000 53.798 176.7458
19250.000000 54.546 -170.8408
19500.000000 55.694 -156.1849
19750.000000 57.060 -144.1416
20000.000000 58.030 -137.4085
20300.000000 58.201 -132.9763
20600.000000 57.531 -131.0448
20900.000000 56.780 -175.5138
21200.000000 56.740 -58.6115
21400.000000 57.214 -54.9119
21800.000000 58.092 5.9436
22000.000000 57.599 -117.9934
22400.000000 53.748 147.7886
22700.000000 49.075 24.7500
23000.000000 44.809 172.1641
23300.000000 42.788 -148.2773
23600.000000 42.702 -109.4609
24000.000000 43.788 -28.8906
