* Measurement data measured by REW V5.30.9
* Source: Headset (DS by VECLAN.COM), MICROPHONE (Master Volume), L, volume: 0.720. Timing signal peak level -17.7 dBFS, measurement signal peak level -15.8 dBFS
* Format: 2M Log Swept Sine, 1 sweep at -12.0 dBFS using an acoustic timing reference
* Dated: Mar 1, 2024 3:49:45 PM
* REW Settings:
*  C-weighting compensation: Off
*  Target level: 75.0 dB
* Note: ; Delay -0.0697 ms (-24 mm, -0.94 in) using estimated IR delay relative to Acoustic reference played from HEADPHONE R with no timing offset
* Measurement: JBL Tune110 R
* Smoothing: 1/24 octave
* Frequency Step: 1/48 octave
* Start Frequency: 1.000 Hz
*
* Freq(Hz) SPL(dB) Phase(degrees)
1.000000 81.006 -5.8825
1.015000 81.418 -7.4639
1.030000 81.823 -9.0075
1.044000 82.193 -10.4218
1.060000 82.603 -12.0149
1.075000 82.974 -13.4927
1.090000 83.330 -14.9586
1.106000 83.699 -16.4988
1.120000 84.018 -17.8022
1.138000 84.431 -19.3981
1.150000 84.708 -20.4110
1.172000 85.217 -22.1714
1.180000 85.402 -22.7864
1.206000 86.002 -24.6752
1.220000 86.324 -25.6275
1.241000 86.801 -26.9787
1.250000 87.004 -27.5316
1.265000 87.339 -28.4210
1.280000 87.669 -29.2733
1.315000 88.418 -31.1369
1.320000 88.522 -31.3905
1.340000 88.929 -32.3778
1.360000 89.322 -33.3254
1.380000 89.699 -34.2785
1.400000 90.057 -35.2191
1.430000 90.556 -36.5901
1.450000 90.861 -37.4830
1.475000 91.207 -38.5700
1.500000 91.514 -39.5981
1.525000 91.782 -40.5572
1.550000 92.018 -41.4522
1.575000 92.224 -42.3117
1.600000 92.405 -43.1599
1.625000 92.565 -43.9646
1.650000 92.708 -44.7323
1.675000 92.839 -45.4691
1.700000 92.963 -46.1808
1.725000 93.082 -46.8725
1.750000 93.202 -47.5490
1.775000 93.327 -48.2315
1.800000 93.461 -48.9401
1.825000 93.606 -49.6420
1.850000 93.759 -50.3312
1.875000 93.913 -50.9957
1.900000 94.064 -51.6321
1.925000 94.213 -52.2415
1.950000 94.360 -52.8254
1.975000 94.504 -53.4027
2.000000 94.645 -53.9918
2.030000 94.813 -54.6730
2.060000 94.977 -55.3319
2.090000 95.140 -55.9724
2.120000 95.299 -56.5985
2.140000 95.405 -57.0098
2.180000 95.613 -57.8422
2.200000 95.717 -58.2724
2.240000 95.919 -59.1118
2.270000 96.068 -59.7172
2.300000 96.215 -60.3018
2.330000 96.358 -60.8666
2.360000 96.500 -61.4135
2.400000 96.685 -62.1656
2.430000 96.822 -62.7199
2.470000 97.002 -63.4404
2.500000 97.135 -63.9695
2.540000 97.310 -64.6631
2.580000 97.483 -65.3622
2.620000 97.653 -66.0802
2.650000 97.778 -66.6035
2.690000 97.942 -67.2817
2.720000 98.063 -67.7764
2.760000 98.222 -68.4171
2.800000 98.378 -69.0798
2.850000 98.570 -69.8928
2.900000 98.758 -70.6863
2.950000 98.941 -71.4631
3.000000 99.121 -72.2526
3.040000 99.261 -72.8800
3.070000 99.365 -73.3410
3.110000 99.501 -73.9429
3.150000 99.634 -74.5309
3.200000 99.798 -75.2787
3.250000 99.959 -76.0234
3.300000 100.117 -76.7532
3.350000 100.272 -77.4686
3.400000 100.424 -78.2032
3.450000 100.572 -78.9357
3.500000 100.718 -79.6511
3.550000 100.860 -80.3486
3.600000 101.000 -81.0556
3.650000 101.136 -81.7588
3.700000 101.270 -82.4503
3.750000 101.400 -83.1325
3.820000 101.577 -84.1047
3.870000 101.701 -84.7910
3.950000 101.893 -85.8578
4.000000 102.010 -86.5267
4.060000 102.148 -87.3248
4.120000 102.282 -88.1114
4.180000 102.412 -88.8930
4.250000 102.561 -89.8177
4.310000 102.684 -90.5877
4.370000 102.804 -91.3406
4.440000 102.939 -92.2315
4.500000 103.052 -92.9848
4.550000 103.143 -93.6032
4.620000 103.266 -94.4784
4.680000 103.370 -95.2143
4.750000 103.487 -96.0456
4.820000 103.600 -96.8772
4.870000 103.679 -97.4663
4.940000 103.787 -98.2752
5.000000 103.876 -98.9663
5.080000 103.992 -99.8706
5.150000 104.089 -100.6331
5.220000 104.184 -101.3978
5.300000 104.288 -102.2587
5.380000 104.388 -103.0956
5.450000 104.474 -103.8220
5.520000 104.557 -104.5222
5.600000 104.650 -105.3092
5.700000 104.762 -106.2786
5.800000 104.871 -107.2167
5.900000 104.977 -108.1342
6.000000 105.080 -109.0254
6.080000 105.160 -109.7327
6.150000 105.229 -110.3323
6.220000 105.297 -110.9315
6.300000 105.373 -111.6017
6.400000 105.467 -112.4236
6.500000 105.559 -113.2377
6.600000 105.649 -114.0339
6.700000 105.736 -114.8250
6.800000 105.822 -115.6024
6.900000 105.906 -116.3743
7.000000 105.988 -117.1314
7.100000 106.067 -117.8850
7.200000 106.145 -118.6269
7.300000 106.219 -119.3621
7.400000 106.291 -120.0846
7.500000 106.360 -120.8061
7.620000 106.439 -121.6523
7.750000 106.520 -122.5412
7.880000 106.597 -123.4123
8.000000 106.665 -124.1873
8.120000 106.730 -124.9374
8.250000 106.797 -125.7233
8.380000 106.862 -126.4776
8.500000 106.921 -127.1499
8.620000 106.980 -127.7965
8.750000 107.042 -128.4739
8.850000 107.091 -128.9809
9.000000 107.164 -129.7151
9.120000 107.224 -130.2927
9.250000 107.289 -130.9145
9.380000 107.355 -131.5291
9.500000 107.415 -132.0997
9.620000 107.476 -132.6701
9.750000 107.539 -133.2902
9.880000 107.594 -133.9175
10.000000 107.634 -134.4950
10.150000 107.670 -135.2516
10.300000 107.695 -135.9926
10.440000 107.709 -136.6690
10.600000 107.719 -137.4168
10.750000 107.726 -138.0875
10.900000 107.732 -138.7285
11.060000 107.738 -139.4018
11.200000 107.744 -139.9991
11.380000 107.751 -140.7290
11.500000 107.755 -141.1934
11.720000 107.764 -142.0086
11.800000 107.768 -142.2963
12.060000 107.788 -143.2309
12.200000 107.802 -143.7672
12.410000 107.824 -144.5602
12.500000 107.832 -144.8953
12.650000 107.844 -145.4469
12.800000 107.852 -145.9852
13.150000 107.864 -147.2236
13.200000 107.865 -147.4004
13.400000 107.870 -148.0788
13.600000 107.876 -148.7109
13.800000 107.883 -149.2987
14.000000 107.894 -149.8577
14.300000 107.916 -150.7365
14.500000 107.934 -151.3155
14.750000 107.955 -152.0395
15.000000 107.976 -152.7690
15.250000 107.997 -153.5489
15.500000 108.014 -154.3067
15.750000 108.025 -155.0226
16.000000 108.031 -155.6852
16.250000 108.037 -156.3398
16.500000 108.045 -156.9506
16.750000 108.056 -157.5327
17.000000 108.071 -158.1065
17.250000 108.088 -158.7090
17.500000 108.103 -159.3138
17.750000 108.114 -159.9084
18.000000 108.121 -160.4824
18.250000 108.125 -161.0451
18.500000 108.129 -161.5710
18.750000 108.135 -162.0633
19.000000 108.146 -162.5367
19.250000 108.163 -163.0363
19.500000 108.182 -163.5539
19.750000 108.201 -164.0976
20.000000 108.215 -164.6658
20.299999 108.224 -165.3903
20.600000 108.221 -166.0930
20.900000 108.208 -166.7364
21.200001 108.192 -167.3149
21.400000 108.181 -167.6587
21.799999 108.170 -168.2571
22.000000 108.172 -168.5350
22.400000 108.188 -169.1366
22.700001 108.206 -169.6317
23.000000 108.224 -170.1739
23.299999 108.236 -170.7685
23.600000 108.242 -171.3712
24.000000 108.239 -172.1403
24.299999 108.232 -172.6899
24.700001 108.223 -173.3617
25.000000 108.218 -173.8311
25.400000 108.212 -174.4531
25.799999 108.205 -175.0518
26.200001 108.197 -175.6318
26.500000 108.192 -176.0555
26.900000 108.187 -176.6082
27.200001 108.184 -177.0348
27.600000 108.178 -177.6265
28.000000 108.165 -178.2233
28.500000 108.136 -178.9294
29.000000 108.105 -179.5250
29.500000 108.087 179.9308
30.000000 108.082 179.3467
30.400000 108.078 178.8081
30.700001 108.069 178.3880
31.100000 108.050 177.8427
31.500000 108.028 177.3346
32.000000 108.008 176.7590
32.500000 107.998 176.1667
33.000000 107.989 175.5249
33.500000 107.971 174.8480
34.000000 107.944 174.2081
34.500000 107.915 173.6303
35.000000 107.886 173.1174
35.500000 107.862 172.6445
36.000000 107.842 172.1964
36.500000 107.828 171.7352
37.000000 107.817 171.2283
37.500000 107.799 170.6627
38.200001 107.751 169.8767
38.700001 107.708 169.3998
39.500000 107.650 168.7758
40.000000 107.628 168.3823
40.599998 107.603 167.8433
41.200001 107.573 167.2758
41.799999 107.538 166.7083
42.500000 107.493 166.0437
43.099998 107.445 165.5138
43.700001 107.397 165.0699
44.400002 107.351 164.6214
45.000000 107.320 164.2220
45.500000 107.294 163.8780
46.200001 107.261 163.4096
46.799999 107.240 162.9741
47.500000 107.212 162.3922
48.200001 107.171 161.8380
48.700001 107.144 161.4846
49.400002 107.112 160.9663
50.000000 107.074 160.4973
50.799999 107.005 160.0568
51.500000 106.969 159.8593
52.200001 106.967 159.5422
53.000000 106.949 158.9211
53.799999 106.896 158.2936
54.500000 106.844 157.8138
55.200001 106.786 157.3287
56.000000 106.706 156.8644
57.000000 106.629 156.4491
58.000000 106.574 155.8951
59.000000 106.504 155.3253
60.000000 106.444 154.8084
60.799999 106.394 154.3625
61.500000 106.344 153.9960
62.200001 106.293 153.6550
63.000000 106.233 153.2921
64.000000 106.159 152.9097
65.000000 106.093 152.4787
66.000000 106.013 152.0552
67.000000 105.941 151.7676
68.000000 105.890 151.4124
69.000000 105.830 150.9373
70.000000 105.758 150.4939
71.000000 105.686 150.0856
72.000000 105.616 149.6826
73.000000 105.551 149.2582
74.000000 105.479 148.7901
75.000000 105.399 148.4442
76.199997 105.329 148.1133
77.500000 105.261 147.6853
78.800003 105.191 147.2774
80.000000 105.122 146.8429
81.199997 105.033 146.3845
82.500000 104.925 145.9948
83.800003 104.818 145.6414
85.000000 104.727 145.4349
86.199997 104.666 145.2220
87.500000 104.604 144.8530
88.500000 104.551 144.5961
90.000000 104.472 144.2330
91.199997 104.403 143.9711
92.500000 104.332 143.7524
93.800003 104.268 143.4853
95.000000 104.200 143.2145
96.199997 104.128 142.9988
97.500000 104.053 142.7811
98.800003 103.976 142.5419
100.000000 103.899 142.3124
101.500000 103.800 142.0621
103.000000 103.714 141.8388
104.400002 103.640 141.5434
106.000000 103.548 141.2863
107.500000 103.468 141.1271
109.000000 103.387 140.9424
110.599998 103.291 140.7051
112.000000 103.208 140.5272
113.800003 103.124 140.2018
115.000000 103.065 139.8940
117.199997 102.935 139.6355
118.000000 102.894 139.6689
120.599998 102.765 139.6921
122.000000 102.679 139.6098
124.099998 102.550 139.3512
125.000000 102.497 139.1936
126.500000 102.423 138.9707
128.000000 102.366 138.7740
131.500000 102.233 138.5869
132.000000 102.211 138.5662
134.000000 102.111 138.3504
136.000000 101.988 138.0156
138.000000 101.872 137.7254
140.000000 101.765 137.6028
143.000000 101.675 137.8474
145.000000 101.639 137.7747
147.500000 101.545 137.6026
150.000000 101.421 137.7505
152.500000 101.310 137.7435
155.000000 101.200 137.5503
157.500000 101.117 137.3987
160.000000 101.032 137.3444
162.500000 100.909 137.3993
165.000000 100.775 137.4587
167.500000 100.666 137.3466
170.000000 100.561 137.1417
172.500000 100.460 136.9659
175.000000 100.396 136.8439
177.500000 100.349 136.8009
180.000000 100.267 137.4908
182.500000 100.161 138.1295
185.000000 99.950 138.3428
187.500000 99.799 138.3218
190.000000 99.708 137.5450
192.500000 99.659 137.3430
195.000000 99.666 137.4016
197.500000 99.610 137.5430
200.000000 99.478 137.7142
203.000000 99.293 137.8202
206.000000 99.212 137.6947
209.000000 99.164 137.4633
212.000000 99.080 137.6588
214.000000 99.012 137.7017
218.000000 98.871 137.5805
220.000000 98.824 138.0044
224.000000 98.693 139.3363
227.000000 98.483 139.6935
230.000000 98.323 139.7479
233.000000 98.335 139.5457
236.000000 98.370 139.5152
240.000000 98.289 139.6786
243.000000 98.176 139.8242
247.000000 98.074 140.0338
250.000000 98.012 140.1832
254.000000 97.899 140.3730
258.000000 97.774 140.5653
262.000000 97.665 140.8716
265.000000 97.591 141.0405
269.000000 97.491 141.3055
272.000000 97.431 141.4750
276.000000 97.376 141.6795
280.000000 97.278 141.7322
285.000000 97.064 141.5216
290.000000 96.826 141.8179
295.000000 96.784 142.6399
300.000000 96.864 142.9510
304.000000 96.834 143.3028
307.000000 96.765 143.4635
311.000000 96.629 143.6235
315.000000 96.488 143.9094
320.000000 96.415 144.2274
325.000000 96.369 144.6534
330.000000 96.261 145.0738
335.000000 96.179 145.5609
340.000000 96.102 146.1981
345.000000 95.973 146.3976
350.000000 95.866 146.7147
355.000000 95.785 147.0276
360.000000 95.695 147.4877
365.000000 95.608 147.9922
370.000000 95.503 148.5341
375.000000 95.421 148.8376
382.000000 95.307 149.3077
387.000000 95.210 149.5424
395.000000 95.080 150.2781
400.000000 95.016 150.7352
406.000000 94.931 151.3377
412.000000 94.841 151.9280
418.000000 94.744 152.3627
425.000000 94.642 152.8886
431.000000 94.574 153.3335
437.000000 94.493 153.8658
444.000000 94.393 154.5571
450.000000 94.316 155.0500
455.000000 94.259 155.6229
462.000000 94.185 156.3743
468.000000 94.111 156.7444
475.000000 94.010 157.2368
482.000000 93.942 157.8665
487.000000 93.907 158.2899
494.000000 93.827 159.0073
500.000000 93.759 159.7839
508.000000 93.699 160.5463
515.000000 93.615 161.2291
522.000000 93.504 161.7704
530.000000 93.395 162.3633
538.000000 93.319 163.1762
545.000000 93.266 163.8448
552.000000 93.216 164.5427
560.000000 93.140 165.4475
570.000000 93.048 166.3943
580.000000 92.970 167.3563
590.000000 92.883 168.2669
600.000000 92.828 168.9987
608.000000 92.777 169.7889
615.000000 92.734 170.5048
622.000000 92.682 171.1117
630.000000 92.610 172.0045
640.000000 92.556 173.3631
650.000000 92.467 174.3201
660.000000 92.392 175.1161
670.000000 92.365 176.2229
680.000000 92.317 177.2483
690.000000 92.261 178.2811
700.000000 92.220 179.3582
710.000000 92.214 -179.6911
720.000000 92.191 -178.7252
730.000000 92.126 -177.6718
740.000000 92.071 -176.5845
750.000000 92.026 -175.6123
762.000000 91.978 -174.4216
775.000000 91.948 -172.8546
788.000000 91.910 -171.5630
800.000000 91.897 -170.6974
812.000000 91.902 -169.5845
825.000000 91.858 -168.4298
838.000000 91.813 -166.6842
850.000000 91.816 -164.9476
862.000000 91.852 -164.2386
875.000000 91.880 -163.2774
885.000000 91.889 -162.4124
900.000000 91.909 -161.0196
912.000000 91.934 -159.7866
925.000000 91.948 -158.6188
938.000000 91.946 -157.3966
950.000000 91.968 -155.9668
962.000000 92.039 -154.5116
975.000000 92.148 -153.1672
988.000000 92.245 -152.3466
1000.000000 92.310 -151.7540
1015.000000 92.363 -150.8878
1030.000000 92.412 -149.9124
1044.000000 92.459 -149.1279
1060.000000 92.513 -148.2366
1075.000000 92.561 -147.4204
1090.000000 92.612 -146.5965
1106.000000 92.677 -145.6908
1120.000000 92.739 -144.9353
1138.000000 92.814 -143.9894
1150.000000 92.861 -143.3768
1172.000000 92.944 -142.2780
1180.000000 92.973 -141.8985
1206.000000 93.062 -140.6508
1220.000000 93.116 -139.9712
1241.000000 93.204 -138.9760
1250.000000 93.238 -138.5493
1265.000000 93.291 -137.8598
1280.000000 93.342 -137.1685
1315.000000 93.464 -135.5693
1320.000000 93.480 -135.3466
1340.000000 93.542 -134.4796
1360.000000 93.584 -133.5296
1380.000000 93.616 -132.5480
1400.000000 93.666 -131.6055
1430.000000 93.749 -130.2200
1450.000000 93.801 -129.2659
1475.000000 93.868 -128.0595
1500.000000 93.934 -126.8519
1525.000000 94.003 -125.6731
1550.000000 94.071 -124.4498
1575.000000 94.136 -123.2423
1600.000000 94.203 -122.0470
1625.000000 94.272 -120.8217
1650.000000 94.342 -119.5822
1675.000000 94.418 -118.3611
1700.000000 94.496 -117.1415
1725.000000 94.572 -115.9421
1750.000000 94.646 -114.7045
1775.000000 94.728 -113.4875
1800.000000 94.816 -112.2793
1825.000000 94.905 -111.0613
1850.000000 94.993 -109.8492
1875.000000 95.080 -108.6369
1900.000000 95.168 -107.4164
1925.000000 95.260 -106.2202
1950.000000 95.355 -105.0233
1975.000000 95.450 -103.8160
2000.000000 95.548 -102.5981
2030.000000 95.672 -101.1306
2060.000000 95.805 -99.6434
2090.000000 95.950 -98.1503
2120.000000 96.108 -96.6994
2140.000000 96.220 -95.7660
2180.000000 96.458 -93.9465
2200.000000 96.580 -93.1063
2240.000000 96.826 -91.5213
2270.000000 97.012 -90.4063
2300.000000 97.199 -89.3508
2330.000000 97.387 -88.3316
2360.000000 97.577 -87.3458
2400.000000 97.834 -86.1343
2430.000000 98.028 -85.2820
2470.000000 98.285 -84.2176
2500.000000 98.478 -83.4898
2540.000000 98.732 -82.6044
2580.000000 98.981 -81.8116
2620.000000 99.224 -81.1025
2650.000000 99.401 -80.6299
2690.000000 99.627 -80.0238
2720.000000 99.790 -79.6321
2760.000000 99.994 -79.1356
2800.000000 100.184 -78.6484
2850.000000 100.421 -78.0908
2900.000000 100.651 -77.5772
2950.000000 100.858 -77.0124
3000.000000 101.072 -76.5019
3040.000000 101.253 -76.1149
3070.000000 101.385 -75.8551
3110.000000 101.546 -75.4900
3150.000000 101.693 -75.0947
3200.000000 101.881 -74.6511
3250.000000 102.073 -74.1932
3300.000000 102.265 -73.6731
3350.000000 102.463 -73.1586
3400.000000 102.673 -72.6986
3450.000000 102.900 -72.3853
3500.000000 103.134 -72.2747
3550.000000 103.350 -72.2836
3600.000000 103.539 -72.3960
3650.000000 103.704 -72.4924
3700.000000 103.851 -72.5937
3750.000000 103.977 -72.7179
3820.000000 104.107 -72.6716
3870.000000 104.215 -72.1941
3950.000000 104.470 -71.7186
4000.000000 104.623 -71.6876
4060.000000 104.783 -71.6647
4120.000000 104.929 -71.5556
4180.000000 105.080 -71.4211
4250.000000 105.275 -71.3821
4310.000000 105.438 -71.4367
4370.000000 105.585 -71.6078
4440.000000 105.736 -71.8457
4500.000000 105.853 -72.0913
4550.000000 105.950 -72.2757
4620.000000 106.091 -72.5990
4680.000000 106.211 -72.9143
4750.000000 106.349 -73.4069
4820.000000 106.490 -74.0845
4870.000000 106.589 -74.7052
4940.000000 106.711 -75.7101
5000.000000 106.790 -76.7088
5080.000000 106.857 -78.2213
5150.000000 106.881 -79.7015
5220.000000 106.864 -81.2231
5300.000000 106.788 -83.0214
5380.000000 106.649 -84.7446
5450.000000 106.481 -86.1817
5520.000000 106.275 -87.4787
5600.000000 105.995 -88.6991
5700.000000 105.592 -89.7686
5800.000000 105.148 -90.2636
5900.000000 104.690 -90.1737
6000.000000 104.237 -89.6503
6080.000000 103.887 -88.8921
6150.000000 103.590 -88.0154
6220.000000 103.304 -86.9859
6300.000000 102.996 -85.5414
6400.000000 102.646 -83.4351
6500.000000 102.348 -81.0209
6600.000000 102.113 -78.4231
6700.000000 101.939 -75.7558
6800.000000 101.832 -73.0851
6900.000000 101.802 -70.4510
7000.000000 101.852 -67.8995
7100.000000 101.967 -65.4930
7200.000000 102.141 -63.3370
7300.000000 102.371 -61.4703
7400.000000 102.654 -60.0579
7500.000000 102.985 -59.1697
7620.000000 103.443 -59.0351
7750.000000 103.967 -60.2264
7880.000000 104.357 -63.0496
8000.000000 104.526 -67.0610
8120.000000 104.442 -72.0576
8250.000000 104.004 -77.8177
8380.000000 103.212 -82.8878
8500.000000 102.238 -86.3055
8620.000000 101.118 -88.1625
8750.000000 99.827 -88.5403
8850.000000 98.833 -87.7593
9000.000000 97.403 -85.2307
9120.000000 96.331 -82.2664
9250.000000 95.247 -78.4018
9380.000000 94.239 -73.9840
9500.000000 93.371 -69.5735
9620.000000 92.561 -64.8536
9750.000000 91.742 -59.4756
9880.000000 90.975 -53.8843
10000.000000 90.305 -48.4352
10150.000000 89.525 -41.3130
10300.000000 88.810 -33.8396
10440.000000 88.198 -26.5129
10600.000000 87.584 -17.8449
10750.000000 87.107 -9.4781
10900.000000 86.726 -1.0267
11060.000000 86.414 7.9989
11200.000000 86.203 15.8067
11380.000000 86.009 25.8020
11500.000000 85.932 32.4850
11720.000000 85.907 44.7266
11800.000000 85.933 49.1914
12060.000000 86.157 63.5259
12200.000000 86.367 71.1778
12410.000000 86.802 82.4978
12500.000000 87.037 87.2742
12650.000000 87.502 95.1539
12800.000000 88.073 102.8590
13150.000000 89.932 119.8319
13200.000000 90.271 122.0845
13400.000000 91.869 130.2457
13600.000000 93.933 136.1987
13800.000000 96.466 137.7119
14000.000000 99.082 131.9707
14300.000000 101.269 109.1141
14500.000000 100.658 92.0710
14750.000000 98.262 79.9950
15000.000000 95.690 79.4644
15250.000000 93.880 85.4988
15500.000000 92.937 94.0004
15750.000000 92.803 102.9235
16000.000000 93.506 110.1593
16250.000000 94.950 111.9295
16500.000000 96.411 104.2356
16750.000000 96.611 88.1712
17000.000000 94.825 72.0970
17250.000000 91.617 64.1524
17500.000000 88.073 65.5827
17750.000000 84.910 73.3758
18000.000000 82.296 84.4306
18250.000000 80.158 97.1019
18500.000000 78.460 110.6744
18750.000000 77.253 124.8176
19000.000000 76.491 139.3548
19250.000000 75.909 154.1395
19500.000000 75.238 169.1295
19750.000000 74.440 -175.7406
20000.000000 73.573 -160.5690
20300.000000 72.604 -142.4901
20600.000000 71.920 -125.2493
20900.000000 71.508 -110.0808
21200.000000 71.197 -99.3632
21400.000000 70.708 -96.3064
21800.000000 67.306 -96.1580
22000.000000 64.139 -92.0325
22400.000000 55.821 -75.0851
22700.000000 48.913 -59.8082
23000.000000 44.166 -11.7140
23300.000000 42.744 110.0775
23600.000000 42.485 22.2024
24000.000000 42.521 61.8007
