* Measurement data measured by REW V5.30 beta 1
* Source: Trace Arithmetic result A * B
* Format: Trace Arithmetic result A * B
* Dated: Nov 16, 2023 9:01:15 PM
* REW Settings:
*  C-weighting compensation: Off
*  Target level: 94.0 dB
* Note: Trace Arithmetic A times B A = Remove 5128 Pinna from HRTF B = therollo9 10dB
* Measurement: A times B
* Smoothing: 1/24 octave
* Frequency Step: 1/48 octave
* Start Frequency: 20.300 Hz
*
* Freq(Hz), SPL(dB)
20.299999, 5.386
20.600000, 5.382
20.900000, 5.378
21.200001, 5.375
21.400000, 5.373
21.799999, 5.368
22.000000, 5.365
22.400000, 5.359
22.700001, 5.353
23.000000, 5.347
23.299999, 5.340
23.600000, 5.333
24.000000, 5.322
24.299999, 5.314
24.700001, 5.302
25.000000, 5.293
25.400000, 5.280
25.799999, 5.267
26.200001, 5.254
26.500000, 5.244
26.900000, 5.230
27.200001, 5.219
27.600000, 5.204
28.000000, 5.190
28.500000, 5.171
29.000000, 5.152
29.500000, 5.133
30.000000, 5.115
30.400000, 5.099
30.700001, 5.088
31.100000, 5.072
31.500000, 5.056
32.000000, 5.037
32.500000, 5.018
33.000000, 4.999
33.500000, 4.980
34.000000, 4.961
34.500000, 4.942
35.000000, 4.924
35.500000, 4.906
36.000000, 4.888
36.500000, 4.870
37.000000, 4.853
37.500000, 4.836
38.200001, 4.814
38.700001, 4.798
39.500000, 4.773
40.000000, 4.758
40.599998, 4.741
41.200001, 4.725
41.799999, 4.709
42.500000, 4.691
43.099998, 4.676
43.700001, 4.662
44.400002, 4.645
45.000000, 4.632
45.500000, 4.622
46.200001, 4.607
46.799999, 4.595
47.500000, 4.581
48.200001, 4.568
48.700001, 4.559
49.400002, 4.546
50.000000, 4.536
50.799999, 4.522
51.500000, 4.511
52.200001, 4.499
53.000000, 4.486
53.799999, 4.474
54.500000, 4.463
55.200001, 4.452
56.000000, 4.440
57.000000, 4.425
58.000000, 4.409
59.000000, 4.394
60.000000, 4.379
60.799999, 4.367
61.500000, 4.357
62.200001, 4.346
63.000000, 4.334
64.000000, 4.319
65.000000, 4.304
66.000000, 4.289
67.000000, 4.274
68.000000, 4.258
69.000000, 4.242
70.000000, 4.227
71.000000, 4.211
72.000000, 4.195
73.000000, 4.179
74.000000, 4.163
75.000000, 4.147
76.199997, 4.128
77.500000, 4.107
78.800003, 4.086
80.000000, 4.067
81.199997, 4.048
82.500000, 4.027
83.800003, 4.007
85.000000, 3.988
86.199997, 3.968
87.500000, 3.948
88.500000, 3.932
90.000000, 3.908
91.199997, 3.889
92.500000, 3.868
93.800003, 3.847
95.000000, 3.828
96.199997, 3.808
97.500000, 3.786
98.800003, 3.764
100.000000, 3.744
101.500000, 3.719
103.000000, 3.693
104.400002, 3.669
106.000000, 3.641
107.500000, 3.615
109.000000, 3.588
110.599998, 3.560
112.000000, 3.535
113.800003, 3.504
115.000000, 3.482
117.199997, 3.442
118.000000, 3.428
120.599998, 3.382
122.000000, 3.357
124.099998, 3.320
125.000000, 3.304
126.500000, 3.278
128.000000, 3.253
131.500000, 3.193
132.000000, 3.184
134.000000, 3.151
136.000000, 3.118
138.000000, 3.086
140.000000, 3.055
143.000000, 3.009
145.000000, 2.979
147.500000, 2.942
150.000000, 2.907
152.500000, 2.872
155.000000, 2.838
157.500000, 2.806
160.000000, 2.774
162.500000, 2.743
165.000000, 2.712
167.500000, 2.682
170.000000, 2.653
172.500000, 2.624
175.000000, 2.597
177.500000, 2.569
180.000000, 2.543
182.500000, 2.517
185.000000, 2.492
187.500000, 2.468
190.000000, 2.444
192.500000, 2.421
195.000000, 2.399
197.500000, 2.377
200.000000, 2.356
203.000000, 2.331
206.000000, 2.308
209.000000, 2.286
212.000000, 2.264
214.000000, 2.250
218.000000, 2.224
220.000000, 2.211
224.000000, 2.188
227.000000, 2.171
230.000000, 2.155
233.000000, 2.140
236.000000, 2.126
240.000000, 2.108
243.000000, 2.096
247.000000, 2.080
250.000000, 2.069
254.000000, 2.055
258.000000, 2.041
262.000000, 2.027
265.000000, 2.017
269.000000, 2.004
272.000000, 1.995
276.000000, 1.983
280.000000, 1.971
285.000000, 1.956
290.000000, 1.943
295.000000, 1.929
300.000000, 1.916
304.000000, 1.906
307.000000, 1.899
311.000000, 1.889
315.000000, 1.879
320.000000, 1.868
325.000000, 1.857
330.000000, 1.846
335.000000, 1.836
340.000000, 1.825
345.000000, 1.816
350.000000, 1.806
355.000000, 1.797
360.000000, 1.788
365.000000, 1.779
370.000000, 1.769
375.000000, 1.760
382.000000, 1.747
387.000000, 1.737
395.000000, 1.721
400.000000, 1.710
406.000000, 1.696
412.000000, 1.683
418.000000, 1.668
425.000000, 1.651
431.000000, 1.635
437.000000, 1.619
444.000000, 1.600
450.000000, 1.585
455.000000, 1.571
462.000000, 1.553
468.000000, 1.537
475.000000, 1.518
482.000000, 1.499
487.000000, 1.486
494.000000, 1.467
500.000000, 1.451
508.000000, 1.429
515.000000, 1.410
522.000000, 1.391
530.000000, 1.370
538.000000, 1.349
545.000000, 1.331
552.000000, 1.314
560.000000, 1.294
570.000000, 1.271
580.000000, 1.249
590.000000, 1.228
600.000000, 1.208
608.000000, 1.191
615.000000, 1.177
622.000000, 1.163
630.000000, 1.147
640.000000, 1.127
650.000000, 1.106
660.000000, 1.085
670.000000, 1.063
680.000000, 1.040
690.000000, 1.017
700.000000, 0.993
710.000000, 0.970
720.000000, 0.947
730.000000, 0.925
740.000000, 0.903
750.000000, 0.883
762.000000, 0.860
775.000000, 0.838
788.000000, 0.819
800.000000, 0.803
812.000000, 0.790
825.000000, 0.779
838.000000, 0.771
850.000000, 0.767
862.000000, 0.764
875.000000, 0.762
885.000000, 0.763
900.000000, 0.765
912.000000, 0.768
925.000000, 0.774
938.000000, 0.782
950.000000, 0.792
962.000000, 0.804
975.000000, 0.821
988.000000, 0.843
1000.000000, 0.866
1015.000000, 0.901
1030.000000, 0.942
1044.000000, 0.986
1060.000000, 1.039
1075.000000, 1.092
1090.000000, 1.145
1106.000000, 1.200
1120.000000, 1.246
1138.000000, 1.303
1150.000000, 1.338
1172.000000, 1.399
1180.000000, 1.420
1206.000000, 1.487
1220.000000, 1.524
1241.000000, 1.581
1250.000000, 1.606
1265.000000, 1.650
1280.000000, 1.695
1315.000000, 1.807
1320.000000, 1.823
1340.000000, 1.890
1360.000000, 1.959
1380.000000, 2.030
1400.000000, 2.100
1430.000000, 2.207
1450.000000, 2.279
1475.000000, 2.369
1500.000000, 2.462
1525.000000, 2.556
1550.000000, 2.652
1575.000000, 2.750
1600.000000, 2.849
1625.000000, 2.950
1650.000000, 3.052
1675.000000, 3.156
1700.000000, 3.262
1725.000000, 3.372
1750.000000, 3.484
1775.000000, 3.600
1800.000000, 3.721
1825.000000, 3.846
1850.000000, 3.975
1875.000000, 4.109
1900.000000, 4.247
1925.000000, 4.390
1950.000000, 4.538
1975.000000, 4.691
2000.000000, 4.850
2030.000000, 5.047
2060.000000, 5.253
2090.000000, 5.466
2120.000000, 5.684
2140.000000, 5.832
2180.000000, 6.128
2200.000000, 6.272
2240.000000, 6.550
2270.000000, 6.744
2300.000000, 6.924
2330.000000, 7.090
2360.000000, 7.244
2400.000000, 7.435
2430.000000, 7.570
2470.000000, 7.740
2500.000000, 7.862
2540.000000, 8.019
2580.000000, 8.169
2620.000000, 8.311
2650.000000, 8.413
2690.000000, 8.542
2720.000000, 8.631
2760.000000, 8.739
2800.000000, 8.834
2850.000000, 8.931
2900.000000, 9.005
2950.000000, 9.055
3000.000000, 9.083
3040.000000, 9.089
3070.000000, 9.085
3110.000000, 9.069
3150.000000, 9.040
3200.000000, 8.987
3250.000000, 8.917
3300.000000, 8.830
3350.000000, 8.728
3400.000000, 8.614
3450.000000, 8.488
3500.000000, 8.355
3550.000000, 8.214
3600.000000, 8.069
3650.000000, 7.919
3700.000000, 7.767
3750.000000, 7.613
3820.000000, 7.398
3870.000000, 7.246
3950.000000, 7.009
4000.000000, 6.863
4060.000000, 6.693
4120.000000, 6.524
4180.000000, 6.356
4250.000000, 6.157
4310.000000, 5.982
4370.000000, 5.802
4440.000000, 5.587
4500.000000, 5.403
4550.000000, 5.251
4620.000000, 5.043
4680.000000, 4.871
4750.000000, 4.680
4820.000000, 4.499
4870.000000, 4.376
4940.000000, 4.215
5000.000000, 4.088
5080.000000, 3.938
5150.000000, 3.824
5220.000000, 3.729
5300.000000, 3.639
5380.000000, 3.565
5450.000000, 3.510
5520.000000, 3.462
5600.000000, 3.413
5700.000000, 3.359
5800.000000, 3.313
5900.000000, 3.275
6000.000000, 3.245
6080.000000, 3.228
6150.000000, 3.219
6220.000000, 3.215
6300.000000, 3.217
6400.000000, 3.230
6500.000000, 3.253
6600.000000, 3.286
6700.000000, 3.327
6800.000000, 3.374
6900.000000, 3.425
7000.000000, 3.475
7100.000000, 3.522
7200.000000, 3.562
7300.000000, 3.593
7400.000000, 3.610
7500.000000, 3.610
7620.000000, 3.585
7750.000000, 3.524
7880.000000, 3.424
8000.000000, 3.296
8120.000000, 3.132
8250.000000, 2.914
8380.000000, 2.658
8500.000000, 2.390
8620.000000, 2.097
8750.000000, 1.760
8850.000000, 1.497
9000.000000, 1.114
9120.000000, 0.833
9250.000000, 0.570
9380.000000, 0.361
9500.000000, 0.219
9620.000000, 0.127
9750.000000, 0.083
9880.000000, 0.094
10000.000000, 0.158
10150.000000, 0.308
10300.000000, 0.531
10440.000000, 0.779
10600.000000, 1.050
10750.000000, 1.223
10900.000000, 1.265
11060.000000, 1.155
11200.000000, 0.945
11380.000000, 0.561
11500.000000, 0.257
11720.000000, -0.359
11800.000000, -0.591
12060.000000, -1.319
12200.000000, -1.657
12410.000000, -2.051
12500.000000, -2.179
12650.000000, -2.343
12800.000000, -2.455
13150.000000, -2.600
13200.000000, -2.616
13400.000000, -2.672
13600.000000, -2.740
13800.000000, -2.837
14000.000000, -2.968
14300.000000, -3.225
14500.000000, -3.424
14750.000000, -3.682
15000.000000, -3.921
15250.000000, -4.109
15500.000000, -4.226
15750.000000, -4.266
16000.000000, -4.237
16250.000000, -4.156
16500.000000, -4.044
16750.000000, -3.921
17000.000000, -3.808
17250.000000, -3.720
17500.000000, -3.675
17750.000000, -3.691
18000.000000, -3.789
18250.000000, -3.988
18500.000000, -4.307
18750.000000, -4.756
19000.000000, -5.340
19250.000000, -6.068
19500.000000, -7.078
19750.000000, -9.032
20000.000000, -11.000
