* Measurement data measured by REW V5.20.13
* Source: Headset (DS by VECLAN.COM), MICROPHONE (Master Volume), L, volume: 0.720. Timing signal peak level -14.5 dBFS, measurement signal peak level -13.3 dBFS
* Format: 2M Log Swept Sine, 1 sweep at -12.0 dBFS using an acoustic timing reference
* Dated: Feb 24, 2024 4:29:27 PM
* REW Settings:
*  C-weighting compensation: Off
*  Target level: 75.0 dB
* Note: ; Delay -0.0692 ms (-24 mm, -0.93 in) using estimated IR delay relative to Acoustic reference played from HEADPHONE L with no timing offset
* Measurement: JVC HA-FX700 L
* Smoothing: 1/24 octave
* Frequency Step: 1/48 octave
* Start Frequency: 1.000 Hz
*
* Freq(Hz) SPL(dB) Phase(degrees)
1.000000 58.624 38.8469
1.015000 58.778 34.1842
1.030000 58.944 29.6849
1.044000 59.110 25.6564
1.060000 59.314 21.2824
1.075000 59.517 17.4317
1.090000 59.733 13.8499
1.106000 59.980 10.3275
1.120000 60.225 7.3564
1.138000 60.581 3.6468
1.150000 60.843 1.2438
1.172000 61.365 -3.0131
1.180000 61.568 -4.5127
1.206000 62.265 -9.2043
1.220000 62.661 -11.6134
1.241000 63.276 -15.0698
1.250000 63.546 -16.4926
1.265000 64.001 -18.7844
1.280000 64.460 -20.9759
1.315000 65.533 -25.6902
1.320000 65.685 -26.3173
1.340000 66.284 -28.7073
1.360000 66.865 -30.9054
1.380000 67.421 -32.9082
1.400000 67.946 -34.7121
1.430000 68.658 -37.0374
1.450000 69.073 -38.3286
1.475000 69.515 -39.6145
1.500000 69.899 -40.2888
1.525000 70.236 -40.3659
1.550000 70.530 -39.9313
1.575000 70.787 -39.0702
1.600000 71.013 -37.8679
1.625000 71.211 -36.4098
1.650000 71.388 -34.7811
1.675000 71.548 -33.0672
1.700000 71.696 -31.3535
1.725000 71.838 -29.7251
1.750000 71.977 -28.2675
1.775000 72.121 -27.0659
1.800000 72.273 -26.2057
1.825000 72.438 -25.7722
1.850000 72.614 -25.7707
1.875000 72.782 -26.0344
1.900000 72.943 -26.5219
1.925000 73.096 -27.1987
1.950000 73.244 -28.0303
1.975000 73.387 -28.9823
2.000000 73.526 -30.0203
2.030000 73.689 -31.3307
2.060000 73.849 -32.6557
2.090000 74.007 -33.9357
2.120000 74.164 -35.1111
2.140000 74.270 -35.8072
2.180000 74.486 -36.9101
2.200000 74.596 -37.2822
2.240000 74.818 -37.7629
2.270000 74.984 -37.9582
2.300000 75.148 -38.0388
2.330000 75.312 -38.0286
2.360000 75.476 -37.9518
2.400000 75.692 -37.7876
2.430000 75.853 -37.6492
2.470000 76.066 -37.4902
2.500000 76.225 -37.4214
2.540000 76.435 -37.4427
2.580000 76.643 -37.6309
2.620000 76.850 -37.8945
2.650000 77.004 -38.1225
2.690000 77.209 -38.4644
2.720000 77.361 -38.7475
2.760000 77.562 -39.1581
2.800000 77.762 -39.6035
2.850000 78.008 -40.2046
2.900000 78.249 -40.8491
2.950000 78.487 -41.5391
3.000000 78.722 -42.3326
3.040000 78.908 -43.0312
3.070000 79.045 -43.5803
3.110000 79.227 -44.3309
3.150000 79.406 -45.0854
3.200000 79.625 -46.0058
3.250000 79.840 -46.8669
3.300000 80.049 -47.6323
3.350000 80.252 -48.2782
3.400000 80.451 -48.8312
3.450000 80.645 -49.3300
3.500000 80.835 -49.8134
3.550000 81.019 -50.3201
3.600000 81.199 -50.8888
3.650000 81.373 -51.5583
3.700000 81.542 -52.3642
3.750000 81.706 -53.2960
3.820000 81.926 -54.7314
3.870000 82.078 -55.7919
3.950000 82.312 -57.4309
4.000000 82.453 -58.3523
4.060000 82.618 -59.2931
4.120000 82.775 -60.0898
4.180000 82.927 -60.7914
4.250000 83.096 -61.5495
4.310000 83.237 -62.1984
4.370000 83.375 -62.8936
4.440000 83.531 -63.8092
4.500000 83.660 -64.6596
4.550000 83.765 -65.3900
4.620000 83.907 -66.4102
4.680000 84.028 -67.2488
4.750000 84.167 -68.1424
4.820000 84.306 -68.9160
4.870000 84.404 -69.4113
4.940000 84.539 -70.0506
5.000000 84.654 -70.5709
5.080000 84.807 -71.2629
5.150000 84.943 -71.8993
5.220000 85.079 -72.5469
5.300000 85.235 -73.2851
5.380000 85.391 -74.0181
5.450000 85.528 -74.6528
5.520000 85.666 -75.2783
5.600000 85.824 -75.9773
5.700000 86.023 -76.8383
5.800000 86.221 -77.7025
5.900000 86.415 -78.5860
6.000000 86.607 -79.4813
6.080000 86.759 -80.2050
6.150000 86.890 -80.8450
6.220000 87.017 -81.4924
6.300000 87.159 -82.2490
6.400000 87.330 -83.2175
6.500000 87.496 -84.1847
6.600000 87.655 -85.1222
6.700000 87.807 -86.0290
6.800000 87.951 -86.9151
6.900000 88.090 -87.7775
7.000000 88.225 -88.6148
7.100000 88.353 -89.4332
7.200000 88.477 -90.2247
7.300000 88.599 -90.9785
7.400000 88.719 -91.6842
7.500000 88.836 -92.3453
7.620000 88.976 -93.1004
7.750000 89.127 -93.8944
7.880000 89.278 -94.6523
8.000000 89.416 -95.3316
8.120000 89.553 -96.0045
8.250000 89.702 -96.7185
8.380000 89.847 -97.4255
8.500000 89.975 -98.0818
8.620000 90.100 -98.7404
8.750000 90.229 -99.4423
8.850000 90.322 -99.9683
9.000000 90.453 -100.7456
9.120000 90.552 -101.3341
9.250000 90.653 -101.9211
9.380000 90.747 -102.4646
9.500000 90.830 -102.9208
9.620000 90.908 -103.3260
9.750000 90.989 -103.7121
9.880000 91.066 -104.0562
10.000000 91.132 -104.3344
10.150000 91.209 -104.6339
10.300000 91.286 -104.9213
10.440000 91.357 -105.1714
10.600000 91.438 -105.4661
10.750000 91.518 -105.7774
10.900000 91.600 -106.1149
11.060000 91.683 -106.5235
11.200000 91.754 -106.9259
11.380000 91.837 -107.4626
11.500000 91.884 -107.8308
11.720000 91.962 -108.4987
11.800000 91.987 -108.7273
12.060000 92.059 -109.4275
12.200000 92.097 -109.7636
12.410000 92.153 -110.2206
12.500000 92.178 -110.4038
12.650000 92.220 -110.6865
12.800000 92.264 -110.9609
13.150000 92.377 -111.6123
13.200000 92.394 -111.7111
13.400000 92.464 -112.1238
13.600000 92.534 -112.5632
13.800000 92.604 -113.0310
14.000000 92.673 -113.5199
14.300000 92.771 -114.2880
14.500000 92.833 -114.8162
14.750000 92.907 -115.4881
15.000000 92.975 -116.1654
15.250000 93.038 -116.8273
15.500000 93.095 -117.4182
15.750000 93.150 -117.9048
16.000000 93.210 -118.2354
16.250000 93.292 -118.4461
16.500000 93.405 -118.5949
16.750000 93.558 -118.7860
17.000000 93.741 -119.1819
17.250000 93.936 -119.8392
17.500000 94.123 -120.8235
17.750000 94.268 -122.0432
18.000000 94.364 -123.3653
18.250000 94.400 -124.6402
18.500000 94.391 -125.6177
18.750000 94.360 -126.2263
19.000000 94.332 -126.4038
19.250000 94.351 -126.2668
19.500000 94.422 -126.0257
19.750000 94.551 -125.8480
20.000000 94.710 -125.9853
20.299999 94.896 -126.5950
20.600000 95.034 -127.5945
20.900000 95.096 -128.7267
21.200001 95.084 -129.6478
21.400000 95.055 -130.0074
21.799999 95.001 -130.1342
22.000000 95.000 -129.9889
22.400000 95.077 -129.6474
22.700001 95.181 -129.6416
23.000000 95.284 -129.9713
23.299999 95.354 -130.5052
23.600000 95.386 -131.0412
24.000000 95.391 -131.4739
24.299999 95.408 -131.5301
24.700001 95.490 -131.4898
25.000000 95.596 -131.5726
25.400000 95.758 -132.1832
25.799999 95.880 -133.2832
26.200001 95.925 -134.5193
26.500000 95.918 -135.2915
26.900000 95.890 -135.9603
27.200001 95.882 -136.2289
27.600000 95.909 -136.4559
28.000000 95.970 -136.7414
28.500000 96.055 -137.2599
29.000000 96.132 -137.7882
29.500000 96.222 -138.2319
30.000000 96.339 -138.7567
30.400000 96.438 -139.3711
30.700001 96.500 -139.9469
31.100000 96.555 -140.7693
31.500000 96.580 -141.5243
32.000000 96.593 -142.2420
32.500000 96.615 -142.7377
33.000000 96.658 -143.1631
33.500000 96.716 -143.6299
34.000000 96.777 -144.1643
34.500000 96.833 -144.7420
35.000000 96.879 -145.3257
35.500000 96.914 -145.8627
36.000000 96.944 -146.3094
36.500000 96.980 -146.6759
37.000000 97.027 -147.0381
37.500000 97.078 -147.4688
38.200001 97.131 -148.1617
38.700001 97.155 -148.6149
39.500000 97.204 -149.2369
40.000000 97.247 -149.7128
40.599998 97.287 -150.4456
41.200001 97.297 -151.1751
41.799999 97.300 -151.7347
42.500000 97.329 -152.2938
43.099998 97.366 -152.8533
43.700001 97.396 -153.3860
44.400002 97.446 -153.8649
45.000000 97.517 -154.3373
45.500000 97.574 -154.8938
46.200001 97.615 -155.7568
46.799999 97.622 -156.3415
47.500000 97.632 -156.8362
48.200001 97.650 -157.2596
48.700001 97.666 -157.5322
49.400002 97.704 -157.9366
50.000000 97.739 -158.4166
50.799999 97.755 -159.1525
51.500000 97.752 -159.6141
52.200001 97.778 -159.9364
53.000000 97.842 -160.4560
53.799999 97.898 -161.2235
54.500000 97.919 -161.9737
55.200001 97.906 -162.6480
56.000000 97.868 -163.1137
57.000000 97.861 -163.2810
58.000000 97.919 -163.5878
59.000000 97.979 -164.2789
60.000000 98.000 -165.1588
60.799999 97.989 -165.7628
61.500000 97.983 -166.1353
62.200001 97.995 -166.4435
63.000000 98.022 -166.8270
64.000000 98.054 -167.3783
65.000000 98.071 -167.9264
66.000000 98.082 -168.4367
67.000000 98.083 -169.0136
68.000000 98.067 -169.5417
69.000000 98.064 -170.0300
70.000000 98.061 -170.5673
71.000000 98.067 -170.9662
72.000000 98.104 -171.3504
73.000000 98.141 -171.8178
74.000000 98.167 -172.2251
75.000000 98.190 -172.6289
76.199997 98.197 -173.1994
77.500000 98.174 -173.8036
78.800003 98.160 -174.3718
80.000000 98.157 -175.0544
81.199997 98.140 -175.7082
82.500000 98.133 -176.1965
83.800003 98.147 -176.6006
85.000000 98.160 -177.0678
86.199997 98.143 -177.5971
87.500000 98.112 -178.0707
88.500000 98.101 -178.4890
90.000000 98.075 -179.2954
91.199997 98.042 -179.8024
92.500000 98.035 179.9291
93.800003 98.073 179.6566
95.000000 98.105 179.2244
96.199997 98.108 178.7168
97.500000 98.083 178.1438
98.800003 98.037 177.5682
100.000000 97.990 177.1215
101.500000 97.957 176.6557
103.000000 97.956 176.2063
104.400002 97.973 175.8231
106.000000 98.002 175.2759
107.500000 97.978 174.7213
109.000000 97.935 174.4215
110.599998 97.914 174.1085
112.000000 97.914 173.6548
113.800003 97.904 172.8672
115.000000 97.885 172.4336
117.199997 97.871 171.8988
118.000000 97.866 171.7403
120.599998 97.842 171.2057
122.000000 97.807 170.8668
124.099998 97.769 170.2958
125.000000 97.755 169.9990
126.500000 97.736 169.5211
128.000000 97.726 169.0583
131.500000 97.682 168.1400
132.000000 97.673 168.0294
134.000000 97.623 167.6382
136.000000 97.582 167.3158
138.000000 97.559 166.7904
140.000000 97.527 166.1309
143.000000 97.516 165.2930
145.000000 97.509 164.8411
147.500000 97.498 164.4717
150.000000 97.422 163.9507
152.500000 97.326 163.5228
155.000000 97.237 162.7024
157.500000 97.156 161.9337
160.000000 97.114 161.3970
162.500000 97.122 160.9810
165.000000 97.125 160.2773
167.500000 97.075 159.8879
170.000000 97.026 159.9951
172.500000 96.972 159.9602
175.000000 96.897 159.4292
177.500000 96.833 158.7359
180.000000 96.799 158.2141
182.500000 96.766 157.6727
185.000000 96.676 157.2661
187.500000 96.546 157.2799
190.000000 96.427 157.0517
192.500000 96.314 155.6874
195.000000 96.213 154.1587
197.500000 96.195 153.7182
200.000000 96.229 154.1104
203.000000 96.197 154.8801
206.000000 96.158 155.7238
209.000000 96.135 156.0617
212.000000 96.157 155.5747
214.000000 96.175 154.7756
218.000000 96.154 153.7090
220.000000 96.110 153.3071
224.000000 95.945 152.5831
227.000000 95.873 151.9085
230.000000 95.742 151.2770
233.000000 95.619 151.0123
236.000000 95.634 150.6436
240.000000 95.685 149.8759
243.000000 95.608 149.9683
247.000000 95.562 150.6126
250.000000 95.583 150.7713
254.000000 95.525 150.5990
258.000000 95.293 150.3012
262.000000 95.069 149.0199
265.000000 94.977 148.0875
269.000000 94.929 147.9970
272.000000 94.897 148.0347
276.000000 94.827 147.8647
280.000000 94.716 147.8618
285.000000 94.629 147.2928
290.000000 94.553 146.3987
295.000000 94.412 146.1816
300.000000 94.282 146.0901
304.000000 94.185 145.9120
307.000000 94.111 145.8080
311.000000 93.979 145.5849
315.000000 93.876 145.0704
320.000000 93.822 144.7692
325.000000 93.705 144.6076
330.000000 93.571 144.2017
335.000000 93.492 144.1971
340.000000 93.388 144.4126
345.000000 93.263 144.3213
350.000000 93.145 143.9752
355.000000 93.048 143.5405
360.000000 92.957 143.2088
365.000000 92.848 143.0458
370.000000 92.733 143.1458
375.000000 92.605 143.1436
382.000000 92.429 142.9005
387.000000 92.315 142.7072
395.000000 92.089 143.0298
400.000000 91.993 143.1180
406.000000 91.903 142.7228
412.000000 91.922 142.2889
418.000000 91.881 141.1086
425.000000 91.478 140.2161
431.000000 91.405 139.3923
437.000000 91.610 140.2120
444.000000 91.606 143.6606
450.000000 91.276 143.8474
455.000000 91.051 143.0521
462.000000 90.801 142.3691
468.000000 90.679 143.0060
475.000000 90.536 143.6105
482.000000 90.293 145.8553
487.000000 90.577 148.0692
494.000000 91.064 146.1310
500.000000 90.932 143.7327
508.000000 90.379 144.1119
515.000000 89.872 145.2808
522.000000 89.516 145.3012
530.000000 89.322 145.2745
538.000000 89.173 145.3150
545.000000 89.021 145.2624
552.000000 88.857 145.7246
560.000000 88.654 146.6249
570.000000 88.360 147.3736
580.000000 88.014 147.2844
590.000000 87.973 148.3181
600.000000 87.895 149.0463
608.000000 87.751 149.5074
615.000000 87.633 150.0762
622.000000 87.497 150.7158
630.000000 87.314 151.3707
640.000000 87.111 152.2509
650.000000 86.933 153.0514
660.000000 86.780 153.7848
670.000000 86.641 154.7637
680.000000 86.507 155.7855
690.000000 86.320 156.5378
700.000000 86.167 157.1308
710.000000 86.094 157.8378
720.000000 86.073 158.7158
730.000000 86.108 159.4774
740.000000 85.917 160.3377
750.000000 85.548 161.4602
762.000000 85.225 163.2427
775.000000 84.984 164.9831
788.000000 84.675 166.5376
800.000000 84.552 169.2374
812.000000 84.530 170.5047
825.000000 84.332 171.7130
838.000000 84.131 173.3491
850.000000 84.004 174.8260
862.000000 83.882 176.4283
875.000000 83.729 178.2652
885.000000 83.641 179.8407
900.000000 83.538 -177.6632
912.000000 83.486 -175.8014
925.000000 83.500 -173.9210
938.000000 83.518 -171.9741
950.000000 83.472 -170.1696
962.000000 83.439 -168.4793
975.000000 83.372 -166.6817
988.000000 83.287 -165.0962
1000.000000 83.255 -163.5569
1015.000000 83.265 -161.4800
1030.000000 83.281 -159.4917
1044.000000 83.267 -157.7678
1060.000000 83.241 -155.8628
1075.000000 83.252 -153.8855
1090.000000 83.280 -152.0342
1106.000000 83.327 -150.0993
1120.000000 83.379 -148.4459
1138.000000 83.414 -146.2879
1150.000000 83.435 -144.7542
1172.000000 83.500 -141.8801
1180.000000 83.550 -140.8531
1206.000000 83.687 -137.5817
1220.000000 83.691 -136.5434
1241.000000 83.802 -134.9385
1250.000000 83.887 -134.1033
1265.000000 84.026 -132.7435
1280.000000 84.136 -131.4385
1315.000000 84.356 -128.2401
1320.000000 84.387 -127.7558
1340.000000 84.519 -125.9128
1360.000000 84.629 -124.0948
1380.000000 84.718 -122.3182
1400.000000 84.824 -120.5013
1430.000000 85.055 -117.7360
1450.000000 85.215 -115.9166
1475.000000 85.416 -113.7702
1500.000000 85.618 -111.7885
1525.000000 85.829 -109.9773
1550.000000 86.042 -108.5039
1575.000000 86.261 -106.6927
1600.000000 86.444 -104.9420
1625.000000 86.609 -103.2014
1650.000000 86.800 -101.6108
1675.000000 87.004 -100.0637
1700.000000 87.192 -98.2348
1725.000000 87.376 -96.5402
1750.000000 87.571 -95.1249
1775.000000 87.779 -93.7166
1800.000000 87.986 -92.2900
1825.000000 88.197 -90.8752
1850.000000 88.409 -89.4668
1875.000000 88.621 -88.0923
1900.000000 88.840 -86.7068
1925.000000 89.060 -85.3164
1950.000000 89.287 -83.9690
1975.000000 89.525 -82.6542
2000.000000 89.778 -81.4188
2030.000000 90.092 -80.0361
2060.000000 90.399 -78.7501
2090.000000 90.685 -77.5788
2120.000000 90.975 -76.4582
2140.000000 91.172 -75.7307
2180.000000 91.566 -74.2941
2200.000000 91.766 -73.6079
2240.000000 92.174 -72.3380
2270.000000 92.478 -71.4321
2300.000000 92.786 -70.5943
2330.000000 93.099 -69.8250
2360.000000 93.417 -69.1100
2400.000000 93.846 -68.2161
2430.000000 94.173 -67.6347
2470.000000 94.619 -67.0722
2500.000000 94.959 -66.7993
2540.000000 95.412 -66.6634
2580.000000 95.849 -66.7142
2620.000000 96.270 -66.9126
2650.000000 96.581 -67.1604
2690.000000 96.990 -67.6263
2720.000000 97.287 -68.0861
2760.000000 97.667 -68.8684
2800.000000 98.032 -69.8483
2850.000000 98.461 -71.3076
2900.000000 98.846 -72.9564
2950.000000 99.201 -74.8309
3000.000000 99.515 -76.9368
3040.000000 99.723 -78.7719
3070.000000 99.851 -80.2081
3110.000000 99.980 -82.1453
3150.000000 100.062 -84.0377
3200.000000 100.106 -86.2222
3250.000000 100.102 -88.1488
3300.000000 100.070 -89.7993
3350.000000 100.025 -91.2886
3400.000000 99.974 -92.7712
3450.000000 99.918 -94.2524
3500.000000 99.825 -95.6134
3550.000000 99.690 -96.7528
3600.000000 99.527 -97.6552
3650.000000 99.346 -98.2982
3700.000000 99.161 -98.7036
3750.000000 98.977 -98.8762
3820.000000 98.721 -98.7499
3870.000000 98.546 -98.4394
3950.000000 98.283 -97.6264
4000.000000 98.129 -96.9408
4060.000000 97.964 -95.9779
4120.000000 97.824 -94.8841
4180.000000 97.704 -93.6703
4250.000000 97.590 -92.1541
4310.000000 97.519 -90.8134
4370.000000 97.461 -89.4374
4440.000000 97.407 -87.8082
4500.000000 97.382 -86.4216
4550.000000 97.380 -85.2887
4620.000000 97.397 -83.7365
4680.000000 97.425 -82.4383
4750.000000 97.477 -80.9905
4820.000000 97.555 -79.6367
4870.000000 97.620 -78.7358
4940.000000 97.723 -77.5673
5000.000000 97.827 -76.6801
5080.000000 97.984 -75.6936
5150.000000 98.126 -75.0326
5220.000000 98.268 -74.5769
5300.000000 98.427 -74.2943
5380.000000 98.578 -74.2929
5450.000000 98.695 -74.5189
5520.000000 98.788 -74.9224
5600.000000 98.861 -75.5545
5700.000000 98.887 -76.5042
5800.000000 98.840 -77.5276
5900.000000 98.712 -78.4637
6000.000000 98.523 -79.2131
6080.000000 98.335 -79.5953
6150.000000 98.147 -79.7318
6220.000000 97.943 -79.6722
6300.000000 97.701 -79.3509
6400.000000 97.392 -78.5175
6500.000000 97.098 -77.2145
6600.000000 96.849 -75.6389
6700.000000 96.630 -73.8330
6800.000000 96.451 -71.7549
6900.000000 96.353 -69.4659
7000.000000 96.349 -67.1018
7100.000000 96.426 -64.7714
7200.000000 96.577 -62.5739
7300.000000 96.807 -60.6617
7400.000000 97.106 -59.1583
7500.000000 97.468 -58.1758
7620.000000 97.999 -57.9573
7750.000000 98.642 -59.3250
7880.000000 99.169 -62.7816
8000.000000 99.444 -67.9615
8120.000000 99.410 -74.6420
8250.000000 98.934 -82.3920
8380.000000 98.003 -89.1169
8500.000000 96.835 -93.4318
8620.000000 95.503 -95.6534
8750.000000 94.000 -95.9098
8850.000000 92.861 -94.8629
9000.000000 91.240 -91.7612
9120.000000 90.045 -88.3071
9250.000000 88.855 -83.8674
9380.000000 87.762 -78.8884
9500.000000 86.831 -73.9303
9620.000000 85.973 -68.6870
9750.000000 85.117 -62.6976
9880.000000 84.334 -56.3871
10000.000000 83.679 -50.3276
10150.000000 82.955 -42.5565
10300.000000 82.330 -34.6816
10440.000000 81.814 -27.2714
10600.000000 81.301 -18.7626
10750.000000 80.894 -10.7660
10900.000000 80.549 -2.7426
11060.000000 80.256 5.8283
11200.000000 80.063 13.3248
11380.000000 79.899 22.9510
11500.000000 79.839 29.3525
11720.000000 79.836 41.0134
11800.000000 79.872 45.2182
12060.000000 80.135 58.6986
12200.000000 80.365 65.7972
12410.000000 80.836 76.1469
12500.000000 81.089 80.4423
12650.000000 81.586 87.3581
12800.000000 82.190 93.8841
13150.000000 84.069 106.7267
13200.000000 84.394 108.1607
13400.000000 85.822 112.3500
13600.000000 87.340 113.1062
13800.000000 88.662 109.2707
14000.000000 89.397 101.1338
14300.000000 88.928 87.6575
14500.000000 87.798 82.7809
14750.000000 86.086 82.7023
15000.000000 84.543 87.4088
15250.000000 83.377 94.7244
15500.000000 82.676 103.1726
15750.000000 82.438 111.8196
16000.000000 82.596 119.8973
16250.000000 83.128 126.4593
16500.000000 83.972 130.0582
16750.000000 84.855 128.7534
17000.000000 85.257 121.6296
17250.000000 84.708 111.5990
17500.000000 83.155 104.2047
17750.000000 80.962 102.4163
18000.000000 78.590 105.6697
18250.000000 76.357 112.2711
18500.000000 74.418 120.7924
18750.000000 72.838 130.8183
19000.000000 71.629 142.0929
19250.000000 70.568 154.3420
19500.000000 69.344 167.7259
19750.000000 67.910 -177.2971
20000.000000 66.412 -160.6904
20300.000000 64.827 -139.5402
20600.000000 63.738 -118.5473
20900.000000 63.060 -100.1276
21200.000000 62.567 -94.3557
21400.000000 62.192 -127.8936
21800.000000 60.587 -10.1885
22000.000000 58.825 -3.9067
22400.000000 52.422 162.7603
22700.000000 45.439 173.6221
23000.000000 37.942 99.7148
23300.000000 33.197 148.4844
23600.000000 31.883 18.9922
24000.000000 31.317 177.7969
