* Measurement data measured by REW V5.20.13
* Source: Microphone (Realtek(R) Audio), MICROPHONE (Master Volume), L, volume: 0.730. Timing signal peak level -18.7 dBFS, measurement signal peak level -17.9 dBFS
* Format: 1M Log Swept Sine, 1 sweep at -12.0 dBFS using an acoustic timing reference
* Dated: Apr 7, 2023 3:04:04 PM
* REW Settings:
*  C-weighting compensation: Off
*  Target level: 75.0 dB
* Note: ; Delay -0.0622 ms (-21 mm, -0.84 in) using estimated IR delay relative to Acoustic reference played from HEADPHONE L with no timing offset Clock adjustment: 119.5 ppm
* Measurement: KATO Brass CP145 L
* Smoothing: 1/24 octave
* Frequency Step: 1/48 octave
* Start Frequency: 1.000 Hz
*
* Freq(Hz) SPL(dB) Phase(degrees)
1.000000 81.168 103.3925
1.015000 81.230 103.4706
1.030000 81.287 103.4843
1.044000 81.335 103.4340
1.060000 81.384 103.2965
1.075000 81.423 103.0844
1.090000 81.456 102.7863
1.106000 81.484 102.3727
1.120000 81.499 101.9550
1.138000 81.508 101.3500
1.150000 81.506 100.9044
1.172000 81.491 100.0004
1.180000 81.482 99.6438
1.206000 81.439 98.3837
1.220000 81.409 97.6413
1.241000 81.357 96.4448
1.250000 81.332 95.9018
1.265000 81.288 94.9566
1.280000 81.241 93.9617
1.315000 81.126 91.4485
1.320000 81.109 91.0678
1.340000 81.042 89.4911
1.360000 80.976 87.8290
1.380000 80.913 86.0824
1.400000 80.855 84.2521
1.430000 80.780 81.3515
1.450000 80.740 79.3156
1.475000 80.703 76.6447
1.500000 80.660 73.7335
1.525000 80.609 70.5838
1.550000 80.554 67.2259
1.575000 80.496 63.6900
1.600000 80.440 60.0065
1.625000 80.388 56.2057
1.650000 80.343 52.3177
1.675000 80.307 48.3730
1.700000 80.285 44.4017
1.725000 80.278 40.4342
1.750000 80.290 36.5007
1.775000 80.324 32.6315
1.800000 80.382 28.8570
1.825000 80.468 25.2073
1.850000 80.585 21.6378
1.875000 80.732 17.9967
1.900000 80.907 14.2989
1.925000 81.105 10.5674
1.950000 81.324 6.8249
1.975000 81.561 3.0942
2.000000 81.811 -0.6019
2.030000 82.125 -4.9596
2.060000 82.449 -9.1953
2.090000 82.776 -13.2697
2.120000 83.102 -17.1434
2.140000 83.315 -19.5950
2.180000 83.725 -24.1314
2.200000 83.918 -26.1931
2.240000 84.305 -29.9224
2.270000 84.604 -32.4166
2.300000 84.906 -34.6830
2.330000 85.211 -36.7499
2.360000 85.517 -38.6456
2.400000 85.920 -40.9560
2.430000 86.218 -42.5626
2.470000 86.605 -44.5905
2.500000 86.884 -46.0626
2.540000 87.239 -48.0140
2.580000 87.569 -49.9885
2.620000 87.882 -51.8174
2.650000 88.107 -53.0789
2.690000 88.394 -54.6376
2.720000 88.600 -55.7304
2.760000 88.866 -57.1096
2.800000 89.120 -58.4269
2.850000 89.425 -60.0316
2.900000 89.718 -61.6438
2.950000 90.000 -63.3098
3.000000 90.265 -64.9633
3.040000 90.465 -66.2593
3.070000 90.609 -67.2144
3.110000 90.793 -68.4636
3.150000 90.969 -69.6832
3.200000 91.180 -71.1630
3.250000 91.382 -72.5894
3.300000 91.578 -73.9585
3.350000 91.765 -75.2557
3.400000 91.941 -76.4826
3.450000 92.106 -77.6532
3.500000 92.263 -78.7815
3.550000 92.413 -79.8815
3.600000 92.556 -80.9674
3.650000 92.694 -82.0531
3.700000 92.827 -83.1454
3.750000 92.952 -84.2307
3.820000 93.115 -85.7269
3.870000 93.224 -86.7712
3.950000 93.389 -88.3845
4.000000 93.488 -89.3479
4.060000 93.603 -90.4492
4.120000 93.711 -91.4903
4.180000 93.812 -92.4814
4.250000 93.923 -93.5896
4.310000 94.014 -94.5109
4.370000 94.103 -95.4175
4.440000 94.204 -96.4639
4.500000 94.287 -97.3382
4.550000 94.352 -98.0502
4.620000 94.441 -99.0220
4.680000 94.516 -99.8326
4.750000 94.602 -100.7528
4.820000 94.687 -101.6409
4.870000 94.746 -102.2524
4.940000 94.827 -103.0839
5.000000 94.895 -103.7802
5.080000 94.985 -104.6960
5.150000 95.062 -105.4944
5.220000 95.138 -106.2813
5.300000 95.224 -107.1651
5.380000 95.308 -108.0376
5.450000 95.381 -108.7958
5.520000 95.451 -109.5523
5.600000 95.531 -110.4106
5.700000 95.628 -111.4737
5.800000 95.721 -112.5290
5.900000 95.811 -113.5791
6.000000 95.897 -114.6240
6.080000 95.963 -115.4548
6.150000 96.019 -116.1774
6.220000 96.072 -116.8952
6.300000 96.131 -117.7121
6.400000 96.199 -118.7285
6.500000 96.264 -119.7312
6.600000 96.325 -120.7113
6.700000 96.382 -121.6693
6.800000 96.435 -122.6077
6.900000 96.485 -123.5238
7.000000 96.532 -124.4155
7.100000 96.577 -125.2844
7.200000 96.620 -126.1299
7.300000 96.661 -126.9502
7.400000 96.701 -127.7431
7.500000 96.740 -128.5090
7.620000 96.786 -129.3982
7.750000 96.836 -130.3307
7.880000 96.885 -131.2270
8.000000 96.930 -132.0288
8.120000 96.976 -132.8120
8.250000 97.026 -133.6354
8.380000 97.077 -134.4394
8.500000 97.123 -135.1698
8.620000 97.169 -135.8863
8.750000 97.217 -136.6486
8.850000 97.254 -137.2267
9.000000 97.307 -138.0799
9.120000 97.349 -138.7473
9.250000 97.393 -139.4524
9.380000 97.436 -140.1401
9.500000 97.473 -140.7600
9.620000 97.507 -141.3660
9.750000 97.541 -142.0064
9.880000 97.568 -142.6301
10.000000 97.585 -143.1924
10.150000 97.598 -143.8752
10.300000 97.603 -144.5266
10.440000 97.601 -145.1038
10.600000 97.595 -145.7358
10.750000 97.590 -146.3037
10.900000 97.585 -146.8501
11.060000 97.581 -147.4273
11.200000 97.578 -147.9275
11.380000 97.574 -148.5547
11.500000 97.570 -148.9619
11.720000 97.562 -149.6842
11.800000 97.559 -149.9376
12.060000 97.550 -150.7317
12.200000 97.547 -151.1460
12.410000 97.542 -151.7478
12.500000 97.540 -151.9967
12.650000 97.536 -152.3994
12.800000 97.532 -152.7891
13.150000 97.521 -153.6514
13.200000 97.520 -153.7712
13.400000 97.517 -154.2416
13.600000 97.515 -154.7036
13.800000 97.515 -155.1588
14.000000 97.515 -155.6139
14.300000 97.514 -156.2970
14.500000 97.511 -156.7500
14.750000 97.506 -157.3075
15.000000 97.501 -157.8529
15.250000 97.496 -158.3864
15.500000 97.492 -158.9012
15.750000 97.489 -159.3952
16.000000 97.485 -159.8683
16.250000 97.482 -160.3290
16.500000 97.480 -160.7807
16.750000 97.480 -161.2262
17.000000 97.481 -161.6667
17.250000 97.484 -162.1017
17.500000 97.486 -162.5300
17.750000 97.488 -162.9480
18.000000 97.489 -163.3548
18.250000 97.489 -163.7498
18.500000 97.489 -164.1310
18.750000 97.490 -164.4991
19.000000 97.492 -164.8546
19.250000 97.495 -165.2015
19.500000 97.498 -165.5402
19.750000 97.502 -165.8712
20.000000 97.505 -166.1941
20.299999 97.508 -166.5721
20.600000 97.511 -166.9406
20.900000 97.512 -167.3010
21.200001 97.513 -167.6551
21.400000 97.512 -167.8883
21.799999 97.509 -168.3477
22.000000 97.507 -168.5735
22.400000 97.501 -169.0151
22.700001 97.495 -169.3351
23.000000 97.490 -169.6459
23.299999 97.485 -169.9523
23.600000 97.481 -170.2582
24.000000 97.476 -170.6692
24.299999 97.472 -170.9777
24.700001 97.465 -171.3818
25.000000 97.459 -171.6736
25.400000 97.451 -172.0459
25.799999 97.446 -172.4064
26.200001 97.441 -172.7671
26.500000 97.438 -173.0391
26.900000 97.432 -173.3959
27.200001 97.426 -173.6511
27.600000 97.418 -173.9699
28.000000 97.410 -174.2733
28.500000 97.401 -174.6557
29.000000 97.385 -175.0370
29.500000 97.361 -175.3625
30.000000 97.337 -175.5876
30.400000 97.325 -175.7245
30.700001 97.322 -175.8379
31.100000 97.321 -176.0429
31.500000 97.316 -176.3095
32.000000 97.297 -176.6598
32.500000 97.268 -176.9320
33.000000 97.245 -177.1117
33.500000 97.238 -177.2777
34.000000 97.240 -177.5041
34.500000 97.243 -177.7877
35.000000 97.244 -178.0859
35.500000 97.245 -178.3811
36.000000 97.247 -178.6865
36.500000 97.247 -179.0036
37.000000 97.243 -179.3100
37.500000 97.239 -179.5940
38.200001 97.234 -179.9816
38.700001 97.228 179.7330
39.500000 97.210 179.3013
40.000000 97.197 179.0609
40.599998 97.180 178.7860
41.200001 97.163 178.5142
41.799999 97.144 178.2466
42.500000 97.121 177.9363
43.099998 97.098 177.6902
43.700001 97.078 177.4940
44.400002 97.070 177.2880
45.000000 97.073 177.0378
45.500000 97.074 176.7568
46.200001 97.061 176.3361
46.799999 97.042 176.0289
47.500000 97.024 175.7267
48.200001 97.011 175.4350
48.700001 97.000 175.2292
49.400002 96.985 174.9553
50.000000 96.972 174.7325
50.799999 96.953 174.4517
51.500000 96.937 174.2183
52.200001 96.920 173.9830
53.000000 96.898 173.7113
53.799999 96.874 173.4490
54.500000 96.854 173.2232
55.200001 96.834 172.9963
56.000000 96.814 172.7310
57.000000 96.790 172.3915
58.000000 96.771 172.0583
59.000000 96.753 171.6571
60.000000 96.713 171.2677
60.799999 96.678 171.0909
61.500000 96.658 170.9784
62.200001 96.642 170.8332
63.000000 96.622 170.6353
64.000000 96.593 170.3813
65.000000 96.560 170.1244
66.000000 96.526 169.8819
67.000000 96.494 169.6367
68.000000 96.463 169.3819
69.000000 96.431 169.1299
70.000000 96.398 168.8883
71.000000 96.366 168.6642
72.000000 96.334 168.4507
73.000000 96.302 168.2436
74.000000 96.269 168.0439
75.000000 96.236 167.8467
76.199997 96.197 167.6102
77.500000 96.155 167.3561
78.800003 96.112 167.1042
80.000000 96.071 166.8825
81.199997 96.030 166.6766
82.500000 95.986 166.4760
83.800003 95.945 166.2773
85.000000 95.907 166.0818
86.199997 95.869 165.8882
87.500000 95.826 165.6934
88.500000 95.793 165.5574
90.000000 95.747 165.3627
91.199997 95.710 165.1962
92.500000 95.670 165.0128
93.800003 95.628 164.8430
95.000000 95.590 164.6987
96.199997 95.552 164.5586
97.500000 95.510 164.4119
98.800003 95.468 164.2708
100.000000 95.428 164.1447
101.500000 95.379 163.9926
103.000000 95.329 163.8465
104.400002 95.284 163.7233
106.000000 95.235 163.5848
107.500000 95.187 163.4524
109.000000 95.137 163.3286
110.599998 95.083 163.2053
112.000000 95.037 163.0975
113.800003 94.980 162.9636
115.000000 94.941 162.8862
117.199997 94.867 162.7929
118.000000 94.840 162.7739
120.599998 94.762 162.6694
122.000000 94.720 162.5724
124.099998 94.656 162.4360
125.000000 94.630 162.3871
126.500000 94.587 162.3247
128.000000 94.545 162.2817
131.500000 94.449 162.1797
132.000000 94.436 162.1600
134.000000 94.381 162.0780
136.000000 94.327 162.0171
138.000000 94.277 161.9756
140.000000 94.228 161.9307
143.000000 94.153 161.8698
145.000000 94.103 161.8506
147.500000 94.042 161.8408
150.000000 93.981 161.8290
152.500000 93.919 161.8136
155.000000 93.857 161.8015
157.500000 93.795 161.8092
160.000000 93.736 161.8279
162.500000 93.676 161.8472
165.000000 93.614 161.8819
167.500000 93.552 161.9385
170.000000 93.491 161.9930
172.500000 93.429 162.0447
175.000000 93.368 162.1046
177.500000 93.312 162.1583
180.000000 93.252 162.2095
182.500000 93.188 162.2996
185.000000 93.125 162.4111
187.500000 93.066 162.5078
190.000000 93.009 162.5978
192.500000 92.953 162.7006
195.000000 92.899 162.8170
197.500000 92.847 162.9282
200.000000 92.797 163.0212
203.000000 92.737 163.1371
206.000000 92.677 163.2881
209.000000 92.617 163.4596
212.000000 92.557 163.6204
214.000000 92.518 163.7219
218.000000 92.442 163.9302
220.000000 92.404 164.0422
224.000000 92.329 164.2741
227.000000 92.273 164.4490
230.000000 92.219 164.6301
233.000000 92.168 164.8123
236.000000 92.118 164.9964
240.000000 92.050 165.2442
243.000000 91.999 165.4363
247.000000 91.934 165.7093
250.000000 91.888 165.9180
254.000000 91.826 166.1905
258.000000 91.767 166.4663
262.000000 91.712 166.7460
265.000000 91.670 166.9510
269.000000 91.614 167.2231
272.000000 91.575 167.4379
276.000000 91.526 167.7387
280.000000 91.478 168.0389
285.000000 91.421 168.4027
290.000000 91.364 168.7579
295.000000 91.309 169.1219
300.000000 91.254 169.5019
304.000000 91.212 169.7978
307.000000 91.182 170.0225
311.000000 91.142 170.3342
315.000000 91.101 170.6451
320.000000 91.052 171.0268
325.000000 91.005 171.4071
330.000000 90.958 171.7897
335.000000 90.916 172.1923
340.000000 90.875 172.5885
345.000000 90.831 172.9574
350.000000 90.788 173.3284
355.000000 90.746 173.7140
360.000000 90.704 174.1109
365.000000 90.666 174.5157
370.000000 90.630 174.9115
375.000000 90.593 175.3098
382.000000 90.542 175.8807
387.000000 90.505 176.2733
395.000000 90.452 176.8782
400.000000 90.421 177.2702
406.000000 90.383 177.7494
412.000000 90.345 178.2137
418.000000 90.308 178.6713
425.000000 90.269 179.2056
431.000000 90.236 179.6735
437.000000 90.202 -179.8492
444.000000 90.164 -179.2966
450.000000 90.131 -178.8398
455.000000 90.102 -178.4611
462.000000 90.062 -177.9237
468.000000 90.030 -177.4570
475.000000 89.993 -176.8962
482.000000 89.957 -176.3266
487.000000 89.933 -175.9212
494.000000 89.900 -175.3496
500.000000 89.874 -174.8519
508.000000 89.845 -174.1710
515.000000 89.824 -173.5705
522.000000 89.802 -172.9767
530.000000 89.780 -172.3030
538.000000 89.764 -171.6254
545.000000 89.751 -171.0349
552.000000 89.737 -170.4507
560.000000 89.722 -169.7793
570.000000 89.707 -168.9610
580.000000 89.695 -168.1543
590.000000 89.686 -167.3477
600.000000 89.675 -166.5619
608.000000 89.668 -165.9107
615.000000 89.663 -165.3338
622.000000 89.658 -164.7659
630.000000 89.651 -164.1317
640.000000 89.642 -163.3351
650.000000 89.637 -162.5316
660.000000 89.635 -161.7229
670.000000 89.634 -160.9045
680.000000 89.634 -160.1003
690.000000 89.638 -159.2980
700.000000 89.646 -158.4904
710.000000 89.654 -157.6868
720.000000 89.663 -156.8886
730.000000 89.676 -156.0791
740.000000 89.692 -155.2608
750.000000 89.710 -154.4548
762.000000 89.730 -153.4940
775.000000 89.755 -152.4478
788.000000 89.785 -151.3974
800.000000 89.816 -150.4167
812.000000 89.850 -149.4669
825.000000 89.893 -148.4580
838.000000 89.941 -147.4283
850.000000 89.988 -146.4758
862.000000 90.038 -145.5478
875.000000 90.096 -144.5614
885.000000 90.144 -143.8081
900.000000 90.222 -142.6940
912.000000 90.288 -141.8195
925.000000 90.364 -140.8937
938.000000 90.444 -140.0002
950.000000 90.519 -139.1844
962.000000 90.594 -138.3786
975.000000 90.679 -137.5327
988.000000 90.768 -136.7371
1000.000000 90.852 -136.0418
1015.000000 90.960 -135.1967
1030.000000 91.071 -134.3754
1044.000000 91.175 -133.6534
1060.000000 91.295 -132.8850
1075.000000 91.412 -132.2040
1090.000000 91.533 -131.5488
1106.000000 91.670 -130.8956
1120.000000 91.794 -130.3701
1138.000000 91.952 -129.7500
1150.000000 92.056 -129.3583
1172.000000 92.245 -128.6653
1180.000000 92.314 -128.4294
1206.000000 92.532 -127.7468
1220.000000 92.651 -127.4116
1241.000000 92.828 -126.9228
1250.000000 92.903 -126.7243
1265.000000 93.026 -126.4108
1280.000000 93.148 -126.1155
1315.000000 93.419 -125.4897
1320.000000 93.456 -125.4020
1340.000000 93.597 -125.0512
1360.000000 93.716 -124.7363
1380.000000 93.829 -124.4521
1400.000000 93.954 -124.1547
1430.000000 94.143 -123.7146
1450.000000 94.268 -123.4447
1475.000000 94.423 -123.1126
1500.000000 94.572 -122.7847
1525.000000 94.718 -122.4543
1550.000000 94.862 -122.1444
1575.000000 95.000 -121.8574
1600.000000 95.134 -121.5525
1625.000000 95.267 -121.2616
1650.000000 95.400 -121.0096
1675.000000 95.533 -120.7576
1700.000000 95.664 -120.5105
1725.000000 95.791 -120.2830
1750.000000 95.918 -120.0617
1775.000000 96.045 -119.8650
1800.000000 96.168 -119.6950
1825.000000 96.289 -119.5180
1850.000000 96.409 -119.3506
1875.000000 96.528 -119.2234
1900.000000 96.647 -119.1079
1925.000000 96.762 -118.9751
1950.000000 96.874 -118.8427
1975.000000 96.987 -118.7180
2000.000000 97.102 -118.5814
2030.000000 97.249 -118.4103
2060.000000 97.405 -118.2726
2090.000000 97.572 -118.2095
2120.000000 97.743 -118.2886
2140.000000 97.856 -118.4362
2180.000000 98.062 -118.8738
2200.000000 98.152 -119.1244
2240.000000 98.311 -119.6781
2270.000000 98.418 -120.1253
2300.000000 98.513 -120.5652
2330.000000 98.598 -121.0003
2360.000000 98.673 -121.4363
2400.000000 98.761 -122.0027
2430.000000 98.820 -122.4276
2470.000000 98.887 -122.9927
2500.000000 98.927 -123.3865
2540.000000 98.970 -123.8941
2580.000000 99.007 -124.4211
2620.000000 99.031 -124.9270
2650.000000 99.039 -125.2836
2690.000000 99.037 -125.7524
2720.000000 99.027 -126.0865
2760.000000 99.003 -126.4800
2800.000000 98.966 -126.8139
2850.000000 98.904 -127.1261
2900.000000 98.828 -127.2942
2950.000000 98.747 -127.3352
3000.000000 98.661 -127.1958
3040.000000 98.594 -126.9477
3070.000000 98.551 -126.7006
3110.000000 98.509 -126.3079
3150.000000 98.486 -125.8871
3200.000000 98.482 -125.4396
3250.000000 98.488 -125.1600
3300.000000 98.485 -125.0225
3350.000000 98.466 -124.9599
3400.000000 98.431 -124.8784
3450.000000 98.384 -124.7076
3500.000000 98.338 -124.4625
3550.000000 98.294 -124.1569
3600.000000 98.253 -123.7842
3650.000000 98.214 -123.3607
3700.000000 98.181 -122.9076
3750.000000 98.154 -122.4325
3820.000000 98.127 -121.7665
3870.000000 98.112 -121.3091
3950.000000 98.084 -120.6035
4000.000000 98.069 -120.2127
4060.000000 98.049 -119.7994
4120.000000 98.014 -119.3992
4180.000000 97.960 -118.9381
4250.000000 97.886 -118.1548
4310.000000 97.851 -117.2225
4370.000000 97.868 -116.3251
4440.000000 97.918 -115.6805
4500.000000 97.947 -115.4359
4550.000000 97.956 -115.3702
4620.000000 97.944 -115.4115
4680.000000 97.901 -115.4964
4750.000000 97.806 -115.5382
4820.000000 97.673 -115.3374
4870.000000 97.574 -114.9440
4940.000000 97.472 -114.1029
5000.000000 97.429 -113.4014
5080.000000 97.390 -112.7550
5150.000000 97.342 -112.3025
5220.000000 97.294 -111.8609
5300.000000 97.241 -111.3790
5380.000000 97.187 -110.9332
5450.000000 97.139 -110.5883
5520.000000 97.093 -110.2971
5600.000000 97.039 -110.0266
5700.000000 96.960 -109.7977
5800.000000 96.863 -109.7268
5900.000000 96.731 -109.8026
6000.000000 96.549 -109.9634
6080.000000 96.353 -110.0328
6150.000000 96.142 -109.9296
6220.000000 95.901 -109.5757
6300.000000 95.608 -108.7804
6400.000000 95.251 -107.1492
6500.000000 94.940 -104.8967
6600.000000 94.706 -102.2537
6700.000000 94.559 -99.4298
6800.000000 94.497 -96.5581
6900.000000 94.525 -93.7084
7000.000000 94.643 -90.9218
7100.000000 94.841 -88.2570
7200.000000 95.123 -85.8052
7300.000000 95.491 -83.7009
7400.000000 95.940 -82.1271
7500.000000 96.462 -81.3156
7620.000000 97.158 -81.6647
7750.000000 97.894 -83.9764
7880.000000 98.395 -88.3450
8000.000000 98.554 -93.7454
8120.000000 98.384 -99.5621
8250.000000 97.848 -105.1898
8380.000000 97.031 -109.2654
8500.000000 96.132 -111.3968
8620.000000 95.182 -112.0832
8750.000000 94.157 -111.4678
8850.000000 93.396 -110.2183
9000.000000 92.326 -107.3713
9120.000000 91.544 -104.4472
9250.000000 90.775 -100.7916
9380.000000 90.087 -96.7557
9500.000000 89.522 -92.7746
9620.000000 89.019 -88.5999
9750.000000 88.547 -83.9243
9880.000000 88.155 -79.1396
10000.000000 87.856 -74.6468
10150.000000 87.557 -68.9622
10300.000000 87.347 -63.2510
10440.000000 87.237 -57.9423
10600.000000 87.215 -51.9480
10750.000000 87.303 -46.4689
10900.000000 87.502 -41.2150
11060.000000 87.847 -35.9892
11200.000000 88.273 -31.8836
11380.000000 88.995 -27.5123
11500.000000 89.582 -25.3892
11720.000000 90.839 -23.9536
11800.000000 91.326 -24.4729
12060.000000 92.715 -31.0487
12200.000000 93.114 -37.5892
12410.000000 92.966 -49.0813
12500.000000 92.620 -53.6301
12650.000000 91.742 -59.6031
12800.000000 90.631 -63.1170
13150.000000 87.930 -63.1476
13200.000000 87.578 -62.4897
13400.000000 86.304 -58.8446
13600.000000 85.253 -54.0683
13800.000000 84.411 -48.6099
14000.000000 83.756 -42.7881
14300.000000 83.072 -33.8180
14500.000000 82.788 -27.8292
14750.000000 82.628 -20.5600
15000.000000 82.681 -13.8815
15250.000000 82.960 -8.1889
15500.000000 83.526 -4.0879
15750.000000 84.373 -2.6605
16000.000000 85.325 -5.7980
16250.000000 85.949 -15.6735
16500.000000 85.605 -31.5319
16750.000000 83.893 -47.2871
17000.000000 80.894 -55.3191
17250.000000 77.247 -53.7638
17500.000000 74.039 -55.7364
17750.000000 71.712 -107.0000
18000.000000 70.132 115.4108
18250.000000 68.965 11.3683
18500.000000 67.899 -12.9810
18750.000000 67.073 -12.3942
19000.000000 66.487 -8.4026
19250.000000 66.011 -3.6887
19500.000000 65.613 1.8464
19750.000000 65.263 8.4819
20000.000000 64.895 16.4208
20300.000000 64.497 27.7500
20600.000000 64.276 40.8899
20900.000000 64.244 55.8812
21200.000000 64.428 72.1158
21400.000000 64.704 83.0231
21800.000000 65.542 98.5891
22000.000000 65.948 81.9804
22400.000000 65.816 -160.9091
22700.000000 63.526 116.0737
23000.000000 58.758 134.5645
23300.000000 53.919 -162.0000
23600.000000 52.363 42.1055
24000.000000 52.344 -170.0195
