* Measurement data measured by REW V5.20.13
* Source: Microphone (Realtek(R) Audio), MICROPHONE (Master Volume), L, volume: 0.730. Timing signal peak level -19.0 dBFS, measurement signal peak level -17.4 dBFS
* Format: 1M Log Swept Sine, 1 sweep at -12.0 dBFS using an acoustic timing reference
* Dated: Apr 7, 2023 3:00:38 PM
* REW Settings:
*  C-weighting compensation: Off
*  Target level: 75.0 dB
* Note: ; Delay -0.0551 ms (-19 mm, -0.74 in) using estimated IR delay relative to Acoustic reference played from HEADPHONE R with no timing offset Clock adjustment: 119.3 ppm
* Measurement: KATO Brass W1 R
* Smoothing: 1/24 octave
* Frequency Step: 1/48 octave
* Start Frequency: 1.000 Hz
*
* Freq(Hz) SPL(dB) Phase(degrees)
1.000000 81.808 108.6731
1.015000 81.856 108.8529
1.030000 81.899 108.9610
1.044000 81.933 108.9920
1.060000 81.965 108.9379
1.075000 81.988 108.7943
1.090000 82.004 108.5543
1.106000 82.013 108.1912
1.120000 82.011 107.8128
1.138000 81.995 107.2527
1.150000 81.977 106.8335
1.172000 81.930 105.9704
1.180000 81.909 105.6263
1.206000 81.826 104.3974
1.220000 81.774 103.6659
1.241000 81.687 102.4776
1.250000 81.648 101.9350
1.265000 81.579 100.9867
1.280000 81.507 99.9833
1.315000 81.334 97.4298
1.320000 81.309 97.0409
1.340000 81.208 95.4253
1.360000 81.110 93.7143
1.380000 81.015 91.9085
1.400000 80.926 90.0085
1.430000 80.806 86.9833
1.450000 80.739 84.8506
1.475000 80.669 82.0410
1.500000 80.592 78.9575
1.525000 80.506 75.6027
1.550000 80.415 72.0118
1.575000 80.322 68.2200
1.600000 80.230 64.2625
1.625000 80.144 60.1744
1.650000 80.066 55.9910
1.675000 80.001 51.7474
1.700000 79.951 47.4788
1.725000 79.920 43.2205
1.750000 79.912 39.0075
1.775000 79.931 34.8751
1.800000 79.979 30.8585
1.825000 80.061 26.9928
1.850000 80.180 23.2300
1.875000 80.338 19.4012
1.900000 80.530 15.5215
1.925000 80.751 11.6145
1.950000 80.998 7.7038
1.975000 81.266 3.8130
2.000000 81.551 -0.0343
2.030000 81.908 -4.5604
2.060000 82.276 -8.9491
2.090000 82.647 -13.1597
2.120000 83.013 -17.1514
2.140000 83.251 -19.6709
2.180000 83.701 -24.3152
2.200000 83.909 -26.4160
2.240000 84.320 -30.1795
2.270000 84.633 -32.6622
2.300000 84.948 -34.8909
2.330000 85.263 -36.8991
2.360000 85.577 -38.7206
2.400000 85.989 -40.9165
2.430000 86.292 -42.4327
2.470000 86.684 -44.3435
2.500000 86.967 -45.7373
2.540000 87.326 -47.6070
2.580000 87.661 -49.5338
2.620000 87.977 -51.3299
2.650000 88.203 -52.5721
2.690000 88.490 -54.1117
2.720000 88.696 -55.1945
2.760000 88.959 -56.5654
2.800000 89.211 -57.8792
2.850000 89.513 -59.4852
2.900000 89.804 -61.1029
2.950000 90.084 -62.7777
3.000000 90.349 -64.4485
3.040000 90.548 -65.7644
3.070000 90.691 -66.7371
3.110000 90.874 -68.0125
3.150000 91.050 -69.2606
3.200000 91.260 -70.7772
3.250000 91.462 -72.2400
3.300000 91.658 -73.6426
3.350000 91.845 -74.9710
3.400000 92.021 -76.2282
3.450000 92.187 -77.4294
3.500000 92.344 -78.5895
3.550000 92.494 -79.7235
3.600000 92.638 -80.8465
3.650000 92.777 -81.9735
3.700000 92.911 -83.1123
3.750000 93.037 -84.2496
3.820000 93.202 -85.8249
3.870000 93.312 -86.9283
3.950000 93.480 -88.6360
4.000000 93.580 -89.6561
4.060000 93.697 -90.8210
4.120000 93.806 -91.9227
4.180000 93.909 -92.9730
4.250000 94.022 -94.1494
4.310000 94.115 -95.1297
4.370000 94.206 -96.0969
4.440000 94.308 -97.2177
4.500000 94.391 -98.1591
4.550000 94.458 -98.9282
4.620000 94.547 -99.9799
4.680000 94.622 -100.8568
4.750000 94.708 -101.8497
4.820000 94.792 -102.8046
4.870000 94.851 -103.4619
4.940000 94.931 -104.3545
5.000000 94.998 -105.1004
5.080000 95.085 -106.0781
5.150000 95.161 -106.9267
5.220000 95.235 -107.7610
5.300000 95.317 -108.6950
5.380000 95.398 -109.6121
5.450000 95.467 -110.4037
5.520000 95.535 -111.1876
5.600000 95.611 -112.0701
5.700000 95.703 -113.1541
5.800000 95.792 -114.2206
5.900000 95.877 -115.2731
6.000000 95.959 -116.3096
6.080000 96.023 -117.1273
6.150000 96.077 -117.8350
6.220000 96.128 -118.5356
6.300000 96.185 -119.3293
6.400000 96.253 -120.3103
6.500000 96.317 -121.2734
6.600000 96.379 -122.2126
6.700000 96.437 -123.1269
6.800000 96.492 -124.0190
6.900000 96.545 -124.8897
7.000000 96.596 -125.7396
7.100000 96.644 -126.5685
7.200000 96.691 -127.3762
7.300000 96.737 -128.1625
7.400000 96.782 -128.9261
7.500000 96.825 -129.6665
7.620000 96.876 -130.5300
7.750000 96.930 -131.4412
7.880000 96.983 -132.3238
8.000000 97.031 -133.1169
8.120000 97.079 -133.8931
8.250000 97.129 -134.7124
8.380000 97.179 -135.5126
8.500000 97.224 -136.2375
8.620000 97.267 -136.9480
8.750000 97.312 -137.7011
8.850000 97.345 -138.2691
9.000000 97.393 -139.1032
9.120000 97.430 -139.7521
9.250000 97.469 -140.4339
9.380000 97.507 -141.0949
9.500000 97.540 -141.6890
9.620000 97.570 -142.2689
9.750000 97.600 -142.8799
9.880000 97.623 -143.4755
10.000000 97.637 -144.0136
10.150000 97.647 -144.6678
10.300000 97.649 -145.2943
10.440000 97.644 -145.8516
10.600000 97.634 -146.4641
10.750000 97.626 -147.0164
10.900000 97.618 -147.5495
11.060000 97.610 -148.1135
11.200000 97.605 -148.6030
11.380000 97.597 -149.2168
11.500000 97.591 -149.6147
11.720000 97.579 -150.3208
11.800000 97.575 -150.5687
12.060000 97.564 -151.3462
12.200000 97.559 -151.7543
12.410000 97.554 -152.3503
12.500000 97.551 -152.5986
12.650000 97.547 -153.0027
12.800000 97.542 -153.3961
13.150000 97.530 -154.2753
13.200000 97.529 -154.3976
13.400000 97.524 -154.8788
13.600000 97.520 -155.3488
13.800000 97.517 -155.8075
14.000000 97.514 -156.2601
14.300000 97.509 -156.9280
14.500000 97.504 -157.3636
14.750000 97.498 -157.8956
15.000000 97.493 -158.4136
15.250000 97.490 -158.9224
15.500000 97.488 -159.4174
15.750000 97.487 -159.8972
16.000000 97.485 -160.3611
16.250000 97.483 -160.8147
16.500000 97.481 -161.2593
16.750000 97.480 -161.6953
17.000000 97.481 -162.1230
17.250000 97.483 -162.5424
17.500000 97.485 -162.9537
17.750000 97.487 -163.3562
18.000000 97.489 -163.7504
18.250000 97.490 -164.1371
18.500000 97.491 -164.5140
18.750000 97.492 -164.8802
19.000000 97.493 -165.2349
19.250000 97.495 -165.5802
19.500000 97.498 -165.9161
19.750000 97.501 -166.2431
20.000000 97.504 -166.5624
20.299999 97.507 -166.9377
20.600000 97.509 -167.3053
20.900000 97.509 -167.6646
21.200001 97.509 -168.0134
21.400000 97.507 -168.2386
21.799999 97.503 -168.6718
22.000000 97.501 -168.8812
22.400000 97.497 -169.2909
22.700001 97.494 -169.5941
23.000000 97.491 -169.8963
23.299999 97.488 -170.1965
23.600000 97.483 -170.4911
24.000000 97.476 -170.8687
24.299999 97.472 -171.1392
24.700001 97.469 -171.4895
25.000000 97.469 -171.7540
25.400000 97.470 -172.1210
25.799999 97.469 -172.5078
26.200001 97.466 -172.9029
26.500000 97.461 -173.1923
26.900000 97.452 -173.5555
27.200001 97.445 -173.8076
27.600000 97.437 -174.1222
28.000000 97.431 -174.4262
28.500000 97.427 -174.8101
29.000000 97.422 -175.1986
29.500000 97.414 -175.5733
30.000000 97.405 -175.9206
30.400000 97.398 -176.1845
30.700001 97.392 -176.3816
31.100000 97.386 -176.6515
31.500000 97.378 -176.9301
32.000000 97.366 -177.2784
32.500000 97.351 -177.6088
33.000000 97.335 -177.9166
33.500000 97.321 -178.2126
34.000000 97.308 -178.5080
34.500000 97.297 -178.8050
35.000000 97.286 -179.0995
35.500000 97.275 -179.3891
36.000000 97.264 -179.6754
36.500000 97.253 -179.9592
37.000000 97.241 179.7620
37.500000 97.229 179.4907
38.200001 97.212 179.1232
38.700001 97.200 178.8660
39.500000 97.180 178.4608
40.000000 97.167 178.2157
40.599998 97.152 177.9336
41.200001 97.137 177.6584
41.799999 97.121 177.3810
42.500000 97.100 177.0659
43.099998 97.082 176.8293
43.700001 97.068 176.6169
44.400002 97.057 176.3426
45.000000 97.045 176.0616
45.500000 97.029 175.8226
46.200001 97.003 175.5281
46.799999 96.982 175.3100
47.500000 96.963 175.0522
48.200001 96.944 174.7791
48.700001 96.929 174.5862
49.400002 96.907 174.3305
50.000000 96.888 174.1270
50.799999 96.864 173.8800
51.500000 96.845 173.6823
52.200001 96.827 173.4907
53.000000 96.808 173.2678
53.799999 96.788 173.0390
54.500000 96.768 172.8456
55.200001 96.750 172.6601
56.000000 96.731 172.4366
57.000000 96.710 172.1384
58.000000 96.693 171.7993
59.000000 96.667 171.3990
60.000000 96.628 171.1131
60.799999 96.610 170.9590
61.500000 96.602 170.7890
62.200001 96.592 170.5841
63.000000 96.575 170.3468
64.000000 96.549 170.0553
65.000000 96.518 169.7838
66.000000 96.487 169.5299
67.000000 96.456 169.2680
68.000000 96.423 169.0050
69.000000 96.389 168.7485
70.000000 96.354 168.5042
71.000000 96.321 168.2741
72.000000 96.288 168.0602
73.000000 96.255 167.8599
74.000000 96.222 167.6674
75.000000 96.189 167.4741
76.199997 96.148 167.2443
77.500000 96.104 167.0017
78.800003 96.061 166.7628
80.000000 96.022 166.5511
81.199997 95.985 166.3453
82.500000 95.945 166.1354
83.800003 95.906 165.9187
85.000000 95.868 165.7167
86.199997 95.831 165.5278
87.500000 95.792 165.3219
88.500000 95.762 165.1641
90.000000 95.716 164.9360
91.199997 95.678 164.7566
92.500000 95.635 164.5807
93.800003 95.592 164.4262
95.000000 95.554 164.2823
96.199997 95.515 164.1354
97.500000 95.472 163.9841
98.800003 95.432 163.8344
100.000000 95.395 163.6984
101.500000 95.349 163.5388
103.000000 95.303 163.3824
104.400002 95.256 163.2349
106.000000 95.200 163.0828
107.500000 95.149 162.9536
109.000000 95.099 162.8213
110.599998 95.046 162.6847
112.000000 95.001 162.5698
113.800003 94.945 162.4293
115.000000 94.909 162.3387
117.199997 94.845 162.1761
118.000000 94.822 162.1152
120.599998 94.740 161.9384
122.000000 94.695 161.8826
124.099998 94.632 161.7946
125.000000 94.605 161.7502
126.500000 94.561 161.6721
128.000000 94.518 161.5971
131.500000 94.417 161.4482
132.000000 94.402 161.4297
134.000000 94.344 161.3614
136.000000 94.290 161.3022
138.000000 94.240 161.2490
140.000000 94.190 161.2012
143.000000 94.114 161.1346
145.000000 94.062 161.0946
147.500000 93.998 161.0651
150.000000 93.936 161.0490
152.500000 93.873 161.0420
155.000000 93.810 161.0476
157.500000 93.747 161.0667
160.000000 93.684 161.0814
162.500000 93.624 161.0948
165.000000 93.565 161.1167
167.500000 93.503 161.1492
170.000000 93.441 161.1757
172.500000 93.378 161.2127
175.000000 93.314 161.2752
177.500000 93.247 161.3513
180.000000 93.184 161.4280
182.500000 93.127 161.4815
185.000000 93.069 161.5405
187.500000 93.009 161.6208
190.000000 92.950 161.6999
192.500000 92.894 161.7681
195.000000 92.840 161.8503
197.500000 92.787 161.9465
200.000000 92.733 162.0463
203.000000 92.671 162.1749
206.000000 92.610 162.3076
209.000000 92.549 162.4496
212.000000 92.490 162.6025
214.000000 92.451 162.7065
218.000000 92.375 162.9151
220.000000 92.337 163.0210
224.000000 92.261 163.2436
227.000000 92.206 163.4139
230.000000 92.152 163.5780
233.000000 92.099 163.7547
236.000000 92.046 163.9565
240.000000 91.974 164.2130
243.000000 91.922 164.3787
247.000000 91.859 164.6075
250.000000 91.813 164.7902
254.000000 91.751 165.0471
258.000000 91.690 165.3134
262.000000 91.632 165.5797
265.000000 91.590 165.7804
269.000000 91.534 166.0424
272.000000 91.493 166.2358
276.000000 91.440 166.5092
280.000000 91.389 166.8023
285.000000 91.329 167.1683
290.000000 91.271 167.5224
295.000000 91.217 167.8704
300.000000 91.162 168.2216
304.000000 91.116 168.5078
307.000000 91.083 168.7191
311.000000 91.041 168.9996
315.000000 91.003 169.2892
320.000000 90.957 169.6597
325.000000 90.911 170.0236
330.000000 90.865 170.3832
335.000000 90.818 170.7522
340.000000 90.772 171.1311
345.000000 90.727 171.5120
350.000000 90.683 171.8922
355.000000 90.638 172.2710
360.000000 90.593 172.6494
365.000000 90.550 173.0276
370.000000 90.509 173.4083
375.000000 90.470 173.7918
382.000000 90.414 174.3346
387.000000 90.374 174.7337
395.000000 90.314 175.3532
400.000000 90.278 175.7393
406.000000 90.235 176.2057
412.000000 90.194 176.6666
418.000000 90.156 177.1246
425.000000 90.111 177.6753
431.000000 90.074 178.1490
437.000000 90.038 178.6108
444.000000 89.998 179.1461
450.000000 89.964 179.6077
455.000000 89.935 -179.9996
462.000000 89.895 -179.4444
468.000000 89.863 -178.9782
475.000000 89.827 -178.4376
482.000000 89.794 -177.8862
487.000000 89.773 -177.4885
494.000000 89.746 -176.9369
500.000000 89.722 -176.4599
508.000000 89.690 -175.8217
515.000000 89.664 -175.2727
522.000000 89.640 -174.7262
530.000000 89.613 -174.0871
538.000000 89.588 -173.4267
545.000000 89.568 -172.8526
552.000000 89.550 -172.2778
560.000000 89.532 -171.6159
570.000000 89.512 -170.7846
580.000000 89.498 -169.9352
590.000000 89.488 -169.0805
600.000000 89.482 -168.2599
608.000000 89.481 -167.6244
615.000000 89.479 -167.0766
622.000000 89.474 -166.5349
630.000000 89.467 -165.9200
640.000000 89.461 -165.1451
650.000000 89.456 -164.3637
660.000000 89.453 -163.5957
670.000000 89.450 -162.8466
680.000000 89.448 -162.0884
690.000000 89.450 -161.3148
700.000000 89.453 -160.5313
710.000000 89.458 -159.7514
720.000000 89.465 -158.9740
730.000000 89.475 -158.1809
740.000000 89.488 -157.3876
750.000000 89.502 -156.5950
762.000000 89.521 -155.6435
775.000000 89.543 -154.6163
788.000000 89.569 -153.5914
800.000000 89.598 -152.6403
812.000000 89.631 -151.6900
825.000000 89.669 -150.6694
838.000000 89.713 -149.6576
850.000000 89.758 -148.7286
862.000000 89.806 -147.8098
875.000000 89.862 -146.8360
885.000000 89.908 -146.0968
900.000000 89.981 -144.9957
912.000000 90.046 -144.1254
925.000000 90.121 -143.2019
938.000000 90.199 -142.3048
950.000000 90.274 -141.5016
962.000000 90.351 -140.7236
975.000000 90.437 -139.9062
988.000000 90.526 -139.1113
1000.000000 90.609 -138.4080
1015.000000 90.716 -137.5780
1030.000000 90.827 -136.7939
1044.000000 90.932 -136.0960
1060.000000 91.055 -135.3410
1075.000000 91.170 -134.6832
1090.000000 91.291 -134.0714
1106.000000 91.430 -133.4667
1120.000000 91.554 -132.9754
1138.000000 91.711 -132.3943
1150.000000 91.815 -132.0329
1172.000000 92.002 -131.4076
1180.000000 92.069 -131.1947
1206.000000 92.280 -130.5709
1220.000000 92.394 -130.2704
1241.000000 92.566 -129.8497
1250.000000 92.639 -129.6778
1265.000000 92.756 -129.4023
1280.000000 92.870 -129.1410
1315.000000 93.126 -128.5787
1320.000000 93.161 -128.5016
1340.000000 93.293 -128.1976
1360.000000 93.402 -127.9085
1380.000000 93.507 -127.6249
1400.000000 93.623 -127.3361
1430.000000 93.803 -126.9222
1450.000000 93.920 -126.6555
1475.000000 94.065 -126.3177
1500.000000 94.205 -125.9783
1525.000000 94.341 -125.6409
1550.000000 94.471 -125.3093
1575.000000 94.600 -124.9868
1600.000000 94.727 -124.6603
1625.000000 94.852 -124.3397
1650.000000 94.977 -124.0294
1675.000000 95.104 -123.7309
1700.000000 95.229 -123.4475
1725.000000 95.352 -123.1724
1750.000000 95.474 -122.9024
1775.000000 95.595 -122.6506
1800.000000 95.716 -122.4180
1825.000000 95.836 -122.1946
1850.000000 95.955 -121.9860
1875.000000 96.072 -121.7961
1900.000000 96.187 -121.6150
1925.000000 96.299 -121.4370
1950.000000 96.409 -121.2645
1975.000000 96.517 -121.0887
2000.000000 96.623 -120.8912
2030.000000 96.749 -120.6097
2060.000000 96.882 -120.2600
2090.000000 97.031 -119.8393
2120.000000 97.209 -119.4284
2140.000000 97.345 -119.2278
2180.000000 97.641 -119.1461
2200.000000 97.785 -119.2862
2240.000000 98.041 -119.8306
2270.000000 98.203 -120.3480
2300.000000 98.345 -120.8868
2330.000000 98.471 -121.4213
2360.000000 98.586 -121.9397
2400.000000 98.724 -122.6092
2430.000000 98.819 -123.1132
2470.000000 98.936 -123.7862
2500.000000 99.016 -124.2865
2540.000000 99.113 -124.9624
2580.000000 99.199 -125.6448
2620.000000 99.272 -126.3246
2650.000000 99.320 -126.8341
2690.000000 99.374 -127.5105
2720.000000 99.407 -128.0076
2760.000000 99.440 -128.6554
2800.000000 99.462 -129.2922
2850.000000 99.475 -130.0588
2900.000000 99.472 -130.8004
2950.000000 99.456 -131.5123
3000.000000 99.424 -132.1716
3040.000000 99.388 -132.6545
3070.000000 99.355 -132.9871
3110.000000 99.305 -133.3820
3150.000000 99.251 -133.7215
3200.000000 99.178 -134.0756
3250.000000 99.102 -134.3512
3300.000000 99.025 -134.5724
3350.000000 98.948 -134.7622
3400.000000 98.870 -134.9271
3450.000000 98.792 -135.0726
3500.000000 98.711 -135.1973
3550.000000 98.622 -135.2779
3600.000000 98.523 -135.2859
3650.000000 98.417 -135.1893
3700.000000 98.309 -134.9572
3750.000000 98.209 -134.5974
3820.000000 98.094 -133.9704
3870.000000 98.029 -133.5044
3950.000000 97.945 -132.8478
4000.000000 97.897 -132.5195
4060.000000 97.837 -132.1839
4120.000000 97.768 -131.8688
4180.000000 97.694 -131.5459
4250.000000 97.601 -131.1330
4310.000000 97.519 -130.7397
4370.000000 97.433 -130.3174
4440.000000 97.333 -129.8212
4500.000000 97.250 -129.4263
4550.000000 97.179 -129.1204
4620.000000 97.077 -128.7077
4680.000000 96.985 -128.3471
4750.000000 96.875 -127.9129
4820.000000 96.761 -127.4611
4870.000000 96.678 -127.1243
4940.000000 96.560 -126.6347
5000.000000 96.459 -126.1944
5080.000000 96.321 -125.5700
5150.000000 96.198 -124.9847
5220.000000 96.075 -124.3587
5300.000000 95.934 -123.5912
5380.000000 95.795 -122.7654
5450.000000 95.678 -121.9929
5520.000000 95.566 -121.1716
5600.000000 95.444 -120.1744
5700.000000 95.306 -118.8457
5800.000000 95.189 -117.4363
5900.000000 95.100 -115.9950
6000.000000 95.041 -114.6099
6080.000000 95.011 -113.6046
6150.000000 94.991 -112.8280
6220.000000 94.971 -112.1540
6300.000000 94.939 -111.4911
6400.000000 94.872 -110.7604
6500.000000 94.766 -110.0079
6600.000000 94.619 -109.0327
6700.000000 94.453 -107.6491
6800.000000 94.312 -105.7750
6900.000000 94.249 -103.4761
7000.000000 94.293 -100.9262
7100.000000 94.442 -98.3385
7200.000000 94.686 -95.9093
7300.000000 95.018 -93.8116
7400.000000 95.425 -92.2048
7500.000000 95.894 -91.2326
7620.000000 96.524 -91.0787
7750.000000 97.227 -92.3557
7880.000000 97.789 -95.2668
8000.000000 98.122 -99.3172
8120.000000 98.232 -104.3142
8250.000000 98.056 -110.0891
8380.000000 97.578 -115.3949
8500.000000 96.917 -119.2950
8620.000000 96.110 -121.9819
8750.000000 95.142 -123.5293
8850.000000 94.372 -123.8582
9000.000000 93.223 -123.1891
9120.000000 92.333 -121.8331
9250.000000 91.406 -119.6982
9380.000000 90.526 -116.9866
9500.000000 89.757 -114.0507
9620.000000 89.034 -110.7693
9750.000000 88.306 -106.8877
9880.000000 87.636 -102.7119
10000.000000 87.065 -98.6289
10150.000000 86.413 -93.2441
10300.000000 85.832 -87.5871
10440.000000 85.357 -82.1068
10600.000000 84.899 -75.6638
10750.000000 84.558 -69.4954
10900.000000 84.307 -63.2533
11060.000000 84.143 -56.5982
11200.000000 84.089 -50.8272
11380.000000 84.142 -43.5082
11500.000000 84.259 -38.7264
11720.000000 84.655 -30.2701
11800.000000 84.861 -27.3195
12060.000000 85.793 -18.3628
12200.000000 86.481 -14.1023
12410.000000 87.804 -8.9246
12500.000000 88.490 -7.3717
12650.000000 89.793 -6.1417
12800.000000 91.226 -7.3667
13150.000000 93.918 -24.6247
13200.000000 94.080 -28.6619
13400.000000 93.924 -45.3939
13600.000000 92.648 -57.9394
13800.000000 90.813 -63.6339
14000.000000 88.972 -63.9678
14300.000000 86.702 -58.8801
14500.000000 85.540 -53.5504
14750.000000 84.406 -45.7607
15000.000000 83.556 -37.2849
15250.000000 82.953 -28.4876
15500.000000 82.608 -19.6353
15750.000000 82.526 -11.0900
16000.000000 82.673 -3.4313
16250.000000 82.989 2.2130
16500.000000 83.188 4.3147
16750.000000 82.653 5.8099
17000.000000 82.007 14.6989
17250.000000 82.714 21.7120
17500.000000 83.331 19.4568
17750.000000 83.214 13.8714
18000.000000 82.608 8.6090
18250.000000 81.772 4.1223
18500.000000 80.868 -0.0144
18750.000000 79.983 -3.9363
19000.000000 79.158 -7.4715
19250.000000 78.387 -10.2583
19500.000000 77.646 -11.8520
19750.000000 76.938 -11.8861
20000.000000 76.208 -10.0556
20300.000000 75.318 -5.0758
20600.000000 74.544 3.0977
20900.000000 73.914 14.3229
21200.000000 73.483 28.1976
21400.000000 73.348 38.5391
21800.000000 73.517 59.2325
22000.000000 73.774 62.7120
22400.000000 73.758 -150.0126
22700.000000 71.603 126.3600
23000.000000 66.498 70.1714
23300.000000 59.309 -155.7422
23600.000000 53.158 25.2266
24000.000000 50.669 34.0586
