* Measurement data measured by REW V5.20.13
* Source: Headset (DS by VECLAN.COM), MICROPHONE (Master Volume), L, volume: 0.800. Timing signal peak level -4.6 dBFS, measurement signal peak level -4.1 dBFS
* Format: 2M Log Swept Sine, 1 sweep at -12.0 dBFS using an acoustic timing reference
* Dated: Oct 15, 2023 2:38:41 PM
* REW Settings:
*  C-weighting compensation: Off
*  Target level: 75.0 dB
* Note: ; Delay -0.1474 ms (-51 mm, -1.99 in) using estimated IR delay relative to Acoustic reference played from HEADPHONE L with no timing offset
* Measurement: KBEAR Pecker L
* Smoothing: 1/24 octave
* Frequency Step: 1/48 octave
* Start Frequency: 1.000 Hz
*
* Freq(Hz) SPL(dB) Phase(degrees)
1.000000 81.655 41.7492
1.015000 81.735 40.9532
1.030000 81.813 40.1145
1.044000 81.883 39.2916
1.060000 81.960 38.3024
1.075000 82.030 37.3260
1.090000 82.096 36.3006
1.106000 82.163 35.1479
1.120000 82.217 34.0714
1.138000 82.280 32.5952
1.150000 82.317 31.5573
1.172000 82.380 29.5526
1.180000 82.400 28.7934
1.206000 82.461 26.2269
1.220000 82.490 24.7888
1.241000 82.530 22.5690
1.250000 82.546 21.5976
1.265000 82.571 19.9559
1.280000 82.596 18.2900
1.315000 82.653 14.3373
1.320000 82.661 13.7678
1.340000 82.695 11.4854
1.360000 82.732 9.2046
1.380000 82.772 6.9372
1.400000 82.816 4.6951
1.430000 82.893 1.4054
1.450000 82.954 -0.7216
1.475000 83.040 -3.2990
1.500000 83.133 -5.8921
1.525000 83.229 -8.5187
1.550000 83.331 -11.1679
1.575000 83.436 -13.8284
1.600000 83.545 -16.4892
1.625000 83.658 -19.1391
1.650000 83.775 -21.7671
1.675000 83.896 -24.3619
1.700000 84.020 -26.9125
1.725000 84.148 -29.4077
1.750000 84.278 -31.8365
1.775000 84.412 -34.1877
1.800000 84.549 -36.4502
1.825000 84.689 -38.6129
1.850000 84.833 -40.6750
1.875000 84.985 -42.6583
1.900000 85.143 -44.5681
1.925000 85.307 -46.4091
1.950000 85.475 -48.1856
1.975000 85.647 -49.9023
2.000000 85.821 -51.5635
2.030000 86.032 -53.4902
2.060000 86.243 -55.3514
2.090000 86.453 -57.1549
2.120000 86.659 -58.9084
2.140000 86.794 -60.0535
2.180000 87.056 -62.2968
2.200000 87.181 -63.3994
2.240000 87.428 -65.5179
2.270000 87.613 -67.0219
2.300000 87.795 -68.4608
2.330000 87.976 -69.8415
2.360000 88.154 -71.1708
2.400000 88.387 -72.8754
2.430000 88.558 -74.1118
2.470000 88.779 -75.7174
2.500000 88.939 -76.8984
2.540000 89.145 -78.4553
2.580000 89.340 -80.0008
2.620000 89.526 -81.4973
2.650000 89.660 -82.5835
2.690000 89.831 -83.9879
2.720000 89.955 -85.0113
2.760000 90.114 -86.3403
2.800000 90.265 -87.6339
2.850000 90.446 -89.2091
2.900000 90.617 -90.7481
2.950000 90.780 -92.2593
3.000000 90.931 -93.7291
3.040000 91.044 -94.8722
3.070000 91.125 -95.7105
3.110000 91.227 -96.8028
3.150000 91.323 -97.8663
3.200000 91.437 -99.1551
3.250000 91.542 -100.3990
3.300000 91.642 -101.5981
3.350000 91.733 -102.7529
3.400000 91.815 -103.8633
3.450000 91.888 -104.9289
3.500000 91.955 -105.9492
3.550000 92.015 -106.9240
3.600000 92.071 -107.8527
3.650000 92.124 -108.7350
3.700000 92.172 -109.5703
3.750000 92.213 -110.3584
3.820000 92.260 -111.3838
3.870000 92.289 -112.0617
3.950000 92.331 -113.0540
4.000000 92.357 -113.6177
4.060000 92.388 -114.2356
4.120000 92.415 -114.7795
4.180000 92.439 -115.2558
4.250000 92.466 -115.7374
4.310000 92.491 -116.0967
4.370000 92.519 -116.4157
4.440000 92.559 -116.7346
4.500000 92.595 -116.9393
4.550000 92.627 -117.0709
4.620000 92.675 -117.2141
4.680000 92.721 -117.3159
4.750000 92.781 -117.4324
4.820000 92.850 -117.5416
4.870000 92.904 -117.5968
4.940000 92.985 -117.6566
5.000000 93.059 -117.7056
5.080000 93.162 -117.7903
5.150000 93.256 -117.9015
5.220000 93.357 -118.0284
5.300000 93.478 -118.1900
5.380000 93.602 -118.3809
5.450000 93.712 -118.5813
5.520000 93.819 -118.8209
5.600000 93.944 -119.1396
5.700000 94.101 -119.5951
5.800000 94.255 -120.1029
5.900000 94.401 -120.6541
6.000000 94.541 -121.2628
6.080000 94.650 -121.7823
6.150000 94.742 -122.2515
6.220000 94.830 -122.7269
6.300000 94.925 -123.2809
6.400000 95.038 -123.9985
6.500000 95.145 -124.7311
6.600000 95.245 -125.4646
6.700000 95.339 -126.2005
6.800000 95.426 -126.9423
6.900000 95.508 -127.6847
7.000000 95.586 -128.4229
7.100000 95.658 -129.1594
7.200000 95.725 -129.8943
7.300000 95.788 -130.6265
7.400000 95.846 -131.3564
7.500000 95.899 -132.0853
7.620000 95.957 -132.9530
7.750000 96.011 -133.8793
7.880000 96.057 -134.7974
8.000000 96.091 -135.6250
8.120000 96.120 -136.4225
8.250000 96.142 -137.2609
8.380000 96.158 -138.0581
8.500000 96.169 -138.7449
8.620000 96.175 -139.3899
8.750000 96.179 -140.0407
8.850000 96.183 -140.5047
9.000000 96.187 -141.1380
9.120000 96.193 -141.6088
9.250000 96.205 -142.0909
9.380000 96.222 -142.5371
9.500000 96.240 -142.9468
9.620000 96.260 -143.3667
9.750000 96.285 -143.8225
9.880000 96.305 -144.3012
10.000000 96.317 -144.7751
10.150000 96.326 -145.3983
10.300000 96.323 -146.0441
10.440000 96.310 -146.6743
10.600000 96.285 -147.3991
10.750000 96.254 -148.0672
10.900000 96.216 -148.7240
11.060000 96.170 -149.3757
11.200000 96.125 -149.9103
11.380000 96.066 -150.5214
11.500000 96.026 -150.8708
11.720000 95.957 -151.4160
11.800000 95.937 -151.5845
12.060000 95.883 -152.0423
12.200000 95.867 -152.2716
12.410000 95.858 -152.5986
12.500000 95.857 -152.7504
12.650000 95.863 -153.0128
12.800000 95.872 -153.2961
13.150000 95.900 -154.0652
13.200000 95.904 -154.1837
13.400000 95.920 -154.6828
13.600000 95.936 -155.1955
13.800000 95.949 -155.7128
14.000000 95.960 -156.2256
14.300000 95.976 -156.9844
14.500000 95.987 -157.4863
14.750000 96.001 -158.1276
15.000000 96.014 -158.7928
15.250000 96.025 -159.4973
15.500000 96.027 -160.2160
15.750000 96.016 -160.9259
16.000000 95.991 -161.5800
16.250000 95.955 -162.1344
16.500000 95.916 -162.5738
16.750000 95.882 -162.8822
17.000000 95.864 -163.1100
17.250000 95.864 -163.3074
17.500000 95.884 -163.5433
17.750000 95.913 -163.8959
18.000000 95.941 -164.3733
18.250000 95.959 -164.9822
18.500000 95.953 -165.6428
18.750000 95.925 -166.2787
19.000000 95.876 -166.8187
19.250000 95.819 -167.1856
19.500000 95.768 -167.3974
19.750000 95.731 -167.4734
20.000000 95.718 -167.5103
20.299999 95.726 -167.6057
20.600000 95.747 -167.8145
20.900000 95.765 -168.1248
21.200001 95.770 -168.4364
21.400000 95.772 -168.5819
21.799999 95.798 -168.7368
22.000000 95.831 -168.8032
22.400000 95.948 -169.1519
22.700001 96.054 -169.8023
23.000000 96.132 -170.8526
23.299999 96.148 -172.1380
23.600000 96.090 -173.3858
24.000000 95.918 -174.5220
24.299999 95.768 -174.7564
24.700001 95.627 -174.3593
25.000000 95.601 -173.8799
25.400000 95.652 -173.5177
25.799999 95.721 -173.7159
26.200001 95.734 -174.2005
26.500000 95.707 -174.4519
26.900000 95.664 -174.4320
27.200001 95.663 -174.2309
27.600000 95.721 -174.0343
28.000000 95.812 -174.2611
28.500000 95.872 -175.1207
29.000000 95.827 -175.9540
29.500000 95.743 -176.2148
30.000000 95.718 -176.0923
30.400000 95.748 -176.1333
30.700001 95.776 -176.3669
31.100000 95.784 -176.8542
31.500000 95.752 -177.2996
32.000000 95.690 -177.4945
32.500000 95.673 -177.3903
33.000000 95.711 -177.4509
33.500000 95.744 -177.8971
34.000000 95.720 -178.4322
34.500000 95.664 -178.6214
35.000000 95.646 -178.4685
35.500000 95.694 -178.4482
36.000000 95.750 -178.9306
36.500000 95.742 -179.7462
37.000000 95.658 179.6214
37.500000 95.554 179.4521
38.200001 95.475 179.6373
38.700001 95.466 179.6942
39.500000 95.477 179.5817
40.000000 95.506 179.4026
40.599998 95.551 178.9189
41.200001 95.564 178.2004
41.799999 95.538 177.5840
42.500000 95.513 177.1249
43.099998 95.508 176.6982
43.700001 95.480 176.2407
44.400002 95.421 175.9973
45.000000 95.395 176.0414
45.500000 95.396 176.0454
46.200001 95.396 175.9030
46.799999 95.383 175.8020
47.500000 95.379 175.7647
48.200001 95.395 175.5948
48.700001 95.401 175.3442
49.400002 95.386 174.9359
50.000000 95.359 174.6337
50.799999 95.315 174.3546
51.500000 95.284 174.2484
52.200001 95.280 174.1832
53.000000 95.296 173.9081
53.799999 95.277 173.4179
54.500000 95.221 173.1558
55.200001 95.178 173.2013
56.000000 95.191 173.2181
57.000000 95.209 172.6677
58.000000 95.159 172.1396
59.000000 95.119 171.8402
60.000000 95.080 171.6374
60.799999 95.077 171.6784
61.500000 95.110 171.6005
62.200001 95.136 171.3036
63.000000 95.133 170.9101
64.000000 95.098 170.5122
65.000000 95.037 170.2841
66.000000 94.984 170.2357
67.000000 94.948 170.1299
68.000000 94.917 169.9360
69.000000 94.894 169.6339
70.000000 94.873 169.2135
71.000000 94.842 168.7611
72.000000 94.807 168.4371
73.000000 94.779 168.2342
74.000000 94.745 168.2454
75.000000 94.748 168.5530
76.199997 94.816 168.5476
77.500000 94.812 167.8625
78.800003 94.720 167.1838
80.000000 94.612 166.7683
81.199997 94.543 166.6646
82.500000 94.559 166.8046
83.800003 94.661 166.9530
85.000000 94.760 166.9549
86.199997 94.819 166.8796
87.500000 94.811 166.4391
88.500000 94.710 165.8639
90.000000 94.472 165.1240
91.199997 94.286 164.5345
92.500000 94.137 164.2598
93.800003 94.121 164.2449
95.000000 94.158 164.1643
96.199997 94.166 164.1648
97.500000 94.121 164.3542
98.800003 94.042 164.5569
100.000000 93.973 164.5574
101.500000 93.937 163.9525
103.000000 93.898 162.8119
104.400002 93.850 162.2493
106.000000 93.860 162.3907
107.500000 93.905 162.7315
109.000000 93.931 162.8323
110.599998 93.892 162.5450
112.000000 93.814 162.2246
113.800003 93.695 161.9662
115.000000 93.634 162.0300
117.199997 93.587 161.8992
118.000000 93.562 161.7506
120.599998 93.497 161.2766
122.000000 93.463 161.0237
124.099998 93.408 160.8958
125.000000 93.383 160.8798
126.500000 93.346 160.8517
128.000000 93.326 160.7069
131.500000 93.280 160.5427
132.000000 93.269 160.5861
134.000000 93.169 160.8243
136.000000 93.006 161.0045
138.000000 92.847 160.7207
140.000000 92.751 160.4008
143.000000 92.847 160.3043
145.000000 92.888 159.8709
147.500000 92.817 159.4919
150.000000 92.780 159.5466
152.500000 92.758 159.8351
155.000000 92.683 160.1098
157.500000 92.561 159.9663
160.000000 92.484 159.6645
162.500000 92.445 159.3212
165.000000 92.350 159.3785
167.500000 92.318 159.8118
170.000000 92.342 159.6889
172.500000 92.323 159.0964
175.000000 92.233 158.5574
177.500000 92.133 158.7797
180.000000 92.053 159.4457
182.500000 91.930 159.8535
185.000000 91.798 159.8452
187.500000 91.703 159.7973
190.000000 91.669 160.2077
192.500000 91.646 160.4364
195.000000 91.579 160.2944
197.500000 91.503 160.0759
200.000000 91.467 159.9904
203.000000 91.427 159.8386
206.000000 91.356 159.6719
209.000000 91.302 159.6926
212.000000 91.239 159.9858
214.000000 91.166 160.3376
218.000000 91.009 160.5253
220.000000 90.946 160.2839
224.000000 90.884 160.4157
227.000000 90.859 160.7712
230.000000 90.777 160.7846
233.000000 90.698 160.9224
236.000000 90.671 161.3265
240.000000 90.636 161.5941
243.000000 90.602 161.5016
247.000000 90.558 161.5430
250.000000 90.530 161.9690
254.000000 90.432 162.3254
258.000000 90.278 162.6101
262.000000 90.201 162.5513
265.000000 90.155 162.5789
269.000000 90.062 162.9503
272.000000 89.974 163.2070
276.000000 89.872 163.4884
280.000000 89.818 163.6761
285.000000 89.800 163.6336
290.000000 89.731 164.2648
295.000000 89.625 164.9754
300.000000 89.546 165.2842
304.000000 89.464 165.6400
307.000000 89.404 166.0727
311.000000 89.358 166.6228
315.000000 89.344 166.7631
320.000000 89.293 166.4138
325.000000 89.159 166.5998
330.000000 89.106 167.3340
335.000000 89.059 168.1833
340.000000 88.982 168.8162
345.000000 88.885 169.0762
350.000000 88.896 168.9716
355.000000 88.863 169.5027
360.000000 88.763 170.0816
365.000000 88.696 170.5170
370.000000 88.614 171.0538
375.000000 88.541 171.7344
382.000000 88.479 172.2093
387.000000 88.436 172.4642
395.000000 88.360 173.2619
400.000000 88.322 173.6783
406.000000 88.261 174.2239
412.000000 88.191 174.8027
418.000000 88.141 175.4207
425.000000 88.089 176.2542
431.000000 88.031 177.0470
437.000000 87.955 177.7600
444.000000 87.866 178.3519
450.000000 87.780 178.9306
455.000000 87.707 179.4196
462.000000 87.673 -179.9068
468.000000 87.648 -179.0138
475.000000 87.543 -178.0095
482.000000 87.460 -177.6185
487.000000 87.450 -177.3910
494.000000 87.458 -176.8783
500.000000 87.432 -176.2533
508.000000 87.346 -175.5578
515.000000 87.299 -174.9342
522.000000 87.280 -174.1831
530.000000 87.282 -173.3362
538.000000 87.262 -172.3850
545.000000 87.193 -171.4193
552.000000 87.118 -170.6406
560.000000 87.047 -170.1173
570.000000 86.987 -168.9037
580.000000 86.934 -167.6235
590.000000 86.878 -166.5557
600.000000 86.851 -165.5189
608.000000 86.824 -164.7443
615.000000 86.792 -163.9501
622.000000 86.774 -163.1834
630.000000 86.741 -162.4070
640.000000 86.725 -161.2939
650.000000 86.759 -160.1688
660.000000 86.791 -158.7613
670.000000 86.754 -157.2234
680.000000 86.684 -156.3000
690.000000 86.665 -155.5055
700.000000 86.682 -154.4405
710.000000 86.697 -153.2338
720.000000 86.727 -152.1574
730.000000 86.728 -151.7426
740.000000 86.757 -150.9069
750.000000 86.787 -149.1448
762.000000 86.757 -147.4431
775.000000 86.722 -145.9552
788.000000 86.715 -144.5750
800.000000 86.753 -143.3165
812.000000 86.791 -142.0488
825.000000 86.814 -140.6536
838.000000 86.846 -139.2945
850.000000 86.891 -138.1030
862.000000 86.945 -136.9072
875.000000 87.006 -135.6088
885.000000 87.056 -134.7320
900.000000 87.138 -133.7379
912.000000 87.198 -132.5658
925.000000 87.253 -131.1045
938.000000 87.313 -129.8638
950.000000 87.377 -128.8165
962.000000 87.439 -127.8494
975.000000 87.511 -126.8024
988.000000 87.579 -125.6868
1000.000000 87.642 -124.7383
1015.000000 87.725 -123.6610
1030.000000 87.816 -122.5831
1044.000000 87.900 -121.6310
1060.000000 87.991 -120.5584
1075.000000 88.079 -119.5826
1090.000000 88.178 -118.6529
1106.000000 88.293 -117.6184
1120.000000 88.396 -116.7049
1138.000000 88.520 -115.6372
1150.000000 88.578 -114.9611
1172.000000 88.689 -113.7270
1180.000000 88.738 -113.2601
1206.000000 88.933 -111.8698
1220.000000 89.028 -111.2547
1241.000000 89.145 -110.3795
1250.000000 89.197 -110.0607
1265.000000 89.294 -109.4864
1280.000000 89.388 -108.6078
1315.000000 89.560 -106.6635
1320.000000 89.588 -106.4231
1340.000000 89.694 -105.4505
1360.000000 89.775 -104.4993
1380.000000 89.848 -103.5432
1400.000000 89.936 -102.6030
1430.000000 90.079 -101.2577
1450.000000 90.179 -100.3298
1475.000000 90.305 -99.1917
1500.000000 90.433 -98.0075
1525.000000 90.555 -96.8229
1550.000000 90.671 -95.6836
1575.000000 90.783 -94.5382
1600.000000 90.897 -93.4224
1625.000000 91.009 -92.3022
1650.000000 91.117 -91.1802
1675.000000 91.232 -90.0891
1700.000000 91.349 -89.0206
1725.000000 91.464 -87.9388
1750.000000 91.577 -86.8952
1775.000000 91.684 -85.8760
1800.000000 91.791 -84.8695
1825.000000 91.903 -83.8967
1850.000000 92.017 -82.9025
1875.000000 92.130 -81.9145
1900.000000 92.246 -80.9718
1925.000000 92.358 -80.0314
1950.000000 92.464 -79.0811
1975.000000 92.569 -78.1753
2000.000000 92.672 -77.2856
2030.000000 92.794 -76.1821
2060.000000 92.925 -75.1023
2090.000000 93.056 -74.0334
2120.000000 93.179 -72.9195
2140.000000 93.263 -72.1702
2180.000000 93.448 -70.6581
2200.000000 93.549 -69.9096
2240.000000 93.766 -68.5232
2270.000000 93.928 -67.5881
2300.000000 94.085 -66.7708
2330.000000 94.239 -66.0727
2360.000000 94.385 -65.4369
2400.000000 94.563 -64.6161
2430.000000 94.689 -64.0218
2470.000000 94.841 -63.2121
2500.000000 94.952 -62.5941
2540.000000 95.102 -61.8064
2580.000000 95.246 -60.9997
2620.000000 95.385 -60.1907
2650.000000 95.490 -59.5971
2690.000000 95.625 -58.8150
2720.000000 95.721 -58.2296
2760.000000 95.839 -57.4535
2800.000000 95.952 -56.6956
2850.000000 96.098 -55.7778
2900.000000 96.260 -54.9531
2950.000000 96.409 -54.1554
3000.000000 96.547 -53.4076
3040.000000 96.659 -52.8644
3070.000000 96.742 -52.4755
3110.000000 96.852 -51.9963
3150.000000 96.960 -51.5645
3200.000000 97.079 -51.0409
3250.000000 97.191 -50.5350
3300.000000 97.310 -50.0928
3350.000000 97.436 -49.7389
3400.000000 97.566 -49.5098
3450.000000 97.696 -49.4133
3500.000000 97.814 -49.4373
3550.000000 97.914 -49.6152
3600.000000 97.993 -49.9431
3650.000000 98.050 -50.4226
3700.000000 98.080 -51.0200
3750.000000 98.069 -51.6721
3820.000000 97.974 -52.5842
3870.000000 97.856 -53.1956
3950.000000 97.594 -54.0118
4000.000000 97.390 -54.3825
4060.000000 97.103 -54.6255
4120.000000 96.777 -54.6206
4180.000000 96.421 -54.3425
4250.000000 95.982 -53.6626
4310.000000 95.582 -52.7460
4370.000000 95.164 -51.5314
4440.000000 94.665 -49.7319
4500.000000 94.233 -47.8463
4550.000000 93.880 -46.0357
4620.000000 93.399 -43.0934
4680.000000 93.013 -40.1813
4750.000000 92.628 -36.4010
4820.000000 92.344 -32.4258
4870.000000 92.200 -29.6639
4940.000000 92.052 -26.2578
5000.000000 91.923 -23.8731
5080.000000 91.655 -21.0683
5150.000000 91.329 -18.4188
5220.000000 90.967 -15.2495
5300.000000 90.559 -10.9500
5380.000000 90.207 -6.1452
5450.000000 89.955 -1.6765
5520.000000 89.748 2.9598
5600.000000 89.562 8.3733
5700.000000 89.405 15.2359
5800.000000 89.335 22.1391
5900.000000 89.347 29.0372
6000.000000 89.414 35.9287
6080.000000 89.509 41.4242
6150.000000 89.633 46.1978
6220.000000 89.793 50.9425
6300.000000 90.019 56.3212
6400.000000 90.370 62.9517
6500.000000 90.787 69.4768
6600.000000 91.285 75.8522
6700.000000 91.883 82.0091
6800.000000 92.599 87.8692
6900.000000 93.456 93.3297
7000.000000 94.470 98.2329
7100.000000 95.632 102.3781
7200.000000 96.933 105.4880
7300.000000 98.362 107.1725
7400.000000 99.872 106.9398
7500.000000 101.378 104.2360
7620.000000 102.987 97.1926
7750.000000 104.144 85.5218
7880.000000 104.439 72.4400
8000.000000 104.097 61.8132
8120.000000 103.458 53.4028
8250.000000 102.664 45.9579
8380.000000 101.798 39.0061
8500.000000 100.839 32.5653
8620.000000 99.636 26.4883
8750.000000 98.011 21.3057
8850.000000 96.569 18.8814
9000.000000 94.252 18.1281
9120.000000 92.393 19.8060
9250.000000 90.464 23.4205
9380.000000 88.677 28.4017
9500.000000 87.160 33.8662
9620.000000 85.760 39.9060
9750.000000 84.378 46.8777
9880.000000 83.135 54.1371
10000.000000 82.095 60.9896
10150.000000 80.922 69.6174
10300.000000 79.861 78.1900
10440.000000 78.949 86.0152
10600.000000 77.995 94.5643
10750.000000 77.133 102.0963
10900.000000 76.218 109.3599
11060.000000 75.158 117.5144
11200.000000 74.229 125.2238
11380.000000 73.087 135.3363
11500.000000 72.325 142.1935
11720.000000 70.897 155.6643
11800.000000 70.380 160.9537
12060.000000 68.810 179.6279
12200.000000 68.075 -169.4936
12410.000000 67.168 -152.4750
12500.000000 66.867 -145.0607
12650.000000 66.506 -132.7885
12800.000000 66.346 -121.0269
13150.000000 66.564 -100.0542
13200.000000 66.573 -98.3401
13400.000000 66.060 -94.3042
13600.000000 64.110 -85.9771
13800.000000 61.340 -58.5119
14000.000000 61.604 -21.9433
14300.000000 65.218 6.4537
14500.000000 66.809 11.4210
14750.000000 67.681 12.8083
15000.000000 67.670 13.5767
15250.000000 66.951 15.7394
15500.000000 66.144 18.4801
15750.000000 65.051 17.1312
16000.000000 61.865 32.0219
16250.000000 59.262 63.5428
16500.000000 59.792 81.7952
16750.000000 60.406 88.7487
17000.000000 60.099 90.4539
17250.000000 58.623 95.5949
17500.000000 57.371 114.7932
17750.000000 60.283 142.3044
18000.000000 63.045 144.2194
18250.000000 61.819 130.2780
18500.000000 57.924 138.9832
18750.000000 54.896 163.9168
19000.000000 54.781 -167.7052
19250.000000 56.216 -141.6696
19500.000000 57.803 -120.5146
19750.000000 58.967 -104.3623
20000.000000 59.451 -91.7845
20300.000000 59.092 -78.9830
20600.000000 57.778 -66.7728
20900.000000 55.452 -54.6367
21200.000000 52.039 -46.4571
21400.000000 49.156 -63.2345
21800.000000 42.016 127.6944
22000.000000 37.792 74.2540
22400.000000 28.093 145.6934
22700.000000 20.038 138.7275
23000.000000 13.207 -49.3945
23300.000000 10.415 -110.9141
23600.000000 9.826 -37.0820
24000.000000 9.438 -34.8789
