* Measurement data measured by REW V5.20.13
* Source: Headset (DS by VECLAN.COM), MICROPHONE (Master Volume), L, volume: 0.800. Timing signal peak level -10.1 dBFS, measurement signal peak level -8.9 dBFS
* Format: 2M Log Swept Sine, 1 sweep at -12.0 dBFS using an acoustic timing reference
* Dated: Oct 15, 2023 1:35:01 PM
* REW Settings:
*  C-weighting compensation: Off
*  Target level: 75.0 dB
* Note: ; Delay -0.0706 ms (-24 mm, -0.95 in) using estimated IR delay relative to Acoustic reference played from HEADPHONE L with no timing offset
* Measurement: Kinera Celest Phoenixcall L
* Smoothing: 1/24 octave
* Frequency Step: 1/48 octave
* Start Frequency: 1.000 Hz
*
* Freq(Hz) SPL(dB) Phase(degrees)
1.000000 64.371 -36.0501
1.015000 64.945 -37.8663
1.030000 65.495 -39.6025
1.044000 65.981 -41.1434
1.060000 66.501 -42.8012
1.075000 66.949 -44.2466
1.090000 67.353 -45.5781
1.106000 67.735 -46.8659
1.120000 68.045 -47.8936
1.138000 68.419 -49.0906
1.150000 68.653 -49.8155
1.172000 69.053 -51.0039
1.180000 69.189 -51.3939
1.206000 69.602 -52.5203
1.220000 69.806 -53.0453
1.241000 70.091 -53.7390
1.250000 70.206 -54.0052
1.265000 70.389 -54.4123
1.280000 70.561 -54.7786
1.315000 70.929 -55.5078
1.320000 70.979 -55.6008
1.340000 71.169 -55.9539
1.360000 71.350 -56.2868
1.380000 71.525 -56.6136
1.400000 71.695 -56.9481
1.430000 71.947 -57.4949
1.450000 72.117 -57.9100
1.475000 72.333 -58.5005
1.500000 72.529 -59.1017
1.525000 72.702 -59.6906
1.550000 72.856 -60.2626
1.575000 72.991 -60.8130
1.600000 73.112 -61.3372
1.625000 73.220 -61.8305
1.650000 73.319 -62.2883
1.675000 73.410 -62.7060
1.700000 73.497 -63.0789
1.725000 73.582 -63.4025
1.750000 73.667 -63.6719
1.775000 73.756 -63.8827
1.800000 73.850 -64.0301
1.825000 73.952 -64.1096
1.850000 74.060 -64.1097
1.875000 74.164 -64.0175
1.900000 74.262 -63.8423
1.925000 74.357 -63.5943
1.950000 74.450 -63.2837
1.975000 74.542 -62.9208
2.000000 74.634 -62.5158
2.030000 74.745 -61.9885
2.060000 74.859 -61.4328
2.090000 74.979 -60.8664
2.120000 75.105 -60.3069
2.140000 75.194 -59.9465
2.180000 75.385 -59.2793
2.200000 75.489 -58.9826
2.240000 75.709 -58.3836
2.270000 75.884 -57.9092
2.300000 76.066 -57.4213
2.330000 76.254 -56.9269
2.360000 76.448 -56.4333
2.400000 76.714 -55.7888
2.430000 76.918 -55.3249
2.470000 77.195 -54.7460
2.500000 77.406 -54.3508
2.540000 77.688 -53.8895
2.580000 77.972 -53.5134
2.620000 78.265 -53.1876
2.650000 78.491 -52.9716
2.690000 78.798 -52.7238
2.720000 79.031 -52.5700
2.760000 79.345 -52.4103
2.800000 79.659 -52.3053
2.850000 80.049 -52.2560
2.900000 80.432 -52.3037
2.950000 80.804 -52.4545
3.000000 81.175 -52.7085
3.040000 81.471 -52.9821
3.070000 81.692 -53.2266
3.110000 81.983 -53.6024
3.150000 82.271 -54.0326
3.200000 82.623 -54.6423
3.250000 82.964 -55.3266
3.300000 83.292 -56.0800
3.350000 83.609 -56.9322
3.400000 83.917 -57.8921
3.450000 84.216 -58.9374
3.500000 84.505 -60.0463
3.550000 84.783 -61.1965
3.600000 85.050 -62.3661
3.650000 85.305 -63.5330
3.700000 85.549 -64.6936
3.750000 85.781 -65.8800
3.820000 86.088 -67.5831
3.870000 86.294 -68.8265
3.950000 86.600 -70.8562
4.000000 86.778 -72.1466
4.060000 86.977 -73.7208
4.120000 87.159 -75.3517
4.180000 87.326 -77.0213
4.250000 87.501 -78.9853
4.310000 87.636 -80.6541
4.370000 87.755 -82.2834
4.440000 87.877 -84.1220
4.500000 87.964 -85.6797
4.550000 88.026 -86.9615
4.620000 88.096 -88.7213
4.680000 88.141 -90.1881
4.750000 88.179 -91.8389
4.820000 88.200 -93.4372
4.870000 88.202 -94.5618
4.940000 88.191 -96.0900
5.000000 88.169 -97.3366
5.080000 88.126 -98.8734
5.150000 88.077 -100.0728
5.220000 88.012 -101.1663
5.300000 87.920 -102.2889
5.380000 87.818 -103.2563
5.450000 87.726 -103.9594
5.520000 87.637 -104.5145
5.600000 87.524 -104.9657
5.700000 87.377 -105.2828
5.800000 87.242 -105.3623
5.900000 87.139 -105.2271
6.000000 87.054 -104.7997
6.080000 87.001 -104.3088
6.150000 86.972 -103.8301
6.220000 86.963 -103.3541
6.300000 86.979 -102.7830
6.400000 87.034 -101.9702
6.500000 87.118 -101.1679
6.600000 87.223 -100.5051
6.700000 87.356 -99.9823
6.800000 87.515 -99.5573
6.900000 87.682 -99.2521
7.000000 87.846 -99.0903
7.100000 88.015 -99.0850
7.200000 88.185 -99.1985
7.300000 88.349 -99.3862
7.400000 88.502 -99.6351
7.500000 88.648 -99.9750
7.620000 88.815 -100.4433
7.750000 88.985 -100.9516
7.880000 89.143 -101.4852
8.000000 89.283 -101.9946
8.120000 89.422 -102.5028
8.250000 89.569 -103.0515
8.380000 89.714 -103.6265
8.500000 89.849 -104.1980
8.620000 89.984 -104.7979
8.750000 90.125 -105.4981
8.850000 90.228 -106.0864
9.000000 90.377 -107.0461
9.120000 90.486 -107.8542
9.250000 90.588 -108.7638
9.380000 90.677 -109.7173
9.500000 90.743 -110.5763
9.620000 90.792 -111.3947
9.750000 90.826 -112.2547
9.880000 90.844 -113.0199
10.000000 90.845 -113.6172
10.150000 90.828 -114.2400
10.300000 90.813 -114.7007
10.440000 90.795 -114.9590
10.600000 90.788 -115.1439
10.750000 90.808 -115.2490
10.900000 90.849 -115.2995
11.060000 90.914 -115.4465
11.200000 90.992 -115.6373
11.380000 91.097 -116.0202
11.500000 91.168 -116.3908
11.720000 91.288 -117.2190
11.800000 91.324 -117.5571
12.060000 91.413 -118.7471
12.200000 91.440 -119.3330
12.410000 91.458 -120.1255
12.500000 91.464 -120.3830
12.650000 91.466 -120.7088
12.800000 91.473 -120.9291
13.150000 91.544 -121.0518
13.200000 91.562 -121.0650
13.400000 91.660 -121.0912
13.600000 91.781 -121.2460
13.800000 91.924 -121.5979
14.000000 92.058 -122.1592
14.300000 92.225 -123.3519
14.500000 92.293 -124.2591
14.750000 92.326 -125.2973
15.000000 92.334 -126.1195
15.250000 92.323 -126.5711
15.500000 92.332 -126.7170
15.750000 92.377 -126.6355
16.000000 92.476 -126.5275
16.250000 92.609 -126.5940
16.500000 92.763 -126.9064
16.750000 92.911 -127.5224
17.000000 93.030 -128.3232
17.250000 93.115 -129.2118
17.500000 93.164 -130.0570
17.750000 93.192 -130.7421
18.000000 93.211 -131.2608
18.250000 93.236 -131.6109
18.500000 93.279 -131.8879
18.750000 93.338 -132.1585
19.000000 93.410 -132.4842
19.250000 93.482 -132.9029
19.500000 93.548 -133.3783
19.750000 93.602 -133.8809
20.000000 93.643 -134.3342
20.299999 93.686 -134.7715
20.600000 93.736 -135.0890
20.900000 93.802 -135.3377
21.200001 93.890 -135.6201
21.400000 93.954 -135.8820
21.799999 94.079 -136.6042
22.000000 94.130 -137.0468
22.400000 94.194 -137.9769
22.700001 94.212 -138.5769
23.000000 94.216 -138.9872
23.299999 94.225 -139.1985
23.600000 94.254 -139.2694
24.000000 94.334 -139.3005
24.299999 94.421 -139.4037
24.700001 94.553 -139.7375
25.000000 94.650 -140.1273
25.400000 94.766 -140.7661
25.799999 94.869 -141.4648
26.200001 94.964 -142.1999
26.500000 95.031 -142.7880
26.900000 95.112 -143.6352
27.200001 95.161 -144.3083
27.600000 95.207 -145.2120
28.000000 95.231 -146.0433
28.500000 95.242 -146.8640
29.000000 95.264 -147.4058
29.500000 95.321 -147.7953
30.000000 95.415 -148.2750
30.400000 95.495 -148.8240
30.700001 95.544 -149.3109
31.100000 95.590 -149.9498
31.500000 95.622 -150.4659
32.000000 95.675 -150.9039
32.500000 95.765 -151.3171
33.000000 95.871 -151.9728
33.500000 95.950 -152.8708
34.000000 95.984 -153.7453
34.500000 96.002 -154.3828
35.000000 96.041 -154.8598
35.500000 96.104 -155.4300
36.000000 96.159 -156.2050
36.500000 96.180 -157.0379
37.000000 96.178 -157.7006
37.500000 96.189 -158.1571
38.200001 96.256 -158.8397
38.700001 96.309 -159.6054
39.500000 96.307 -160.9622
40.000000 96.265 -161.4359
40.599998 96.252 -161.5140
41.200001 96.330 -161.5357
41.799999 96.453 -161.9887
42.500000 96.559 -163.0462
43.099998 96.590 -164.0246
43.700001 96.584 -164.8513
44.400002 96.558 -165.5486
45.000000 96.546 -165.9003
45.500000 96.567 -166.1252
46.200001 96.641 -166.6482
46.799999 96.710 -167.4320
47.500000 96.757 -168.5629
48.200001 96.776 -169.7365
48.700001 96.773 -170.5722
49.400002 96.737 -171.6292
50.000000 96.687 -172.2457
50.799999 96.650 -172.5613
51.500000 96.686 -172.6385
52.200001 96.772 -172.9293
53.000000 96.852 -173.6779
53.799999 96.857 -174.3973
54.500000 96.852 -174.6088
55.200001 96.909 -174.7367
56.000000 97.005 -175.5091
57.000000 96.973 -177.1172
58.000000 96.791 -177.7737
59.000000 96.739 -177.0784
60.000000 97.000 -177.1305
60.799999 97.153 -179.1059
61.500000 97.059 179.0509
62.200001 96.898 178.3419
63.000000 96.831 177.9410
64.000000 96.708 177.0221
65.000000 96.593 177.4914
66.000000 96.712 177.4989
67.000000 96.751 176.7227
68.000000 96.825 176.2671
69.000000 96.898 175.1263
70.000000 96.875 174.1125
71.000000 96.857 173.3376
72.000000 96.818 172.6038
73.000000 96.778 172.0494
74.000000 96.748 171.5596
75.000000 96.740 171.0856
76.199997 96.749 170.2839
77.500000 96.720 169.2877
78.800003 96.675 168.5764
80.000000 96.657 168.0390
81.199997 96.650 167.4040
82.500000 96.624 166.5886
83.800003 96.575 165.8416
85.000000 96.536 165.2451
86.199997 96.511 164.6520
87.500000 96.477 163.9841
88.500000 96.442 163.5409
90.000000 96.387 162.9913
91.199997 96.344 162.5512
92.500000 96.297 162.0293
93.800003 96.253 161.4410
95.000000 96.218 160.8531
96.199997 96.183 160.2373
97.500000 96.144 159.6680
98.800003 96.120 159.1780
100.000000 96.104 158.7089
101.500000 96.078 158.0493
103.000000 96.038 157.3609
104.400002 96.000 156.7534
106.000000 95.960 156.0615
107.500000 95.919 155.4693
109.000000 95.868 154.9335
110.599998 95.809 154.4798
112.000000 95.765 154.0150
113.800003 95.691 153.3217
115.000000 95.642 152.9038
117.199997 95.574 152.1542
118.000000 95.554 151.8748
120.599998 95.481 150.9949
122.000000 95.438 150.6011
124.099998 95.385 150.0727
125.000000 95.365 149.8197
126.500000 95.331 149.3589
128.000000 95.291 148.8728
131.500000 95.179 147.9801
132.000000 95.166 147.8807
134.000000 95.115 147.4421
136.000000 95.055 146.8798
138.000000 94.984 146.2562
140.000000 94.912 145.6359
143.000000 94.817 144.9216
145.000000 94.759 144.5312
147.500000 94.683 144.0261
150.000000 94.599 143.4590
152.500000 94.526 142.8167
155.000000 94.444 142.1747
157.500000 94.366 141.6476
160.000000 94.293 141.1591
162.500000 94.223 140.6346
165.000000 94.160 140.1641
167.500000 94.098 139.7526
170.000000 94.016 139.3950
172.500000 93.921 138.9976
175.000000 93.845 138.4842
177.500000 93.795 137.8974
180.000000 93.741 137.4399
182.500000 93.665 137.1607
185.000000 93.577 136.8561
187.500000 93.486 136.4556
190.000000 93.407 136.0647
192.500000 93.328 135.6582
195.000000 93.244 135.1940
197.500000 93.156 134.7175
200.000000 93.073 134.3774
203.000000 92.993 134.0642
206.000000 92.925 133.7334
209.000000 92.844 133.4778
212.000000 92.756 133.0950
214.000000 92.709 132.6999
218.000000 92.647 132.0992
220.000000 92.616 132.0177
224.000000 92.543 131.8954
227.000000 92.465 131.8927
230.000000 92.383 131.7248
233.000000 92.291 131.0971
236.000000 92.192 130.6742
240.000000 92.026 130.5085
243.000000 91.906 130.1870
247.000000 91.824 129.6108
250.000000 91.776 129.3215
254.000000 91.706 129.0749
258.000000 91.601 128.8566
262.000000 91.466 128.5633
265.000000 91.393 128.3294
269.000000 91.301 127.9198
272.000000 91.233 127.6509
276.000000 91.178 127.2783
280.000000 91.091 126.8633
285.000000 90.946 126.6121
290.000000 90.839 126.8144
295.000000 90.780 126.7920
300.000000 90.708 126.5121
304.000000 90.629 126.1563
307.000000 90.558 125.8964
311.000000 90.456 125.6496
315.000000 90.365 125.5443
320.000000 90.272 125.4538
325.000000 90.171 125.3163
330.000000 90.064 125.1552
335.000000 89.970 125.0845
340.000000 89.879 124.9869
345.000000 89.782 124.8174
350.000000 89.678 124.7581
355.000000 89.572 124.7294
360.000000 89.465 124.7403
365.000000 89.393 125.0132
370.000000 89.288 125.0904
375.000000 89.146 124.3726
382.000000 89.118 123.8676
387.000000 89.201 124.0095
395.000000 89.096 124.3845
400.000000 88.923 124.8746
406.000000 88.853 124.6732
412.000000 88.787 124.4581
418.000000 88.610 124.5193
425.000000 88.488 124.2528
431.000000 88.459 123.9682
437.000000 88.402 124.5485
444.000000 88.325 125.0427
450.000000 88.231 125.0042
455.000000 88.151 124.8539
462.000000 88.037 124.7911
468.000000 87.944 125.0477
475.000000 87.872 125.4559
482.000000 87.785 125.8112
487.000000 87.700 126.0820
494.000000 87.594 126.5603
500.000000 87.510 127.1210
508.000000 87.409 127.7548
515.000000 87.375 128.1477
522.000000 87.349 128.9076
530.000000 87.319 129.7321
538.000000 87.341 130.4111
545.000000 87.315 131.2503
552.000000 87.231 131.8547
560.000000 87.233 132.1677
570.000000 87.278 133.1345
580.000000 87.311 133.8953
590.000000 87.320 134.6789
600.000000 87.341 135.8737
608.000000 87.399 136.3639
615.000000 87.486 136.3985
622.000000 87.589 136.5674
630.000000 87.678 136.8458
640.000000 87.767 137.0571
650.000000 87.843 137.3883
660.000000 87.920 137.8275
670.000000 88.001 138.1094
680.000000 88.070 138.3002
690.000000 88.133 138.4544
700.000000 88.192 138.5677
710.000000 88.235 138.8086
720.000000 88.292 139.0766
730.000000 88.374 139.0973
740.000000 88.456 139.1822
750.000000 88.533 139.4761
762.000000 88.615 139.8648
775.000000 88.706 140.1856
788.000000 88.808 140.4743
800.000000 88.901 140.7051
812.000000 88.996 140.9931
825.000000 89.109 141.3506
838.000000 89.228 141.6511
850.000000 89.346 141.9301
862.000000 89.471 142.2449
875.000000 89.606 142.5922
885.000000 89.715 142.8450
900.000000 89.883 143.2406
912.000000 90.021 143.4793
925.000000 90.183 143.6904
938.000000 90.356 143.8970
950.000000 90.520 144.0635
962.000000 90.692 144.2084
975.000000 90.883 144.3358
988.000000 91.079 144.4077
1000.000000 91.264 144.4316
1015.000000 91.496 144.4275
1030.000000 91.729 144.3601
1044.000000 91.946 144.2465
1060.000000 92.197 144.0732
1075.000000 92.443 143.8231
1090.000000 92.703 143.4831
1106.000000 92.994 143.0610
1120.000000 93.252 142.6266
1138.000000 93.585 141.9746
1150.000000 93.808 141.4875
1172.000000 94.216 140.4597
1180.000000 94.364 140.0440
1206.000000 94.845 138.5463
1220.000000 95.104 137.6378
1241.000000 95.491 136.1373
1250.000000 95.654 135.4489
1265.000000 95.923 134.2464
1280.000000 96.188 132.9449
1315.000000 96.768 129.6064
1320.000000 96.845 129.1008
1340.000000 97.132 126.9767
1360.000000 97.377 124.7559
1380.000000 97.597 122.4544
1400.000000 97.809 120.0534
1430.000000 98.081 116.3738
1450.000000 98.219 113.9105
1475.000000 98.344 110.8791
1500.000000 98.429 107.9099
1525.000000 98.477 105.0212
1550.000000 98.475 102.3099
1575.000000 98.431 99.7856
1600.000000 98.361 97.4146
1625.000000 98.265 95.2652
1650.000000 98.147 93.3187
1675.000000 98.014 91.5811
1700.000000 97.876 90.0327
1725.000000 97.735 88.6532
1750.000000 97.589 87.4529
1775.000000 97.442 86.4355
1800.000000 97.300 85.5446
1825.000000 97.165 84.7841
1850.000000 97.030 84.1714
1875.000000 96.900 83.6660
1900.000000 96.775 83.2683
1925.000000 96.657 82.9740
1950.000000 96.551 82.7386
1975.000000 96.453 82.5738
2000.000000 96.361 82.5079
2030.000000 96.264 82.4926
2060.000000 96.182 82.5355
2090.000000 96.107 82.6697
2120.000000 96.040 82.8522
2140.000000 96.003 83.0021
2180.000000 95.949 83.3481
2200.000000 95.931 83.5339
2240.000000 95.909 83.9481
2270.000000 95.904 84.2865
2300.000000 95.912 84.6280
2330.000000 95.930 84.9761
2360.000000 95.958 85.3310
2400.000000 96.010 85.7791
2430.000000 96.055 86.1132
2470.000000 96.126 86.5397
2500.000000 96.192 86.8241
2540.000000 96.293 87.1602
2580.000000 96.404 87.4597
2620.000000 96.530 87.6936
2650.000000 96.634 87.8223
2690.000000 96.784 87.9302
2720.000000 96.902 87.9542
2760.000000 97.060 87.9166
2800.000000 97.217 87.8100
2850.000000 97.420 87.5215
2900.000000 97.618 87.1024
2950.000000 97.817 86.5299
3000.000000 98.025 85.7899
3040.000000 98.191 85.0924
3070.000000 98.310 84.5128
3110.000000 98.459 83.6729
3150.000000 98.597 82.7634
3200.000000 98.753 81.5396
3250.000000 98.891 80.2296
3300.000000 99.005 78.8649
3350.000000 99.098 77.4683
3400.000000 99.176 76.0453
3450.000000 99.239 74.6345
3500.000000 99.289 73.2470
3550.000000 99.326 71.8994
3600.000000 99.345 70.5954
3650.000000 99.340 69.3716
3700.000000 99.319 68.2078
3750.000000 99.288 67.1092
3820.000000 99.235 65.6879
3870.000000 99.191 64.7408
3950.000000 99.102 63.3667
4000.000000 99.044 62.5748
4060.000000 98.969 61.6963
4120.000000 98.890 60.8837
4180.000000 98.814 60.1123
4250.000000 98.723 59.2534
4310.000000 98.631 58.5534
4370.000000 98.519 57.8926
4440.000000 98.369 57.1879
4500.000000 98.236 56.6368
4550.000000 98.119 56.2375
4620.000000 97.940 55.8045
4680.000000 97.781 55.5541
4750.000000 97.598 55.4044
4820.000000 97.409 55.4552
4870.000000 97.283 55.5932
4940.000000 97.129 55.9004
5000.000000 97.019 56.2544
5080.000000 96.913 56.7593
5150.000000 96.854 57.1433
5220.000000 96.815 57.3970
5300.000000 96.793 57.4174
5380.000000 96.778 57.0872
5450.000000 96.740 56.5509
5520.000000 96.666 55.8511
5600.000000 96.540 54.9604
5700.000000 96.305 53.9951
5800.000000 95.989 53.4534
5900.000000 95.632 53.4587
6000.000000 95.274 54.0056
6080.000000 95.006 54.7730
6150.000000 94.788 55.6534
6220.000000 94.584 56.7020
6300.000000 94.374 58.0762
6400.000000 94.154 60.0210
6500.000000 93.982 62.1940
6600.000000 93.868 64.5399
6700.000000 93.815 67.0154
6800.000000 93.834 69.5552
6900.000000 93.956 72.0702
7000.000000 94.177 74.4868
7100.000000 94.477 76.7375
7200.000000 94.861 78.7987
7300.000000 95.361 80.5618
7400.000000 95.975 81.5769
7500.000000 96.643 81.6410
7620.000000 97.484 80.4584
7750.000000 98.372 77.2832
7880.000000 99.028 71.9345
8000.000000 99.318 65.4886
8120.000000 99.260 58.5644
8250.000000 98.830 51.7959
8380.000000 98.134 46.7353
8500.000000 97.385 43.8043
8620.000000 96.620 42.3417
8750.000000 95.833 41.9682
8850.000000 95.288 42.2592
9000.000000 94.590 43.2597
9120.000000 94.140 44.2692
9250.000000 93.753 45.2000
9380.000000 93.413 45.7437
9500.000000 93.079 45.9799
9620.000000 92.698 46.1499
9750.000000 92.220 46.5579
9880.000000 91.679 47.5085
10000.000000 91.157 49.0389
10150.000000 90.531 51.8674
10300.000000 89.998 55.5086
10440.000000 89.622 59.3462
10600.000000 89.341 63.9202
10750.000000 89.202 68.1355
10900.000000 89.179 72.0309
11060.000000 89.249 75.6598
11200.000000 89.350 78.3924
11380.000000 89.526 81.4398
11500.000000 89.674 83.0865
11720.000000 89.936 84.9518
11800.000000 90.004 85.2917
12060.000000 90.027 85.8439
12200.000000 89.906 86.2570
12410.000000 89.611 87.6558
12500.000000 89.467 88.6146
12650.000000 89.240 90.6572
12800.000000 89.053 93.1363
13150.000000 88.826 99.8301
13200.000000 88.815 100.8217
13400.000000 88.819 104.7271
13600.000000 88.885 108.4608
13800.000000 89.006 112.0427
14000.000000 89.194 115.5876
14300.000000 89.644 121.0850
14500.000000 90.153 124.5971
14750.000000 91.112 127.6797
15000.000000 92.359 127.2527
15250.000000 93.503 120.6054
15500.000000 93.826 107.7404
15750.000000 92.869 94.6867
16000.000000 90.863 88.1437
16250.000000 88.430 89.5841
16500.000000 86.090 98.4816
16750.000000 84.616 112.8660
17000.000000 84.430 125.2187
17250.000000 84.496 133.3235
17500.000000 84.471 140.6392
17750.000000 84.528 148.4513
18000.000000 84.860 156.4105
18250.000000 85.594 163.2957
18500.000000 86.731 167.3939
18750.000000 88.032 167.1121
19000.000000 88.991 162.0837
19250.000000 89.096 154.0544
19500.000000 88.051 146.3435
19750.000000 85.796 143.3564
20000.000000 82.329 152.3985
20300.000000 77.034 -172.7166
20600.000000 74.067 -133.2086
20900.000000 73.752 -114.9780
21200.000000 72.267 -109.4772
21400.000000 70.329 -106.9805
21800.000000 64.545 -106.2809
22000.000000 60.846 -130.5769
22400.000000 52.029 42.4297
22700.000000 44.220 -68.6956
23000.000000 35.432 -16.5352
23300.000000 25.838 -109.7109
23600.000000 16.410 -50.1445
24000.000000 10.419 31.0703
