* Measurement data measured by REW V5.20.13
* Source: Headset (DS by VECLAN.COM), MICROPHONE (Master Volume), L, volume: 0.720. Timing signal peak level -18.1 dBFS, measurement signal peak level -15.3 dBFS
* Format: 2M Log Swept Sine, 1 sweep at -12.0 dBFS using an acoustic timing reference
* Dated: Feb 24, 2024 3:08:57 PM
* REW Settings:
*  C-weighting compensation: Off
*  Target level: 75.0 dB
* Note: ; Delay -0.0677 ms (-23 mm, -0.91 in) using estimated IR delay relative to Acoustic reference played from HEADPHONE R with no timing offset
* Measurement: Kiwi Ears Quintet R
* Smoothing: 1/24 octave
* Frequency Step: 1/48 octave
* Start Frequency: 1.000 Hz
*
* Freq(Hz) SPL(dB) Phase(degrees)
1.000000 74.829 3.1341
1.015000 75.191 2.1152
1.030000 75.542 1.0857
1.044000 75.859 0.1174
1.060000 76.206 -0.9953
1.075000 76.514 -2.0419
1.090000 76.802 -3.0893
1.106000 77.088 -4.2124
1.120000 77.332 -5.2406
1.138000 77.639 -6.6306
1.150000 77.839 -7.5954
1.172000 78.200 -9.4331
1.180000 78.329 -10.1207
1.206000 78.739 -12.4135
1.220000 78.954 -13.6776
1.241000 79.269 -15.6003
1.250000 79.402 -16.4309
1.265000 79.620 -17.8196
1.280000 79.834 -19.2091
1.315000 80.317 -22.4236
1.320000 80.385 -22.8767
1.340000 80.649 -24.6656
1.360000 80.907 -26.4073
1.380000 81.159 -28.0889
1.400000 81.404 -29.6973
1.430000 81.759 -31.9448
1.450000 81.988 -33.3140
1.475000 82.265 -34.8626
1.500000 82.527 -36.2655
1.525000 82.772 -37.5449
1.550000 83.003 -38.7143
1.575000 83.220 -39.7872
1.600000 83.427 -40.7772
1.625000 83.623 -41.6977
1.650000 83.812 -42.5622
1.675000 83.994 -43.3844
1.700000 84.170 -44.1775
1.725000 84.344 -44.9553
1.750000 84.516 -45.7311
1.775000 84.687 -46.5185
1.800000 84.860 -47.3310
1.825000 85.035 -48.1821
1.850000 85.213 -49.0662
1.875000 85.387 -49.9440
1.900000 85.557 -50.8131
1.925000 85.723 -51.6728
1.950000 85.887 -52.5226
1.975000 86.048 -53.3620
2.000000 86.206 -54.1902
2.030000 86.392 -55.1686
2.060000 86.576 -56.1292
2.090000 86.757 -57.0709
2.120000 86.937 -57.9927
2.140000 87.055 -58.5956
2.180000 87.291 -59.7725
2.200000 87.408 -60.3457
2.240000 87.641 -61.4542
2.270000 87.814 -62.2533
2.300000 87.985 -63.0281
2.330000 88.153 -63.7816
2.360000 88.319 -64.5167
2.400000 88.537 -65.4735
2.430000 88.697 -66.1776
2.470000 88.907 -67.1038
2.500000 89.061 -67.7930
2.540000 89.261 -68.7103
2.580000 89.456 -69.6297
2.620000 89.645 -70.5343
2.650000 89.783 -71.2013
2.690000 89.962 -72.0777
2.720000 90.094 -72.7266
2.760000 90.265 -73.5828
2.800000 90.432 -74.4310
2.850000 90.635 -75.4840
2.900000 90.833 -76.5339
2.950000 91.026 -77.5859
3.000000 91.211 -78.6433
3.040000 91.355 -79.4894
3.070000 91.460 -80.1216
3.110000 91.597 -80.9587
3.150000 91.731 -81.7857
3.200000 91.893 -82.8000
3.250000 92.051 -83.7862
3.300000 92.204 -84.7373
3.350000 92.352 -85.6486
3.400000 92.495 -86.5254
3.450000 92.633 -87.3750
3.500000 92.766 -88.2048
3.550000 92.895 -89.0223
3.600000 93.021 -89.8349
3.650000 93.143 -90.6499
3.700000 93.263 -91.4723
3.750000 93.378 -92.2970
3.820000 93.532 -93.4455
3.870000 93.639 -94.2546
3.950000 93.804 -95.5155
4.000000 93.904 -96.2744
4.060000 94.022 -97.1473
4.120000 94.137 -97.9787
4.180000 94.248 -98.7779
4.250000 94.374 -99.6827
4.310000 94.479 -100.4459
4.370000 94.582 -101.2079
4.440000 94.700 -102.1028
4.500000 94.799 -102.8651
4.550000 94.880 -103.4952
4.620000 94.990 -104.3677
4.680000 95.083 -105.1053
4.750000 95.190 -105.9519
4.820000 95.295 -106.7795
4.870000 95.369 -107.3583
4.940000 95.470 -108.1566
5.000000 95.555 -108.8339
5.080000 95.666 -109.7346
5.150000 95.761 -110.5270
5.220000 95.854 -111.3198
5.300000 95.957 -112.2234
5.380000 96.056 -113.1235
5.450000 96.141 -113.9077
5.520000 96.222 -114.6885
5.600000 96.312 -115.5788
5.700000 96.419 -116.6863
5.800000 96.520 -117.7832
5.900000 96.614 -118.8656
6.000000 96.702 -119.9388
6.080000 96.767 -120.7877
6.150000 96.822 -121.5203
6.220000 96.873 -122.2405
6.300000 96.928 -123.0513
6.400000 96.990 -124.0490
6.500000 97.048 -125.0198
6.600000 97.101 -125.9533
6.700000 97.149 -126.8487
6.800000 97.193 -127.7100
6.900000 97.234 -128.5366
7.000000 97.274 -129.3278
7.100000 97.311 -130.0816
7.200000 97.347 -130.8014
7.300000 97.383 -131.4915
7.400000 97.420 -132.1510
7.500000 97.456 -132.7762
7.620000 97.502 -133.4964
7.750000 97.554 -134.2563
7.880000 97.608 -134.9849
8.000000 97.661 -135.6442
8.120000 97.715 -136.3055
8.250000 97.777 -137.0153
8.380000 97.839 -137.7290
8.500000 97.896 -138.4012
8.620000 97.953 -139.0824
8.750000 98.013 -139.8300
8.850000 98.057 -140.4132
9.000000 98.120 -141.3026
9.120000 98.167 -142.0180
9.250000 98.214 -142.7918
9.380000 98.259 -143.5678
9.500000 98.294 -144.2765
9.620000 98.323 -144.9745
9.750000 98.349 -145.7217
9.880000 98.366 -146.4489
10.000000 98.371 -147.1000
10.150000 98.366 -147.8880
10.300000 98.354 -148.6348
10.440000 98.333 -149.2919
10.600000 98.307 -150.0049
10.750000 98.285 -150.6376
10.900000 98.264 -151.2395
11.060000 98.247 -151.8699
11.200000 98.235 -152.4089
11.380000 98.224 -153.0945
11.500000 98.219 -153.5476
11.720000 98.213 -154.3786
11.800000 98.213 -154.6843
12.060000 98.216 -155.6901
12.200000 98.220 -156.2498
12.410000 98.228 -157.1089
12.500000 98.230 -157.4811
12.650000 98.232 -158.1097
12.800000 98.231 -158.7399
13.150000 98.217 -160.1989
13.200000 98.214 -160.4019
13.400000 98.198 -161.2018
13.600000 98.180 -161.9613
13.800000 98.159 -162.6720
14.000000 98.138 -163.3293
14.300000 98.108 -164.2163
14.500000 98.094 -164.7462
14.750000 98.086 -165.3716
15.000000 98.089 -165.9759
15.250000 98.105 -166.6079
15.500000 98.126 -167.2816
15.750000 98.148 -168.0001
16.000000 98.163 -168.7530
16.250000 98.168 -169.5053
16.500000 98.165 -170.2346
16.750000 98.156 -170.9068
17.000000 98.148 -171.5160
17.250000 98.145 -172.0776
17.500000 98.149 -172.6154
17.750000 98.159 -173.1821
18.000000 98.170 -173.7969
18.250000 98.177 -174.4806
18.500000 98.170 -175.2087
18.750000 98.148 -175.9353
19.000000 98.109 -176.6169
19.250000 98.058 -177.1788
19.500000 98.004 -177.6030
19.750000 97.956 -177.8799
20.000000 97.925 -178.0490
20.299999 97.918 -178.2150
20.600000 97.941 -178.4510
20.900000 97.983 -178.8557
21.200001 98.027 -179.4702
21.400000 98.047 -179.9713
21.799999 98.058 178.9095
22.000000 98.049 178.3488
22.400000 98.008 177.3302
22.700001 97.971 176.6840
23.000000 97.939 176.1170
23.299999 97.915 175.5769
23.600000 97.898 175.0261
24.000000 97.878 174.2499
24.299999 97.857 173.6563
24.700001 97.821 172.9065
25.000000 97.792 172.4094
25.400000 97.757 171.8401
25.799999 97.735 171.3287
26.200001 97.725 170.8041
26.500000 97.720 170.3777
26.900000 97.712 169.7741
27.200001 97.701 169.3208
27.600000 97.683 168.7476
28.000000 97.668 168.2125
28.500000 97.657 167.5342
29.000000 97.647 166.7635
29.500000 97.622 165.9164
30.000000 97.577 165.1079
30.400000 97.535 164.5458
30.700001 97.506 164.1667
31.100000 97.476 163.6734
31.500000 97.451 163.1538
32.000000 97.420 162.4586
32.500000 97.383 161.7621
33.000000 97.345 161.0979
33.500000 97.310 160.4373
34.000000 97.273 159.7546
34.500000 97.227 159.0934
35.000000 97.173 158.5242
35.500000 97.125 158.0627
36.000000 97.090 157.6459
36.500000 97.065 157.1983
37.000000 97.043 156.6868
37.500000 97.016 156.1273
38.200001 96.965 155.3316
38.700001 96.924 154.7916
39.500000 96.864 153.9654
40.000000 96.830 153.4355
40.599998 96.789 152.7889
41.200001 96.748 152.1779
41.799999 96.715 151.5942
42.500000 96.685 150.8759
43.099998 96.654 150.2511
43.700001 96.620 149.6918
44.400002 96.587 149.0895
45.000000 96.556 148.5544
45.500000 96.524 148.1304
46.200001 96.477 147.6205
46.799999 96.448 147.1626
47.500000 96.404 146.4874
48.200001 96.328 145.8455
48.700001 96.270 145.5159
49.400002 96.215 145.1097
50.000000 96.183 144.6310
50.799999 96.126 143.8527
51.500000 96.066 143.2138
52.200001 96.009 142.6084
53.000000 95.943 141.9676
53.799999 95.887 141.4703
54.500000 95.859 141.0393
55.200001 95.833 140.5378
56.000000 95.798 139.9960
57.000000 95.767 139.2316
58.000000 95.684 138.2646
59.000000 95.555 137.7020
60.000000 95.472 137.3619
60.799999 95.425 136.9656
61.500000 95.388 136.5658
62.200001 95.356 136.0943
63.000000 95.310 135.4820
64.000000 95.243 134.8094
65.000000 95.190 134.2017
66.000000 95.133 133.5630
67.000000 95.068 133.0094
68.000000 94.999 132.4728
69.000000 94.916 131.9811
70.000000 94.838 131.5837
71.000000 94.776 131.0877
72.000000 94.706 130.4986
73.000000 94.635 129.9610
74.000000 94.574 129.4617
75.000000 94.521 128.9973
76.199997 94.470 128.4449
77.500000 94.403 127.7705
78.800003 94.309 127.1504
80.000000 94.218 126.6569
81.199997 94.141 126.1272
82.500000 94.060 125.4745
83.800003 93.988 124.9095
85.000000 93.942 124.4467
86.199997 93.905 123.9675
87.500000 93.855 123.3955
88.500000 93.797 122.9027
90.000000 93.676 122.1715
91.199997 93.566 121.6567
92.500000 93.461 121.2884
93.800003 93.418 120.9642
95.000000 93.396 120.4416
96.199997 93.351 119.9273
97.500000 93.285 119.4504
98.800003 93.194 119.0903
100.000000 93.121 118.9016
101.500000 93.070 118.5275
103.000000 93.038 117.8713
104.400002 92.990 117.1591
106.000000 92.906 116.5705
107.500000 92.821 116.2431
109.000000 92.744 115.9862
110.599998 92.677 115.5572
112.000000 92.618 115.0618
113.800003 92.540 114.4332
115.000000 92.485 114.0886
117.199997 92.370 113.5251
118.000000 92.322 113.3391
120.599998 92.197 112.6742
122.000000 92.150 112.2199
124.099998 92.087 111.6442
125.000000 92.058 111.4351
126.500000 91.997 111.1248
128.000000 91.929 110.8025
131.500000 91.782 109.6867
132.000000 91.763 109.5212
134.000000 91.695 109.0641
136.000000 91.657 108.7596
138.000000 91.613 108.3681
140.000000 91.563 107.8795
143.000000 91.499 106.9597
145.000000 91.437 106.4431
147.500000 91.352 106.0435
150.000000 91.255 105.6420
152.500000 91.167 105.2891
155.000000 91.140 104.8401
157.500000 91.127 104.2244
160.000000 91.078 103.5092
162.500000 90.984 102.9783
165.000000 90.918 102.5731
167.500000 90.841 102.0513
170.000000 90.749 101.5976
172.500000 90.702 101.0878
175.000000 90.665 100.6770
177.500000 90.613 100.6235
180.000000 90.546 100.5426
182.500000 90.486 100.1831
185.000000 90.435 99.7159
187.500000 90.374 99.4197
190.000000 90.315 99.2197
192.500000 90.284 99.0042
195.000000 90.285 98.6684
197.500000 90.259 97.9487
200.000000 90.157 97.1159
203.000000 90.061 96.5832
206.000000 90.045 96.0233
209.000000 90.003 94.8262
212.000000 89.908 93.3822
214.000000 89.849 92.9001
218.000000 89.792 92.9434
220.000000 89.758 92.9574
224.000000 89.716 93.0066
227.000000 89.738 93.4123
230.000000 89.745 93.5904
233.000000 89.713 92.9447
236.000000 89.679 91.9266
240.000000 89.647 91.1679
243.000000 89.620 90.9512
247.000000 89.582 90.5869
250.000000 89.551 90.3366
254.000000 89.495 90.1945
258.000000 89.457 89.8641
262.000000 89.456 89.3130
265.000000 89.446 89.0018
269.000000 89.411 88.6508
272.000000 89.389 88.2626
276.000000 89.362 87.7071
280.000000 89.339 87.3182
285.000000 89.321 86.8485
290.000000 89.297 86.2948
295.000000 89.276 85.7720
300.000000 89.257 85.3152
304.000000 89.246 85.0177
307.000000 89.243 84.7888
311.000000 89.241 84.4098
315.000000 89.224 84.0013
320.000000 89.197 83.6142
325.000000 89.180 83.3170
330.000000 89.171 82.8939
335.000000 89.156 82.4038
340.000000 89.156 81.9340
345.000000 89.180 81.4282
350.000000 89.165 80.8170
355.000000 89.137 80.2614
360.000000 89.157 79.9018
365.000000 89.139 79.6821
370.000000 89.085 79.5091
375.000000 89.068 79.4436
382.000000 89.130 79.0771
387.000000 89.139 78.4836
395.000000 89.084 77.8292
400.000000 89.081 77.6301
406.000000 89.082 77.3968
412.000000 89.075 77.0686
418.000000 89.076 76.7045
425.000000 89.094 76.3150
431.000000 89.108 75.9707
437.000000 89.113 75.6497
444.000000 89.115 75.2699
450.000000 89.122 74.9723
455.000000 89.125 74.7267
462.000000 89.118 74.3518
468.000000 89.114 74.0419
475.000000 89.122 73.6962
482.000000 89.137 73.3333
487.000000 89.145 73.1286
494.000000 89.147 72.9025
500.000000 89.142 72.6917
508.000000 89.139 72.3515
515.000000 89.137 72.0545
522.000000 89.146 71.7750
530.000000 89.167 71.5268
538.000000 89.189 71.3405
545.000000 89.205 71.1691
552.000000 89.209 70.9598
560.000000 89.205 70.7025
570.000000 89.221 70.4510
580.000000 89.238 70.2132
590.000000 89.259 70.0577
600.000000 89.279 69.9539
608.000000 89.285 69.8214
615.000000 89.295 69.6584
622.000000 89.309 69.5158
630.000000 89.321 69.3690
640.000000 89.323 69.1777
650.000000 89.331 69.0968
660.000000 89.348 69.0463
670.000000 89.340 68.8105
680.000000 89.363 68.7463
690.000000 89.383 69.2455
700.000000 89.397 69.5654
710.000000 89.441 69.2104
720.000000 89.484 68.9073
730.000000 89.510 68.9605
740.000000 89.527 69.0847
750.000000 89.544 69.2782
762.000000 89.566 69.4366
775.000000 89.606 69.5040
788.000000 89.653 69.6311
800.000000 89.706 69.7877
812.000000 89.761 69.8506
825.000000 89.803 69.8345
838.000000 89.826 69.9020
850.000000 89.847 70.0613
862.000000 89.878 70.2717
875.000000 89.924 70.5171
885.000000 89.964 70.6921
900.000000 90.028 70.9523
912.000000 90.082 71.1733
925.000000 90.146 71.4398
938.000000 90.213 71.6816
950.000000 90.271 71.8770
962.000000 90.328 72.0588
975.000000 90.392 72.2504
988.000000 90.458 72.4326
1000.000000 90.517 72.5778
1015.000000 90.592 72.7746
1030.000000 90.668 72.9755
1044.000000 90.743 73.1396
1060.000000 90.831 73.3858
1075.000000 90.908 73.6238
1090.000000 90.999 73.8491
1106.000000 91.113 74.0845
1120.000000 91.222 74.2656
1138.000000 91.365 74.4631
1150.000000 91.463 74.5611
1172.000000 91.643 74.6440
1180.000000 91.707 74.6501
1206.000000 91.914 74.5546
1220.000000 92.026 74.4503
1241.000000 92.184 74.2714
1250.000000 92.248 74.1824
1265.000000 92.352 74.0173
1280.000000 92.453 73.8419
1315.000000 92.662 73.4696
1320.000000 92.689 73.4209
1340.000000 92.785 73.2207
1360.000000 92.859 73.0336
1380.000000 92.929 72.8623
1400.000000 93.006 72.7225
1430.000000 93.124 72.5681
1450.000000 93.202 72.4801
1475.000000 93.295 72.4022
1500.000000 93.380 72.3722
1525.000000 93.464 72.3611
1550.000000 93.541 72.3854
1575.000000 93.613 72.4614
1600.000000 93.688 72.5504
1625.000000 93.765 72.6672
1650.000000 93.841 72.8095
1675.000000 93.921 72.9568
1700.000000 94.005 73.1158
1725.000000 94.088 73.2990
1750.000000 94.172 73.4847
1775.000000 94.259 73.6700
1800.000000 94.344 73.8721
1825.000000 94.431 74.0800
1850.000000 94.518 74.2775
1875.000000 94.607 74.4783
1900.000000 94.699 74.6789
1925.000000 94.796 74.8674
1950.000000 94.896 75.0430
1975.000000 94.995 75.2173
2000.000000 95.096 75.3857
2030.000000 95.220 75.5620
2060.000000 95.348 75.7149
2090.000000 95.478 75.8454
2120.000000 95.611 75.9459
2140.000000 95.699 75.9985
2180.000000 95.877 76.0650
2200.000000 95.966 76.0729
2240.000000 96.141 76.0385
2270.000000 96.271 75.9746
2300.000000 96.402 75.8718
2330.000000 96.534 75.7169
2360.000000 96.666 75.5190
2400.000000 96.834 75.1990
2430.000000 96.955 74.9103
2470.000000 97.112 74.4501
2500.000000 97.223 74.0558
2540.000000 97.362 73.4770
2580.000000 97.495 72.8144
2620.000000 97.617 72.0932
2650.000000 97.700 71.5174
2690.000000 97.798 70.7047
2720.000000 97.860 70.0678
2760.000000 97.925 69.1882
2800.000000 97.971 68.2950
2850.000000 98.004 67.1617
2900.000000 98.010 66.0310
2950.000000 97.988 64.9421
3000.000000 97.942 63.9060
3040.000000 97.889 63.1315
3070.000000 97.840 62.5884
3110.000000 97.763 61.9184
3150.000000 97.673 61.3200
3200.000000 97.545 60.6868
3250.000000 97.410 60.1711
3300.000000 97.265 59.7859
3350.000000 97.111 59.5387
3400.000000 96.955 59.4246
3450.000000 96.803 59.4371
3500.000000 96.655 59.5790
3550.000000 96.510 59.8469
3600.000000 96.371 60.2214
3650.000000 96.235 60.7061
3700.000000 96.102 61.2903
3750.000000 95.979 61.9528
3820.000000 95.828 62.9797
3870.000000 95.729 63.7781
3950.000000 95.590 65.1170
4000.000000 95.517 65.9733
4060.000000 95.437 67.0196
4120.000000 95.367 68.0716
4180.000000 95.310 69.1159
4250.000000 95.252 70.3268
4310.000000 95.206 71.3536
4370.000000 95.161 72.3554
4440.000000 95.111 73.4868
4500.000000 95.072 74.4175
4550.000000 95.043 75.1582
4620.000000 95.008 76.1296
4680.000000 94.981 76.8999
4750.000000 94.950 77.7196
4820.000000 94.915 78.4572
4870.000000 94.884 78.9375
4940.000000 94.833 79.5447
5000.000000 94.780 80.0098
5080.000000 94.687 80.5805
5150.000000 94.583 81.0535
5220.000000 94.460 81.5225
5300.000000 94.294 82.0987
5380.000000 94.095 82.7775
5450.000000 93.897 83.5031
5520.000000 93.682 84.3860
5600.000000 93.417 85.6385
5700.000000 93.068 87.6387
5800.000000 92.724 90.1521
5900.000000 92.403 93.1948
6000.000000 92.126 96.7262
6080.000000 91.959 99.8336
6150.000000 91.860 102.7039
6220.000000 91.810 105.6561
6300.000000 91.812 109.0464
6400.000000 91.906 113.1509
6500.000000 92.087 116.9139
6600.000000 92.328 120.1816
6700.000000 92.598 122.8804
6800.000000 92.873 125.0445
6900.000000 93.143 126.7948
7000.000000 93.399 128.2954
7100.000000 93.632 129.7008
7200.000000 93.851 131.1052
7300.000000 94.074 132.5246
7400.000000 94.319 133.9113
7500.000000 94.603 135.1545
7620.000000 95.023 136.2038
7750.000000 95.543 136.3398
7880.000000 95.959 134.9518
8000.000000 96.155 132.1812
8120.000000 96.076 128.4639
8250.000000 95.605 124.5976
8380.000000 94.767 122.3748
8500.000000 93.802 122.6947
8620.000000 92.826 125.3282
8750.000000 91.877 130.1830
8850.000000 91.259 135.1564
9000.000000 90.666 144.3940
9120.000000 90.618 152.4458
9250.000000 91.024 160.5240
9380.000000 91.815 166.7597
9500.000000 92.747 170.1044
9620.000000 93.714 170.5595
9750.000000 94.568 167.4778
9880.000000 94.976 161.5019
10000.000000 94.842 155.2347
10150.000000 94.059 149.1586
10300.000000 92.866 146.6268
10440.000000 91.656 147.3206
10600.000000 90.361 150.7173
10750.000000 89.323 155.4995
10900.000000 88.478 161.1850
11060.000000 87.772 167.7915
11200.000000 87.302 173.7692
11380.000000 86.871 -178.5445
11500.000000 86.676 -173.5380
11720.000000 86.464 -164.8289
11800.000000 86.419 -161.8456
12060.000000 86.280 -152.3105
12200.000000 86.276 -146.0826
12410.000000 87.171 -136.0394
12500.000000 87.772 -134.3847
12650.000000 88.317 -136.0043
12800.000000 88.230 -138.3621
13150.000000 87.224 -138.0184
13200.000000 87.050 -137.4730
13400.000000 86.341 -134.1562
13600.000000 85.744 -129.3883
13800.000000 85.370 -124.1663
14000.000000 85.205 -119.4358
14300.000000 85.163 -114.8109
14500.000000 85.071 -114.0074
14750.000000 84.558 -114.8688
15000.000000 83.448 -114.9216
15250.000000 81.949 -111.5050
15500.000000 80.485 -104.4882
15750.000000 79.349 -95.2781
16000.000000 78.594 -85.2969
16250.000000 78.173 -75.9905
16500.000000 77.904 -68.4098
16750.000000 77.547 -62.5684
17000.000000 76.913 -57.3679
17250.000000 75.972 -51.0641
17500.000000 74.860 -42.3038
17750.000000 73.795 -30.6089
18000.000000 73.049 -16.3551
18250.000000 72.953 -0.7928
18500.000000 73.774 13.8982
18750.000000 75.378 25.0922
19000.000000 77.148 31.0724
19250.000000 78.446 32.1265
19500.000000 78.969 29.9618
19750.000000 78.702 26.5324
20000.000000 77.692 23.6266
20300.000000 75.695 23.0219
20600.000000 73.274 26.7721
20900.000000 70.839 33.7052
21200.000000 68.669 40.9134
21400.000000 67.393 42.4733
21800.000000 64.684 -28.7597
22000.000000 62.641 106.7491
22400.000000 55.906 -151.2063
22700.000000 48.702 123.0146
23000.000000 40.580 -48.2393
23300.000000 34.159 132.1426
23600.000000 31.944 69.1719
24000.000000 31.170 5.8047
