* Measurement data measured by REW V5.20.13
* Source: Headset (DS by VECLAN.COM), MICROPHONE (Master Volume), L, volume: 0.710. Timing signal peak level -12.0 dBFS, measurement signal peak level -12.0 dBFS
* Format: 2M Log Swept Sine, 1 sweep at -12.0 dBFS using an acoustic timing reference
* Dated: Nov 12, 2023 6:37:23 PM
* REW Settings:
*  C-weighting compensation: Off
*  Target level: 75.0 dB
* Note: ; Delay -0.0616 ms (-21 mm, -0.83 in) using estimated IR delay relative to Acoustic reference played from HEADPHONE R with no timing offset
* Measurement: Kiwi Ears Quartet DD R
* Smoothing: 1/24 octave
* Frequency Step: 1/48 octave
* Start Frequency: 1.000 Hz
*
* Freq(Hz) SPL(dB) Phase(degrees)
1.000000 67.680 -21.1331
1.015000 68.281 -21.7115
1.030000 68.856 -22.2817
1.044000 69.365 -22.8046
1.060000 69.909 -23.3890
1.075000 70.378 -23.9218
1.090000 70.800 -24.4379
1.106000 71.200 -24.9706
1.120000 71.526 -25.4378
1.138000 71.920 -26.0434
1.150000 72.168 -26.4496
1.172000 72.594 -27.1970
1.180000 72.740 -27.4693
1.206000 73.186 -28.3532
1.220000 73.408 -28.8273
1.241000 73.722 -29.5338
1.250000 73.849 -29.8343
1.265000 74.052 -30.3312
1.280000 74.246 -30.8223
1.315000 74.665 -31.9404
1.320000 74.722 -32.0964
1.340000 74.942 -32.7094
1.360000 75.153 -33.3034
1.380000 75.359 -33.8758
1.400000 75.560 -34.4243
1.430000 75.860 -35.1969
1.450000 76.062 -35.6752
1.475000 76.318 -36.2270
1.500000 76.556 -36.7240
1.525000 76.774 -37.1708
1.550000 76.973 -37.5729
1.575000 77.155 -37.9361
1.600000 77.324 -38.2662
1.625000 77.480 -38.5689
1.650000 77.627 -38.8498
1.675000 77.767 -39.1148
1.700000 77.902 -39.3694
1.725000 78.034 -39.6196
1.750000 78.166 -39.8709
1.775000 78.300 -40.1291
1.800000 78.437 -40.3999
1.825000 78.581 -40.6890
1.850000 78.730 -40.9939
1.875000 78.876 -41.2974
1.900000 79.018 -41.5988
1.925000 79.158 -41.8979
1.950000 79.295 -42.1946
1.975000 79.430 -42.4889
2.000000 79.564 -42.7805
2.030000 79.723 -43.1270
2.060000 79.881 -43.4694
2.090000 80.039 -43.8076
2.120000 80.197 -44.1415
2.140000 80.303 -44.3616
2.180000 80.518 -44.7955
2.200000 80.627 -45.0092
2.240000 80.847 -45.4244
2.270000 81.014 -45.7251
2.300000 81.181 -46.0187
2.330000 81.348 -46.3068
2.360000 81.516 -46.5914
2.400000 81.738 -46.9681
2.430000 81.905 -47.2509
2.470000 82.124 -47.6318
2.500000 82.287 -47.9226
2.540000 82.501 -48.3205
2.580000 82.711 -48.7326
2.620000 82.918 -49.1505
2.650000 83.072 -49.4665
2.690000 83.276 -49.8920
2.720000 83.427 -50.2145
2.760000 83.626 -50.6495
2.800000 83.823 -51.0909
2.850000 84.066 -51.6527
2.900000 84.306 -52.2268
2.950000 84.542 -52.8147
3.000000 84.775 -53.4188
3.040000 84.958 -53.9124
3.070000 85.095 -54.2877
3.110000 85.275 -54.7936
3.150000 85.452 -55.3046
3.200000 85.670 -55.9483
3.250000 85.884 -56.5950
3.300000 86.094 -57.2417
3.350000 86.299 -57.8897
3.400000 86.500 -58.5413
3.450000 86.697 -59.1971
3.500000 86.890 -59.8576
3.550000 87.078 -60.5233
3.600000 87.263 -61.1948
3.650000 87.444 -61.8726
3.700000 87.620 -62.5592
3.750000 87.792 -63.2578
3.820000 88.026 -64.2488
3.870000 88.188 -64.9608
3.950000 88.440 -66.0964
4.000000 88.592 -66.7979
4.060000 88.771 -67.6269
4.120000 88.944 -68.4491
4.180000 89.112 -69.2660
4.250000 89.301 -70.2121
4.310000 89.458 -71.0171
4.370000 89.611 -71.8166
4.440000 89.785 -72.7437
4.500000 89.928 -73.5360
4.550000 90.044 -74.1928
4.620000 90.201 -75.1037
4.680000 90.332 -75.8733
4.750000 90.482 -76.7540
4.820000 90.627 -77.6148
4.870000 90.728 -78.2193
4.940000 90.865 -79.0523
5.000000 90.980 -79.7547
5.080000 91.129 -80.6761
5.150000 91.257 -81.4690
5.220000 91.382 -82.2477
5.300000 91.520 -83.1205
5.380000 91.655 -83.9773
5.450000 91.770 -84.7154
5.520000 91.884 -85.4439
5.600000 92.012 -86.2608
5.700000 92.167 -87.2615
5.800000 92.319 -88.2458
5.900000 92.467 -89.2194
6.000000 92.611 -90.1782
6.080000 92.724 -90.9356
6.150000 92.821 -91.5932
6.220000 92.916 -92.2474
6.300000 93.022 -92.9916
6.400000 93.151 -93.9147
6.500000 93.277 -94.8280
6.600000 93.398 -95.7295
6.700000 93.515 -96.6206
6.800000 93.627 -97.5010
6.900000 93.736 -98.3675
7.000000 93.841 -99.2180
7.100000 93.942 -100.0550
7.200000 94.040 -100.8764
7.300000 94.134 -101.6787
7.400000 94.225 -102.4601
7.500000 94.312 -103.2224
7.620000 94.414 -104.1115
7.750000 94.522 -105.0420
7.880000 94.625 -105.9374
8.000000 94.718 -106.7369
8.120000 94.810 -107.5133
8.250000 94.908 -108.3251
8.380000 95.004 -109.1139
8.500000 95.092 -109.8268
8.620000 95.179 -110.5217
8.750000 95.271 -111.2603
8.850000 95.341 -111.8218
9.000000 95.445 -112.6496
9.120000 95.527 -113.3025
9.250000 95.616 -114.0025
9.380000 95.703 -114.6937
9.500000 95.781 -115.3267
9.620000 95.855 -115.9566
9.750000 95.931 -116.6342
9.880000 96.000 -117.3079
10.000000 96.054 -117.9277
10.150000 96.112 -118.6977
10.300000 96.160 -119.4571
10.440000 96.196 -120.1552
10.600000 96.232 -120.9440
10.750000 96.263 -121.6758
10.900000 96.291 -122.4007
11.060000 96.318 -123.1719
11.200000 96.340 -123.8465
11.380000 96.364 -124.6980
11.500000 96.377 -125.2542
11.720000 96.395 -126.2442
11.800000 96.401 -126.5916
12.060000 96.416 -127.6779
12.200000 96.423 -128.2356
12.410000 96.434 -129.0355
12.500000 96.438 -129.3631
12.650000 96.443 -129.8891
12.800000 96.448 -130.3914
13.150000 96.459 -131.4741
13.200000 96.462 -131.6190
13.400000 96.471 -132.1742
13.600000 96.484 -132.6901
13.800000 96.502 -133.1652
14.000000 96.525 -133.6104
14.300000 96.573 -134.2328
14.500000 96.615 -134.6343
14.750000 96.680 -135.1601
15.000000 96.760 -135.7357
15.250000 96.850 -136.4094
15.500000 96.943 -137.1876
15.750000 97.032 -138.0679
16.000000 97.108 -139.0304
16.250000 97.167 -140.0298
16.500000 97.209 -141.0331
16.750000 97.235 -141.9924
17.000000 97.250 -142.8684
17.250000 97.258 -143.6488
17.500000 97.264 -144.3220
17.750000 97.273 -144.9013
18.000000 97.287 -145.4053
18.250000 97.310 -145.8546
18.500000 97.342 -146.2840
18.750000 97.382 -146.7142
19.000000 97.429 -147.1645
19.250000 97.478 -147.6545
19.500000 97.526 -148.1822
19.750000 97.569 -148.7448
20.000000 97.604 -149.3239
20.299999 97.634 -150.0090
20.600000 97.653 -150.6518
20.900000 97.664 -151.2265
21.200001 97.673 -151.7263
21.400000 97.681 -152.0292
21.799999 97.703 -152.6011
22.000000 97.716 -152.8908
22.400000 97.745 -153.5125
22.700001 97.764 -154.0183
23.000000 97.776 -154.5423
23.299999 97.780 -155.0595
23.600000 97.779 -155.5462
24.000000 97.772 -156.1167
24.299999 97.769 -156.4762
24.700001 97.777 -156.8822
25.000000 97.795 -157.1711
25.400000 97.837 -157.6102
25.799999 97.888 -158.1863
26.200001 97.929 -158.9020
26.500000 97.945 -159.4681
26.900000 97.948 -160.1473
27.200001 97.946 -160.5420
27.600000 97.957 -160.9306
28.000000 97.998 -161.3096
28.500000 98.069 -162.0286
29.000000 98.104 -163.0152
29.500000 98.077 -163.8860
30.000000 98.033 -164.2893
30.400000 98.038 -164.3746
30.700001 98.073 -164.4754
31.100000 98.138 -164.8591
31.500000 98.185 -165.5388
32.000000 98.179 -166.4924
32.500000 98.122 -167.1185
33.000000 98.084 -167.3410
33.500000 98.103 -167.5117
34.000000 98.147 -167.9611
34.500000 98.168 -168.6362
35.000000 98.152 -169.2709
35.500000 98.128 -169.7188
36.000000 98.119 -170.0637
36.500000 98.121 -170.4245
37.000000 98.124 -170.8111
37.500000 98.127 -171.1787
38.200001 98.143 -171.7120
38.700001 98.156 -172.1867
39.500000 98.149 -173.0198
40.000000 98.131 -173.4620
40.599998 98.115 -173.9066
41.200001 98.108 -174.3499
41.799999 98.103 -174.8193
42.500000 98.099 -175.3617
43.099998 98.099 -175.8264
43.700001 98.100 -176.2923
44.400002 98.105 -176.7918
45.000000 98.122 -177.2092
45.500000 98.143 -177.6293
46.200001 98.160 -178.3531
46.799999 98.148 -178.9688
47.500000 98.118 -179.5084
48.200001 98.096 -179.8891
48.700001 98.088 179.8669
49.400002 98.083 179.5226
50.000000 98.082 179.2177
50.799999 98.082 178.7677
51.500000 98.076 178.3306
52.200001 98.062 177.8961
53.000000 98.040 177.4572
53.799999 98.025 177.0746
54.500000 98.022 176.7158
55.200001 98.020 176.2822
56.000000 98.008 175.7338
57.000000 97.978 175.0914
58.000000 97.948 174.5297
59.000000 97.924 174.0075
60.000000 97.907 173.4736
60.799999 97.894 173.0385
61.500000 97.883 172.6650
62.200001 97.873 172.2954
63.000000 97.861 171.8684
64.000000 97.843 171.3401
65.000000 97.821 170.8477
66.000000 97.799 170.3875
67.000000 97.778 169.9219
68.000000 97.751 169.4493
69.000000 97.722 169.0201
70.000000 97.698 168.5980
71.000000 97.674 168.1591
72.000000 97.651 167.7409
73.000000 97.631 167.3274
74.000000 97.609 166.9247
75.000000 97.588 166.5282
76.199997 97.557 166.0425
77.500000 97.518 165.5685
78.800003 97.485 165.0849
80.000000 97.451 164.6058
81.199997 97.420 164.1463
82.500000 97.384 163.6358
83.800003 97.345 163.1993
85.000000 97.311 162.8339
86.199997 97.274 162.4770
87.500000 97.226 162.1169
88.500000 97.190 161.8500
90.000000 97.135 161.3854
91.199997 97.093 161.0449
92.500000 97.073 160.6283
93.800003 97.057 160.0612
95.000000 97.028 159.5444
96.199997 96.989 159.1280
97.500000 96.948 158.8048
98.800003 96.917 158.5122
100.000000 96.889 158.1606
101.500000 96.837 157.6500
103.000000 96.776 157.2045
104.400002 96.730 156.8401
106.000000 96.683 156.4211
107.500000 96.639 156.0692
109.000000 96.595 155.6997
110.599998 96.538 155.2865
112.000000 96.484 154.9231
113.800003 96.409 154.4535
115.000000 96.362 154.1763
117.199997 96.291 153.7066
118.000000 96.270 153.5228
120.599998 96.191 152.8732
122.000000 96.143 152.5793
124.099998 96.081 152.1829
125.000000 96.057 152.0059
126.500000 96.016 151.6962
128.000000 95.974 151.3806
131.500000 95.876 150.6536
132.000000 95.862 150.5536
134.000000 95.803 150.1966
136.000000 95.742 149.8995
138.000000 95.676 149.6220
140.000000 95.607 149.2913
143.000000 95.495 148.6798
145.000000 95.428 148.2825
147.500000 95.357 147.7827
150.000000 95.296 147.3566
152.500000 95.223 147.0674
155.000000 95.130 146.9014
157.500000 95.047 146.6322
160.000000 95.004 146.2269
162.500000 94.970 145.8203
165.000000 94.854 145.4824
167.500000 94.667 145.2689
170.000000 94.542 145.0689
172.500000 94.528 144.7740
175.000000 94.520 144.4615
177.500000 94.451 144.2191
180.000000 94.354 143.9537
182.500000 94.269 143.6335
185.000000 94.184 143.3318
187.500000 94.080 143.0910
190.000000 93.979 142.9078
192.500000 93.896 142.7420
195.000000 93.816 142.5917
197.500000 93.738 142.4362
200.000000 93.674 142.2029
203.000000 93.604 141.9687
206.000000 93.532 141.8871
209.000000 93.439 141.7380
212.000000 93.333 141.5702
214.000000 93.267 141.4453
218.000000 93.147 141.2351
220.000000 93.092 141.1215
224.000000 92.958 140.9254
227.000000 92.859 140.8280
230.000000 92.770 140.7381
233.000000 92.677 140.7470
236.000000 92.587 140.7818
240.000000 92.480 140.6944
243.000000 92.397 140.5891
247.000000 92.273 140.5092
250.000000 92.177 140.5424
254.000000 92.051 140.5916
258.000000 91.929 140.4729
262.000000 91.818 140.3179
265.000000 91.742 140.3311
269.000000 91.645 140.4747
272.000000 91.578 140.5673
276.000000 91.494 140.6985
280.000000 91.398 140.9531
285.000000 91.251 141.1728
290.000000 91.110 141.2731
295.000000 90.980 141.4667
300.000000 90.859 141.7527
304.000000 90.780 142.0129
307.000000 90.723 142.1991
311.000000 90.643 142.3824
315.000000 90.576 142.5300
320.000000 90.482 142.9225
325.000000 90.351 143.4007
330.000000 90.246 143.6938
335.000000 90.155 144.1303
340.000000 90.070 144.6133
345.000000 89.998 145.0930
350.000000 89.933 145.5717
355.000000 89.862 146.0312
360.000000 89.790 146.5045
365.000000 89.721 147.0354
370.000000 89.662 147.5899
375.000000 89.615 148.0758
382.000000 89.560 148.6812
387.000000 89.535 149.0943
395.000000 89.490 149.7982
400.000000 89.448 150.2659
406.000000 89.409 150.7805
412.000000 89.384 151.2250
418.000000 89.366 151.6494
425.000000 89.353 152.1193
431.000000 89.338 152.4402
437.000000 89.326 152.7435
444.000000 89.321 153.1456
450.000000 89.313 153.4904
455.000000 89.303 153.7756
462.000000 89.292 154.1492
468.000000 89.291 154.3839
475.000000 89.291 154.6218
482.000000 89.277 154.8398
487.000000 89.266 154.9911
494.000000 89.260 155.2323
500.000000 89.259 155.4178
508.000000 89.251 155.6164
515.000000 89.243 155.7937
522.000000 89.236 155.9604
530.000000 89.226 156.1626
538.000000 89.215 156.3274
545.000000 89.204 156.4760
552.000000 89.196 156.6466
560.000000 89.190 156.8364
570.000000 89.178 157.0335
580.000000 89.158 157.2349
590.000000 89.139 157.4949
600.000000 89.125 157.7574
608.000000 89.110 157.9539
615.000000 89.096 158.1287
622.000000 89.083 158.3208
630.000000 89.067 158.5452
640.000000 89.049 158.7835
650.000000 89.037 159.0190
660.000000 89.023 159.3091
670.000000 89.008 159.6317
680.000000 88.998 159.9078
690.000000 88.994 160.1544
700.000000 88.994 160.4458
710.000000 88.995 160.7463
720.000000 88.997 161.0078
730.000000 89.004 161.2535
740.000000 89.013 161.5126
750.000000 89.021 161.7502
762.000000 89.030 161.9694
775.000000 89.037 162.1514
788.000000 89.034 162.3306
800.000000 89.012 162.5178
812.000000 88.984 162.7731
825.000000 88.954 163.1797
838.000000 88.934 163.7305
850.000000 88.932 164.3244
862.000000 88.944 164.9224
875.000000 88.974 165.5425
885.000000 89.004 165.9996
900.000000 89.061 166.6383
912.000000 89.113 167.0911
925.000000 89.174 167.5415
938.000000 89.243 167.9527
950.000000 89.309 168.2910
962.000000 89.377 168.5959
975.000000 89.452 168.8943
988.000000 89.527 169.1545
1000.000000 89.600 169.3642
1015.000000 89.693 169.5777
1030.000000 89.789 169.7325
1044.000000 89.877 169.8359
1060.000000 89.976 169.9294
1075.000000 90.070 169.9688
1090.000000 90.170 169.9461
1106.000000 90.285 169.8879
1120.000000 90.385 169.8062
1138.000000 90.513 169.6730
1150.000000 90.599 169.5471
1172.000000 90.754 169.2475
1180.000000 90.808 169.1340
1206.000000 90.975 168.7174
1220.000000 91.062 168.4709
1241.000000 91.189 168.0896
1250.000000 91.242 167.9161
1265.000000 91.327 167.6154
1280.000000 91.410 167.3102
1315.000000 91.587 166.5835
1320.000000 91.610 166.4814
1340.000000 91.690 166.0828
1360.000000 91.747 165.6852
1380.000000 91.800 165.3080
1400.000000 91.865 164.9496
1430.000000 91.966 164.4411
1450.000000 92.029 164.1286
1475.000000 92.100 163.8002
1500.000000 92.169 163.5102
1525.000000 92.241 163.2602
1550.000000 92.312 163.0509
1575.000000 92.379 162.9026
1600.000000 92.447 162.7983
1625.000000 92.519 162.7314
1650.000000 92.597 162.7141
1675.000000 92.684 162.7251
1700.000000 92.783 162.7586
1725.000000 92.893 162.8011
1750.000000 93.012 162.8265
1775.000000 93.137 162.8290
1800.000000 93.268 162.8088
1825.000000 93.408 162.7565
1850.000000 93.555 162.6785
1875.000000 93.707 162.5819
1900.000000 93.867 162.4446
1925.000000 94.033 162.2583
1950.000000 94.203 162.0299
1975.000000 94.376 161.7335
2000.000000 94.553 161.3722
2030.000000 94.770 160.8470
2060.000000 94.988 160.1992
2090.000000 95.203 159.4777
2120.000000 95.417 158.6498
2140.000000 95.560 158.0355
2180.000000 95.837 156.6840
2200.000000 95.968 155.9419
2240.000000 96.207 154.3741
2270.000000 96.368 153.1146
2300.000000 96.515 151.8006
2330.000000 96.646 150.4351
2360.000000 96.758 149.0425
2400.000000 96.878 147.1915
2430.000000 96.953 145.7964
2470.000000 97.028 144.0097
2500.000000 97.071 142.7216
2540.000000 97.116 141.0200
2580.000000 97.141 139.3292
2620.000000 97.144 137.6889
2650.000000 97.132 136.5180
2690.000000 97.101 135.0281
2720.000000 97.067 133.9734
2760.000000 97.009 132.6474
2800.000000 96.937 131.4380
2850.000000 96.834 130.0754
2900.000000 96.720 128.8759
2950.000000 96.599 127.8673
3000.000000 96.478 127.0624
3040.000000 96.389 126.5586
3070.000000 96.333 126.2328
3110.000000 96.270 125.8279
3150.000000 96.215 125.4305
3200.000000 96.154 124.9222
3250.000000 96.100 124.4578
3300.000000 96.062 123.9817
3350.000000 96.020 123.3615
3400.000000 95.954 122.7384
3450.000000 95.879 122.2689
3500.000000 95.809 121.9362
3550.000000 95.744 121.6948
3600.000000 95.681 121.5434
3650.000000 95.626 121.4830
3700.000000 95.585 121.4908
3750.000000 95.557 121.5403
3820.000000 95.540 121.5837
3870.000000 95.537 121.5912
3950.000000 95.544 121.5435
4000.000000 95.550 121.4024
4060.000000 95.548 121.1051
4120.000000 95.529 120.7161
4180.000000 95.488 120.2316
4250.000000 95.391 119.5941
4310.000000 95.252 119.1533
4370.000000 95.062 118.9792
4440.000000 94.795 119.2502
4500.000000 94.553 120.0412
4550.000000 94.366 121.1786
4620.000000 94.180 123.3996
4680.000000 94.116 125.6586
4750.000000 94.170 128.4215
4820.000000 94.373 131.0013
4870.000000 94.597 132.5140
4940.000000 94.980 133.9205
5000.000000 95.331 134.3546
5080.000000 95.769 133.8322
5150.000000 96.069 132.5488
5220.000000 96.262 130.7816
5300.000000 96.337 128.5585
5380.000000 96.271 126.5135
5450.000000 96.129 125.0604
5520.000000 95.933 123.9969
5600.000000 95.663 123.3055
5700.000000 95.292 123.2352
5800.000000 94.924 123.9452
5900.000000 94.576 125.3012
6000.000000 94.265 127.1822
6080.000000 94.046 129.0282
6150.000000 93.882 130.8610
6220.000000 93.750 132.8731
6300.000000 93.637 135.3795
6400.000000 93.561 138.7572
6500.000000 93.566 142.3243
6600.000000 93.654 145.9934
6700.000000 93.827 149.6953
6800.000000 94.103 153.3447
6900.000000 94.498 156.8766
7000.000000 95.017 160.2104
7100.000000 95.664 163.1978
7200.000000 96.445 165.5823
7300.000000 97.345 166.9731
7400.000000 98.297 166.8892
7500.000000 99.174 165.1627
7620.000000 100.069 161.9417
7750.000000 101.046 157.7570
7880.000000 101.869 150.7001
8000.000000 102.126 141.7168
8120.000000 101.810 133.0162
8250.000000 101.027 126.2178
8380.000000 100.093 122.4718
8500.000000 99.290 120.9294
8620.000000 98.608 120.3271
8750.000000 97.988 119.9404
8850.000000 97.558 119.5274
9000.000000 96.915 118.5462
9120.000000 96.353 117.5515
9250.000000 95.655 116.5475
9380.000000 94.861 115.9005
9500.000000 94.058 115.7757
9620.000000 93.209 116.0851
9750.000000 92.242 116.7243
9880.000000 91.164 117.6396
10000.000000 89.950 119.5850
10150.000000 88.128 126.4384
10300.000000 86.621 139.0103
10440.000000 86.144 151.4042
10600.000000 86.246 162.2874
10750.000000 86.428 169.9254
10900.000000 86.579 176.4911
11060.000000 86.747 -177.0657
11200.000000 86.925 -171.8248
11380.000000 87.207 -165.7225
11500.000000 87.426 -162.1416
11720.000000 87.841 -156.7757
11800.000000 87.979 -155.2276
12060.000000 88.296 -151.3533
12200.000000 88.365 -149.8060
12410.000000 88.292 -147.9958
12500.000000 88.179 -147.2337
12650.000000 87.884 -145.6431
12800.000000 87.483 -143.3417
13150.000000 86.400 -134.0829
13200.000000 86.259 -132.2761
13400.000000 85.822 -123.8788
13600.000000 85.748 -113.9758
13800.000000 86.271 -103.8536
14000.000000 87.381 -96.2213
14300.000000 88.911 -94.4483
14500.000000 89.110 -96.3076
14750.000000 88.797 -94.6391
15000.000000 88.797 -88.5079
15250.000000 89.614 -82.0503
15500.000000 91.154 -79.6715
15750.000000 92.680 -85.6085
16000.000000 93.107 -99.6244
16250.000000 91.953 -112.8410
16500.000000 89.726 -117.4242
16750.000000 87.329 -113.9621
17000.000000 85.346 -105.9280
17250.000000 83.914 -95.7240
17500.000000 82.965 -84.5069
17750.000000 82.420 -72.5444
18000.000000 82.401 -59.5610
18250.000000 83.347 -46.8389
18500.000000 85.125 -39.3058
18750.000000 86.760 -39.5871
19000.000000 87.775 -43.7569
19250.000000 88.181 -47.6385
19500.000000 88.101 -50.2042
19750.000000 87.674 -52.5358
20000.000000 86.813 -55.1137
20300.000000 85.182 -56.3321
20600.000000 83.246 -54.0272
20900.000000 81.190 -48.1549
21200.000000 79.133 -38.4999
21400.000000 77.848 -30.0160
21800.000000 75.533 -18.1360
22000.000000 74.050 -46.0721
22400.000000 68.974 4.1560
22700.000000 63.315 127.6694
23000.000000 56.505 33.5381
23300.000000 50.102 -178.8750
23600.000000 48.418 -114.6797
24000.000000 49.596 -115.3906
