* Measurement data measured by REW V5.20.13
* Source: Headset (DS by VECLAN.COM), MICROPHONE (Master Volume), L, volume: 0.710. Timing signal peak level -13.0 dBFS, measurement signal peak level -12.8 dBFS
* Format: 2M Log Swept Sine, 1 sweep at -12.0 dBFS using an acoustic timing reference
* Dated: Nov 12, 2023 6:39:29 PM
* REW Settings:
*  C-weighting compensation: Off
*  Target level: 75.0 dB
* Note: ; Delay -0.0624 ms (-21 mm, -0.84 in) using estimated IR delay relative to Acoustic reference played from HEADPHONE R with no timing offset
* Measurement: Kiwi Ears Quartet DU R
* Smoothing: 1/24 octave
* Frequency Step: 1/48 octave
* Start Frequency: 1.000 Hz
*
* Freq(Hz) SPL(dB) Phase(degrees)
1.000000 68.744 -57.9416
1.015000 69.103 -56.8918
1.030000 69.451 -55.8751
1.044000 69.765 -54.9598
1.060000 70.108 -53.9581
1.075000 70.413 -53.0665
1.090000 70.699 -52.2252
1.106000 70.982 -51.3848
1.120000 71.222 -50.6812
1.138000 71.523 -49.8137
1.150000 71.719 -49.2577
1.172000 72.070 -48.2829
1.180000 72.194 -47.9422
1.206000 72.589 -46.8829
1.220000 72.795 -46.3416
1.241000 73.097 -45.5655
1.250000 73.224 -45.2454
1.265000 73.431 -44.7279
1.280000 73.634 -44.2293
1.315000 74.091 -43.1341
1.320000 74.155 -42.9848
1.340000 74.405 -42.4042
1.360000 74.649 -41.8481
1.380000 74.887 -41.3140
1.400000 75.120 -40.7994
1.430000 75.459 -40.0588
1.450000 75.680 -39.5822
1.475000 75.948 -39.0035
1.500000 76.202 -38.4575
1.525000 76.441 -37.9482
1.550000 76.667 -37.4760
1.575000 76.880 -37.0411
1.600000 77.083 -36.6439
1.625000 77.277 -36.2844
1.650000 77.463 -35.9631
1.675000 77.644 -35.6802
1.700000 77.820 -35.4360
1.725000 77.993 -35.2307
1.750000 78.165 -35.0646
1.775000 78.337 -34.9380
1.800000 78.511 -34.8512
1.825000 78.687 -34.8044
1.850000 78.866 -34.8055
1.875000 79.042 -34.8695
1.900000 79.215 -34.9913
1.925000 79.385 -35.1648
1.950000 79.553 -35.3842
1.975000 79.718 -35.6433
2.000000 79.881 -35.9362
2.030000 80.074 -36.3239
2.060000 80.264 -36.7413
2.090000 80.452 -37.1779
2.120000 80.638 -37.6235
2.140000 80.762 -37.9204
2.180000 81.007 -38.5001
2.200000 81.129 -38.7769
2.240000 81.371 -39.3432
2.270000 81.550 -39.7906
2.300000 81.728 -40.2554
2.330000 81.905 -40.7356
2.360000 82.079 -41.2291
2.400000 82.307 -41.9044
2.430000 82.475 -42.4213
2.470000 82.696 -43.1206
2.500000 82.858 -43.6501
2.540000 83.069 -44.3590
2.580000 83.275 -45.0691
2.620000 83.474 -45.7949
2.650000 83.621 -46.3504
2.690000 83.811 -47.1028
2.720000 83.951 -47.6740
2.760000 84.133 -48.4419
2.800000 84.311 -49.2137
2.850000 84.528 -50.1784
2.900000 84.741 -51.1366
2.950000 84.948 -52.0840
3.000000 85.148 -53.0394
3.040000 85.304 -53.8090
3.070000 85.418 -54.3869
3.110000 85.568 -55.1554
3.150000 85.713 -55.9180
3.200000 85.892 -56.8575
3.250000 86.066 -57.7748
3.300000 86.237 -58.6627
3.350000 86.403 -59.5225
3.400000 86.564 -60.3600
3.450000 86.721 -61.1783
3.500000 86.873 -61.9799
3.550000 87.023 -62.7678
3.600000 87.169 -63.5447
3.650000 87.314 -64.3135
3.700000 87.457 -65.0759
3.750000 87.596 -65.8303
3.820000 87.785 -66.8691
3.870000 87.918 -67.5957
3.950000 88.127 -68.7261
4.000000 88.256 -69.4092
4.060000 88.410 -70.2007
4.120000 88.562 -70.9571
4.180000 88.712 -71.6854
4.250000 88.885 -72.5107
4.310000 89.031 -73.2065
4.370000 89.177 -73.9005
4.440000 89.347 -74.7126
4.500000 89.491 -75.4005
4.550000 89.610 -75.9681
4.620000 89.776 -76.7554
4.680000 89.917 -77.4249
4.750000 90.080 -78.2014
4.820000 90.242 -78.9713
4.870000 90.357 -79.5150
4.940000 90.516 -80.2706
5.000000 90.651 -80.9159
5.080000 90.828 -81.7779
5.150000 90.980 -82.5379
5.220000 91.130 -83.3027
5.300000 91.298 -84.1792
5.380000 91.462 -85.0552
5.450000 91.602 -85.8189
5.520000 91.738 -86.5783
5.600000 91.889 -87.4463
5.700000 92.072 -88.5275
5.800000 92.248 -89.5955
5.900000 92.417 -90.6427
6.000000 92.577 -91.6759
6.080000 92.701 -92.4898
6.150000 92.806 -93.1894
6.220000 92.908 -93.8745
6.300000 93.021 -94.6406
6.400000 93.156 -95.5762
6.500000 93.286 -96.4839
6.600000 93.412 -97.3600
6.700000 93.534 -98.2011
6.800000 93.653 -99.0109
6.900000 93.768 -99.7953
7.000000 93.882 -100.5587
7.100000 93.994 -101.2955
7.200000 94.103 -102.0105
7.300000 94.211 -102.7114
7.400000 94.318 -103.4011
7.500000 94.423 -104.0744
7.620000 94.546 -104.8690
7.750000 94.676 -105.7238
7.880000 94.802 -106.5693
8.000000 94.915 -107.3409
8.120000 95.023 -108.1052
8.250000 95.134 -108.9265
8.380000 95.241 -109.7335
8.500000 95.333 -110.4614
8.620000 95.420 -111.1764
8.750000 95.509 -111.9282
8.850000 95.574 -112.4855
9.000000 95.665 -113.2918
9.120000 95.736 -113.9088
9.250000 95.810 -114.5450
9.380000 95.883 -115.1491
9.500000 95.947 -115.6859
9.620000 96.010 -116.2042
9.750000 96.075 -116.7429
9.880000 96.135 -117.2713
10.000000 96.184 -117.7533
10.150000 96.238 -118.3457
10.300000 96.287 -118.9398
10.440000 96.327 -119.4927
10.600000 96.369 -120.1352
10.750000 96.409 -120.7571
10.900000 96.449 -121.3959
11.060000 96.489 -122.1085
11.200000 96.522 -122.7599
11.380000 96.560 -123.6152
11.500000 96.580 -124.1970
11.720000 96.608 -125.2677
11.800000 96.616 -125.6521
12.060000 96.632 -126.8814
12.200000 96.636 -127.5117
12.410000 96.636 -128.4116
12.500000 96.636 -128.7695
12.650000 96.632 -129.3309
12.800000 96.629 -129.8513
13.150000 96.633 -130.9052
13.200000 96.637 -131.0459
13.400000 96.656 -131.5780
13.600000 96.686 -132.1112
13.800000 96.728 -132.6610
14.000000 96.774 -133.2599
14.300000 96.847 -134.2563
14.500000 96.889 -134.9798
14.750000 96.932 -135.8945
15.000000 96.963 -136.7891
15.250000 96.986 -137.5986
15.500000 97.011 -138.3028
15.750000 97.042 -138.9043
16.000000 97.086 -139.4373
16.250000 97.145 -139.9847
16.500000 97.214 -140.5883
16.750000 97.287 -141.3017
17.000000 97.350 -142.1121
17.250000 97.396 -142.9822
17.500000 97.420 -143.8576
17.750000 97.422 -144.6426
18.000000 97.410 -145.3024
18.250000 97.391 -145.8002
18.500000 97.382 -146.1583
18.750000 97.387 -146.4292
19.000000 97.410 -146.6632
19.250000 97.449 -146.9459
19.500000 97.495 -147.3019
19.750000 97.544 -147.7487
20.000000 97.586 -148.2702
20.299999 97.623 -148.9440
20.600000 97.646 -149.6202
20.900000 97.659 -150.2558
21.200001 97.669 -150.8350
21.400000 97.677 -151.1979
21.799999 97.698 -151.8972
22.000000 97.712 -152.2488
22.400000 97.744 -152.9799
22.700001 97.769 -153.5555
23.000000 97.791 -154.1481
23.299999 97.810 -154.7459
23.600000 97.824 -155.3329
24.000000 97.836 -156.0670
24.299999 97.841 -156.5533
24.700001 97.846 -157.0867
25.000000 97.853 -157.3943
25.400000 97.876 -157.7029
25.799999 97.919 -157.9643
26.200001 97.979 -158.2771
26.500000 98.029 -158.5953
26.900000 98.087 -159.1487
27.200001 98.114 -159.6284
27.600000 98.121 -160.2619
28.000000 98.100 -160.7580
28.500000 98.067 -161.0807
29.000000 98.070 -161.2172
29.500000 98.120 -161.5041
30.000000 98.176 -162.1854
30.400000 98.193 -162.9617
30.700001 98.181 -163.5790
31.100000 98.143 -164.3125
31.500000 98.098 -164.8796
32.000000 98.064 -165.4137
32.500000 98.069 -165.9523
33.000000 98.094 -166.6564
33.500000 98.112 -167.5003
34.000000 98.113 -168.3205
34.500000 98.110 -168.9733
35.000000 98.122 -169.4581
35.500000 98.159 -169.9058
36.000000 98.207 -170.4406
36.500000 98.242 -171.0569
37.000000 98.253 -171.6377
37.500000 98.252 -172.0972
38.200001 98.249 -172.6051
38.700001 98.245 -172.9697
39.500000 98.218 -173.5239
40.000000 98.197 -173.7972
40.599998 98.182 -174.1141
41.200001 98.173 -174.5054
41.799999 98.161 -174.9367
42.500000 98.152 -175.4232
43.099998 98.159 -175.8863
43.700001 98.165 -176.4332
44.400002 98.158 -177.0639
45.000000 98.149 -177.5000
45.500000 98.149 -177.8185
46.200001 98.158 -178.2957
46.799999 98.157 -178.7404
47.500000 98.145 -179.1957
48.200001 98.138 -179.5579
48.700001 98.141 -179.8291
49.400002 98.145 179.6921
50.000000 98.138 179.2344
50.799999 98.119 178.6852
51.500000 98.108 178.2570
52.200001 98.104 177.8221
53.000000 98.104 177.3137
53.799999 98.106 176.7754
54.500000 98.098 176.2933
55.200001 98.083 175.8821
56.000000 98.070 175.4940
57.000000 98.057 174.9668
58.000000 98.030 174.4701
59.000000 98.011 174.0216
60.000000 97.993 173.4784
60.799999 97.971 173.0470
61.500000 97.953 172.6884
62.200001 97.937 172.3183
63.000000 97.915 171.9009
64.000000 97.887 171.4377
65.000000 97.867 171.0010
66.000000 97.853 170.5489
67.000000 97.840 170.0672
68.000000 97.824 169.5618
69.000000 97.802 169.0694
70.000000 97.779 168.5972
71.000000 97.753 168.1448
72.000000 97.727 167.7138
73.000000 97.699 167.2736
74.000000 97.665 166.8393
75.000000 97.629 166.4630
76.199997 97.600 166.0112
77.500000 97.568 165.4645
78.800003 97.533 164.9717
80.000000 97.506 164.5726
81.199997 97.487 164.1485
82.500000 97.454 163.6121
83.800003 97.408 163.1341
85.000000 97.371 162.7071
86.199997 97.338 162.2450
87.500000 97.294 161.7233
88.500000 97.252 161.4121
90.000000 97.209 161.1129
91.199997 97.194 160.8210
92.500000 97.172 160.3460
93.800003 97.126 159.8652
95.000000 97.086 159.4886
96.199997 97.053 159.0994
97.500000 97.019 158.6542
98.800003 96.983 158.2283
100.000000 96.948 157.8665
101.500000 96.899 157.4603
103.000000 96.851 157.0844
104.400002 96.809 156.7166
106.000000 96.758 156.2511
107.500000 96.702 155.8336
109.000000 96.647 155.4664
110.599998 96.592 155.0634
112.000000 96.544 154.6934
113.800003 96.484 154.2193
115.000000 96.448 153.8987
117.199997 96.379 153.3196
118.000000 96.350 153.1387
120.599998 96.263 152.6839
122.000000 96.223 152.4058
124.099998 96.156 151.9415
125.000000 96.127 151.7483
126.500000 96.081 151.4322
128.000000 96.036 151.1306
131.500000 95.938 150.4464
132.000000 95.924 150.3454
134.000000 95.864 149.9615
136.000000 95.805 149.6005
138.000000 95.744 149.2674
140.000000 95.685 148.9310
143.000000 95.591 148.4132
145.000000 95.531 148.1044
147.500000 95.457 147.7029
150.000000 95.379 147.2443
152.500000 95.298 146.8141
155.000000 95.224 146.4904
157.500000 95.155 146.1947
160.000000 95.076 145.8579
162.500000 94.996 145.5076
165.000000 94.923 145.1786
167.500000 94.854 144.8542
170.000000 94.776 144.4918
172.500000 94.688 144.1558
175.000000 94.608 143.9228
177.500000 94.528 143.7804
180.000000 94.438 143.6359
182.500000 94.347 143.3938
185.000000 94.267 143.0594
187.500000 94.187 142.7662
190.000000 94.106 142.5657
192.500000 94.030 142.3339
195.000000 93.948 142.1219
197.500000 93.869 142.0518
200.000000 93.795 141.9758
203.000000 93.711 141.7546
206.000000 93.628 141.4859
209.000000 93.531 141.2626
212.000000 93.435 141.1464
214.000000 93.386 141.0613
218.000000 93.282 140.8028
220.000000 93.223 140.7203
224.000000 93.124 140.6965
227.000000 93.033 140.5922
230.000000 92.925 140.2858
233.000000 92.849 140.0074
236.000000 92.784 139.9705
240.000000 92.665 139.9478
243.000000 92.593 139.8283
247.000000 92.478 139.8669
250.000000 92.355 139.9267
254.000000 92.225 139.9733
258.000000 92.121 140.0318
262.000000 92.026 139.9828
265.000000 91.967 140.0452
269.000000 91.866 140.2260
272.000000 91.782 140.2538
276.000000 91.680 140.2915
280.000000 91.590 140.4569
285.000000 91.483 140.6418
290.000000 91.374 140.7471
295.000000 91.267 140.8425
300.000000 91.168 140.9691
304.000000 91.090 141.1928
307.000000 91.026 141.4776
311.000000 90.927 141.8788
315.000000 90.846 142.1476
320.000000 90.770 142.4203
325.000000 90.682 142.7733
330.000000 90.586 143.2548
335.000000 90.496 143.6154
340.000000 90.441 143.9532
345.000000 90.380 144.3816
350.000000 90.312 144.8011
355.000000 90.258 145.1906
360.000000 90.209 145.6174
365.000000 90.171 145.9889
370.000000 90.136 146.3909
375.000000 90.095 146.8611
382.000000 90.033 147.5082
387.000000 90.003 147.8770
395.000000 89.971 148.3648
400.000000 89.949 148.6977
406.000000 89.925 149.1555
412.000000 89.910 149.5903
418.000000 89.900 149.9302
425.000000 89.892 150.2305
431.000000 89.884 150.5386
437.000000 89.877 150.8487
444.000000 89.873 151.1395
450.000000 89.873 151.3387
455.000000 89.871 151.5028
462.000000 89.871 151.7138
468.000000 89.870 151.8690
475.000000 89.866 152.0624
482.000000 89.866 152.2551
487.000000 89.867 152.3668
494.000000 89.867 152.4666
500.000000 89.866 152.5532
508.000000 89.863 152.6984
515.000000 89.857 152.8142
522.000000 89.851 152.9213
530.000000 89.850 153.0327
538.000000 89.855 153.1448
545.000000 89.860 153.2667
552.000000 89.861 153.3852
560.000000 89.861 153.5017
570.000000 89.859 153.5955
580.000000 89.859 153.7410
590.000000 89.854 153.9882
600.000000 89.843 154.1569
608.000000 89.838 154.2557
615.000000 89.832 154.3635
622.000000 89.825 154.4891
630.000000 89.821 154.6530
640.000000 89.819 154.8655
650.000000 89.818 155.0747
660.000000 89.822 155.2769
670.000000 89.825 155.4820
680.000000 89.829 155.7045
690.000000 89.839 155.9294
700.000000 89.851 156.1512
710.000000 89.865 156.3654
720.000000 89.884 156.5771
730.000000 89.910 156.7693
740.000000 89.940 156.9328
750.000000 89.967 157.0917
762.000000 89.997 157.2837
775.000000 90.029 157.4427
788.000000 90.059 157.5238
800.000000 90.076 157.5874
812.000000 90.079 157.7372
825.000000 90.075 158.0440
838.000000 90.081 158.4584
850.000000 90.102 158.8822
862.000000 90.136 159.3445
875.000000 90.185 159.8641
885.000000 90.232 160.2440
900.000000 90.317 160.7445
912.000000 90.396 161.0974
925.000000 90.488 161.4506
938.000000 90.585 161.7635
950.000000 90.680 162.0139
962.000000 90.779 162.2318
975.000000 90.887 162.4203
988.000000 90.994 162.5760
1000.000000 91.093 162.7050
1015.000000 91.217 162.8184
1030.000000 91.346 162.8658
1044.000000 91.468 162.8596
1060.000000 91.608 162.8190
1075.000000 91.741 162.7412
1090.000000 91.879 162.5984
1106.000000 92.035 162.4101
1120.000000 92.172 162.2147
1138.000000 92.345 161.9074
1150.000000 92.459 161.6828
1172.000000 92.665 161.2051
1180.000000 92.739 161.0134
1206.000000 92.977 160.3396
1220.000000 93.101 159.9520
1241.000000 93.285 159.3581
1250.000000 93.363 159.0906
1265.000000 93.494 158.6219
1280.000000 93.623 158.1308
1315.000000 93.907 156.9741
1320.000000 93.945 156.8099
1340.000000 94.088 156.1392
1360.000000 94.213 155.4464
1380.000000 94.333 154.7422
1400.000000 94.457 154.0572
1430.000000 94.637 153.0469
1450.000000 94.757 152.3666
1475.000000 94.906 151.5169
1500.000000 95.049 150.6954
1525.000000 95.188 149.8822
1550.000000 95.324 149.0780
1575.000000 95.455 148.2773
1600.000000 95.575 147.5052
1625.000000 95.687 146.7766
1650.000000 95.800 146.0421
1675.000000 95.921 145.3025
1700.000000 96.040 144.5708
1725.000000 96.155 143.8658
1750.000000 96.269 143.1609
1775.000000 96.389 142.4451
1800.000000 96.511 141.7219
1825.000000 96.631 140.9921
1850.000000 96.749 140.2630
1875.000000 96.866 139.5195
1900.000000 96.984 138.7572
1925.000000 97.100 137.9830
1950.000000 97.210 137.2051
1975.000000 97.317 136.4208
2000.000000 97.421 135.6199
2030.000000 97.545 134.6386
2060.000000 97.667 133.6381
2090.000000 97.786 132.6268
2120.000000 97.901 131.5987
2140.000000 97.977 130.8960
2180.000000 98.117 129.4773
2200.000000 98.178 128.7609
2240.000000 98.286 127.3199
2270.000000 98.358 126.2401
2300.000000 98.430 125.1420
2330.000000 98.499 124.0376
2360.000000 98.560 122.9435
2400.000000 98.623 121.5067
2430.000000 98.660 120.4590
2470.000000 98.706 119.1002
2500.000000 98.739 118.1289
2540.000000 98.778 116.8459
2580.000000 98.803 115.5217
2620.000000 98.816 114.1854
2650.000000 98.820 113.1833
2690.000000 98.815 111.8696
2720.000000 98.800 110.9135
2760.000000 98.763 109.6850
2800.000000 98.716 108.4979
2850.000000 98.646 107.0701
2900.000000 98.553 105.7465
2950.000000 98.435 104.5879
3000.000000 98.311 103.6209
3040.000000 98.222 102.9805
3070.000000 98.161 102.5648
3110.000000 98.089 102.0527
3150.000000 98.025 101.5332
3200.000000 97.949 100.8470
3250.000000 97.875 100.1657
3300.000000 97.806 99.4659
3350.000000 97.729 98.6198
3400.000000 97.619 97.7703
3450.000000 97.489 97.1029
3500.000000 97.356 96.6278
3550.000000 97.220 96.3174
3600.000000 97.083 96.1621
3650.000000 96.954 96.1673
3700.000000 96.841 96.3215
3750.000000 96.752 96.5497
3820.000000 96.656 96.8288
3870.000000 96.590 96.9764
3950.000000 96.497 97.1400
4000.000000 96.448 97.1055
4060.000000 96.375 96.8974
4120.000000 96.266 96.6130
4180.000000 96.118 96.3069
4250.000000 95.885 96.0605
4310.000000 95.629 96.1616
4370.000000 95.331 96.7288
4440.000000 94.955 98.1195
4500.000000 94.649 100.0233
4550.000000 94.436 102.1370
4620.000000 94.260 105.7277
4680.000000 94.258 109.0419
4750.000000 94.425 112.7639
4820.000000 94.754 115.9370
4870.000000 95.065 117.6502
4940.000000 95.555 119.0691
5000.000000 95.980 119.3305
5080.000000 96.476 118.4509
5150.000000 96.797 116.7870
5220.000000 96.986 114.6219
5300.000000 97.035 111.9521
5380.000000 96.919 109.4963
5450.000000 96.710 107.7729
5520.000000 96.436 106.5255
5600.000000 96.073 105.7330
5700.000000 95.582 105.6879
5800.000000 95.086 106.5891
5900.000000 94.615 108.2566
6000.000000 94.199 110.5408
6080.000000 93.908 112.7449
6150.000000 93.685 114.9009
6220.000000 93.492 117.2434
6300.000000 93.315 120.1004
6400.000000 93.170 123.8748
6500.000000 93.102 127.8212
6600.000000 93.109 131.8777
6700.000000 93.194 136.0074
6800.000000 93.375 140.1483
6900.000000 93.672 144.2485
7000.000000 94.098 148.2286
7100.000000 94.654 151.9626
7200.000000 95.345 155.2164
7300.000000 96.166 157.6086
7400.000000 97.066 158.6864
7500.000000 97.936 158.1872
7620.000000 98.845 156.2668
7750.000000 99.825 153.5533
7880.000000 100.745 148.2968
8000.000000 101.194 140.5159
8120.000000 101.079 132.1010
8250.000000 100.436 124.9756
8380.000000 99.550 120.8882
8500.000000 98.742 119.2862
8620.000000 98.045 118.8601
8750.000000 97.414 118.8391
8850.000000 96.988 118.7549
9000.000000 96.371 118.2700
9120.000000 95.838 117.6508
9250.000000 95.175 117.0206
9380.000000 94.415 116.7126
9500.000000 93.650 116.8303
9620.000000 92.846 117.2892
9750.000000 91.920 117.9799
9880.000000 90.857 118.8867
10000.000000 89.625 120.9400
10150.000000 87.772 128.3195
10300.000000 86.309 141.5345
10440.000000 85.923 154.1876
10600.000000 86.097 165.1242
10750.000000 86.315 172.7789
10900.000000 86.494 179.3592
11060.000000 86.687 -174.1692
11200.000000 86.889 -168.9018
11380.000000 87.197 -162.7621
11500.000000 87.429 -159.1542
11720.000000 87.868 -153.7492
11800.000000 88.013 -152.1873
12060.000000 88.349 -148.3085
12200.000000 88.426 -146.7632
12410.000000 88.366 -144.9407
12500.000000 88.261 -144.1828
12650.000000 87.981 -142.6197
12800.000000 87.594 -140.3735
13150.000000 86.522 -131.3567
13200.000000 86.378 -129.5984
13400.000000 85.923 -121.4253
13600.000000 85.802 -111.7478
13800.000000 86.238 -101.7132
14000.000000 87.252 -93.8334
14300.000000 88.732 -91.1740
14500.000000 88.944 -92.5885
14750.000000 88.632 -90.5980
15000.000000 88.612 -84.1478
15250.000000 89.394 -77.2531
15500.000000 90.910 -74.1634
15750.000000 92.479 -78.9987
16000.000000 93.044 -92.0640
16250.000000 92.071 -105.2945
16500.000000 89.973 -110.4893
16750.000000 87.634 -107.5542
17000.000000 85.673 -99.8271
17250.000000 84.252 -89.7926
17500.000000 83.328 -78.7422
17750.000000 82.820 -67.1052
18000.000000 82.796 -54.7318
18250.000000 83.629 -42.5213
18500.000000 85.309 -34.7358
18750.000000 86.948 -34.4586
19000.000000 87.993 -38.3715
19250.000000 88.419 -42.2159
19500.000000 88.344 -44.8036
19750.000000 87.927 -47.1341
20000.000000 87.093 -49.8502
20300.000000 85.471 -51.5328
20600.000000 83.481 -49.6737
20900.000000 81.300 -43.7969
21200.000000 79.086 -33.4660
21400.000000 77.717 -24.2844
21800.000000 75.363 -12.7408
22000.000000 73.900 -46.5875
22400.000000 68.904 -63.4894
22700.000000 63.317 152.3206
23000.000000 56.547 -15.3691
23300.000000 50.136 101.1562
23600.000000 48.572 21.9219
24000.000000 50.074 87.6172
