* Measurement data measured by REW V5.20.13
* Source: Headset (DS by VECLAN.COM), MICROPHONE (Master Volume), L, volume: 0.710. Timing signal peak level -12.5 dBFS, measurement signal peak level -11.7 dBFS
* Format: 2M Log Swept Sine, 1 sweep at -12.0 dBFS using an acoustic timing reference
* Dated: Nov 12, 2023 6:41:10 PM
* REW Settings:
*  C-weighting compensation: Off
*  Target level: 75.0 dB
* Note: ; Delay 0.0047 ms (1.6 mm, 0.06 in) using estimated IR delay relative to Acoustic reference played from HEADPHONE R with no timing offset
* Measurement: Kiwi Ears Quartet UD R
* Smoothing: 1/24 octave
* Frequency Step: 1/48 octave
* Start Frequency: 1.000 Hz
*
* Freq(Hz) SPL(dB) Phase(degrees)
1.000000 72.060 -27.7979
1.015000 72.275 -27.6257
1.030000 72.490 -27.4757
1.044000 72.689 -27.3569
1.060000 72.915 -27.2478
1.075000 73.126 -27.1727
1.090000 73.335 -27.1256
1.106000 73.557 -27.1087
1.120000 73.753 -27.1287
1.138000 74.007 -27.2003
1.150000 74.179 -27.2748
1.172000 74.496 -27.4617
1.180000 74.611 -27.5446
1.206000 74.989 -27.8619
1.220000 75.193 -28.0598
1.241000 75.498 -28.3862
1.250000 75.629 -28.5354
1.265000 75.846 -28.7944
1.280000 76.061 -29.0639
1.315000 76.556 -29.7191
1.320000 76.625 -29.8142
1.340000 76.900 -30.1948
1.360000 77.170 -30.5706
1.380000 77.432 -30.9353
1.400000 77.687 -31.2827
1.430000 78.052 -31.7576
1.450000 78.283 -32.0341
1.475000 78.556 -32.3272
1.500000 78.814 -32.5859
1.525000 79.058 -32.8208
1.550000 79.290 -33.0362
1.575000 79.510 -33.2364
1.600000 79.721 -33.4258
1.625000 79.922 -33.6086
1.650000 80.116 -33.7891
1.675000 80.304 -33.9717
1.700000 80.486 -34.1607
1.725000 80.664 -34.3603
1.750000 80.840 -34.5749
1.775000 81.014 -34.8088
1.800000 81.188 -35.0662
1.825000 81.362 -35.3516
1.850000 81.537 -35.6663
1.875000 81.705 -36.0045
1.900000 81.868 -36.3632
1.925000 82.026 -36.7398
1.950000 82.180 -37.1316
1.975000 82.330 -37.5360
2.000000 82.477 -37.9502
2.030000 82.650 -38.4566
2.060000 82.822 -38.9687
2.090000 82.991 -39.4820
2.120000 83.161 -39.9918
2.140000 83.274 -40.3275
2.180000 83.503 -40.9827
2.200000 83.619 -41.2995
2.240000 83.853 -41.9245
2.270000 84.029 -42.3910
2.300000 84.204 -42.8557
2.330000 84.379 -43.3191
2.360000 84.552 -43.7814
2.400000 84.782 -44.3967
2.430000 84.952 -44.8577
2.470000 85.176 -45.4723
2.500000 85.341 -45.9335
2.540000 85.557 -46.5495
2.580000 85.767 -47.1672
2.620000 85.972 -47.7855
2.650000 86.123 -48.2494
2.690000 86.321 -48.8680
2.720000 86.467 -49.3320
2.760000 86.658 -49.9507
2.800000 86.846 -50.5692
2.850000 87.078 -51.3419
2.900000 87.305 -52.1140
2.950000 87.530 -52.8861
3.000000 87.750 -53.6647
3.040000 87.923 -54.2908
3.070000 88.051 -54.7608
3.110000 88.219 -55.3861
3.150000 88.385 -56.0078
3.200000 88.588 -56.7761
3.250000 88.789 -57.5306
3.300000 88.986 -58.2666
3.350000 89.179 -58.9814
3.400000 89.369 -59.6784
3.450000 89.555 -60.3621
3.500000 89.737 -61.0373
3.550000 89.917 -61.7087
3.600000 90.093 -62.3810
3.650000 90.267 -63.0589
3.700000 90.438 -63.7451
3.750000 90.607 -64.4360
3.820000 90.837 -65.4058
3.870000 90.998 -66.0964
3.950000 91.251 -67.1905
4.000000 91.405 -67.8630
4.060000 91.588 -68.6543
4.120000 91.768 -69.4284
4.180000 91.944 -70.1901
4.250000 92.145 -71.0701
4.310000 92.313 -71.8227
4.370000 92.478 -72.5791
4.440000 92.666 -73.4714
4.500000 92.824 -74.2416
4.550000 92.952 -74.8847
4.620000 93.128 -75.7833
4.680000 93.274 -76.5487
4.750000 93.441 -77.4317
4.820000 93.604 -78.3030
4.870000 93.717 -78.9210
4.940000 93.871 -79.7795
5.000000 93.999 -80.5090
5.080000 94.165 -81.4718
5.150000 94.305 -82.3046
5.220000 94.441 -83.1320
5.300000 94.589 -84.0686
5.380000 94.732 -84.9905
5.450000 94.853 -85.7811
5.520000 94.971 -86.5536
5.600000 95.100 -87.4187
5.700000 95.254 -88.4733
5.800000 95.401 -89.4945
5.900000 95.543 -90.4786
6.000000 95.680 -91.4248
6.080000 95.785 -92.1571
6.150000 95.874 -92.7817
6.220000 95.963 -93.3927
6.300000 96.063 -94.0723
6.400000 96.184 -94.8921
6.500000 96.303 -95.6864
6.600000 96.421 -96.4630
6.700000 96.538 -97.2167
6.800000 96.653 -97.9487
6.900000 96.767 -98.6709
7.000000 96.880 -99.3934
7.100000 96.992 -100.1095
7.200000 97.102 -100.8212
7.300000 97.210 -101.5338
7.400000 97.316 -102.2507
7.500000 97.419 -102.9697
7.620000 97.538 -103.8321
7.750000 97.661 -104.7645
7.880000 97.777 -105.6998
8.000000 97.879 -106.5533
8.120000 97.974 -107.3870
8.250000 98.070 -108.2754
8.380000 98.161 -109.1360
8.500000 98.240 -109.8953
8.620000 98.314 -110.6254
8.750000 98.392 -111.3819
8.850000 98.451 -111.9367
9.000000 98.538 -112.7233
9.120000 98.608 -113.3257
9.250000 98.687 -113.9567
9.380000 98.768 -114.5605
9.500000 98.843 -115.1148
9.620000 98.918 -115.6749
9.750000 99.000 -116.2808
9.880000 99.076 -116.9009
10.000000 99.138 -117.4941
10.150000 99.208 -118.2550
10.300000 99.267 -119.0289
10.440000 99.311 -119.7674
10.600000 99.353 -120.6136
10.750000 99.387 -121.3990
10.900000 99.414 -122.1768
11.060000 99.439 -122.9763
11.200000 99.456 -123.6545
11.380000 99.475 -124.4743
11.500000 99.486 -124.9806
11.720000 99.507 -125.8415
11.800000 99.517 -126.1327
12.060000 99.555 -127.0133
12.200000 99.583 -127.4734
12.410000 99.632 -128.1489
12.500000 99.654 -128.4452
12.650000 99.694 -128.9435
12.800000 99.735 -129.4543
13.150000 99.825 -130.7136
13.200000 99.837 -130.8980
13.400000 99.882 -131.6504
13.600000 99.922 -132.4011
13.800000 99.956 -133.1418
14.000000 99.985 -133.8604
14.300000 100.019 -134.8904
14.500000 100.037 -135.5399
14.750000 100.057 -136.3158
15.000000 100.075 -137.0540
15.250000 100.091 -137.7616
15.500000 100.106 -138.4226
15.750000 100.118 -139.0279
16.000000 100.129 -139.5611
16.250000 100.146 -140.0327
16.500000 100.171 -140.4593
16.750000 100.210 -140.8696
17.000000 100.261 -141.3162
17.250000 100.321 -141.8244
17.500000 100.386 -142.4248
17.750000 100.445 -143.1134
18.000000 100.494 -143.8660
18.250000 100.530 -144.6547
18.500000 100.553 -145.4210
18.750000 100.566 -146.1392
19.000000 100.574 -146.7856
19.250000 100.583 -147.3576
19.500000 100.595 -147.8742
19.750000 100.614 -148.3511
20.000000 100.638 -148.8189
20.299999 100.671 -149.3831
20.600000 100.704 -149.9537
20.900000 100.734 -150.5185
21.200001 100.762 -151.0555
21.400000 100.779 -151.3903
21.799999 100.815 -152.0114
22.000000 100.834 -152.3059
22.400000 100.877 -152.8881
22.700001 100.909 -153.3324
23.000000 100.939 -153.7853
23.299999 100.966 -154.2396
23.600000 100.991 -154.6892
24.000000 101.019 -155.2792
24.299999 101.039 -155.7210
24.700001 101.063 -156.3210
25.000000 101.077 -156.7822
25.400000 101.091 -157.4076
25.799999 101.100 -158.0397
26.200001 101.105 -158.6856
26.500000 101.106 -159.1880
26.900000 101.100 -159.8817
27.200001 101.089 -160.4022
27.600000 101.063 -161.0517
28.000000 101.030 -161.5928
28.500000 101.000 -162.0854
29.000000 101.001 -162.4612
29.500000 101.037 -162.8740
30.000000 101.089 -163.4257
30.400000 101.129 -163.9586
30.700001 101.155 -164.3875
31.100000 101.183 -164.9668
31.500000 101.205 -165.5347
32.000000 101.223 -166.2080
32.500000 101.233 -166.8169
33.000000 101.238 -167.3387
33.500000 101.245 -167.7800
34.000000 101.259 -168.1863
34.500000 101.279 -168.6141
35.000000 101.298 -169.0866
35.500000 101.308 -169.5846
36.000000 101.311 -170.0733
36.500000 101.310 -170.5390
37.000000 101.309 -170.9966
37.500000 101.306 -171.4618
38.200001 101.295 -172.0968
38.700001 101.285 -172.4995
39.500000 101.284 -173.0823
40.000000 101.291 -173.4796
40.599998 101.295 -174.0108
41.200001 101.288 -174.5229
41.799999 101.277 -174.9490
42.500000 101.277 -175.3853
43.099998 101.287 -175.8042
43.700001 101.295 -176.2904
44.400002 101.292 -176.8883
45.000000 101.281 -177.3742
45.500000 101.271 -177.7471
46.200001 101.260 -178.2360
46.799999 101.256 -178.6510
47.500000 101.254 -179.1471
48.200001 101.252 -179.6426
48.700001 101.250 -179.9893
49.400002 101.248 179.5302
50.000000 101.245 179.1202
50.799999 101.234 178.5967
51.500000 101.223 178.1786
52.200001 101.212 177.7811
53.000000 101.201 177.3099
53.799999 101.185 176.8258
54.500000 101.167 176.4285
55.200001 101.154 176.0520
56.000000 101.144 175.6046
57.000000 101.131 175.0213
58.000000 101.118 174.4442
59.000000 101.100 173.8649
60.000000 101.077 173.3531
60.799999 101.062 172.9791
61.500000 101.051 172.6363
62.200001 101.038 172.2876
63.000000 101.022 171.8950
64.000000 101.001 171.3950
65.000000 100.979 170.9079
66.000000 100.960 170.4182
67.000000 100.936 169.9153
68.000000 100.907 169.4726
69.000000 100.883 169.0631
70.000000 100.860 168.6323
71.000000 100.834 168.1894
72.000000 100.806 167.7511
73.000000 100.779 167.3130
74.000000 100.751 166.8724
75.000000 100.723 166.4511
76.199997 100.694 165.9825
77.500000 100.666 165.4717
78.800003 100.632 164.9713
80.000000 100.595 164.5334
81.199997 100.553 164.1216
82.500000 100.512 163.6843
83.800003 100.475 163.1779
85.000000 100.440 162.6793
86.199997 100.407 162.2172
87.500000 100.385 161.7338
88.500000 100.365 161.3445
90.000000 100.325 160.8923
91.199997 100.302 160.5788
92.500000 100.267 160.1302
93.800003 100.211 159.7151
95.000000 100.160 159.3777
96.199997 100.115 159.0356
97.500000 100.073 158.6404
98.800003 100.033 158.2400
100.000000 99.997 157.8886
101.500000 99.951 157.4529
103.000000 99.900 157.0444
104.400002 99.853 156.6813
106.000000 99.802 156.2603
107.500000 99.755 155.8609
109.000000 99.706 155.4611
110.599998 99.648 155.0584
112.000000 99.597 154.7295
113.800003 99.531 154.3164
115.000000 99.490 154.0379
117.199997 99.418 153.5026
118.000000 99.392 153.3049
120.599998 99.300 152.7196
122.000000 99.254 152.4350
124.099998 99.187 152.0023
125.000000 99.158 151.8182
126.500000 99.110 151.5220
128.000000 99.063 151.2393
131.500000 98.952 150.5679
132.000000 98.935 150.4733
134.000000 98.872 150.0972
136.000000 98.812 149.7189
138.000000 98.753 149.3513
140.000000 98.694 149.0132
143.000000 98.606 148.5441
145.000000 98.545 148.2245
147.500000 98.467 147.8127
150.000000 98.388 147.3819
152.500000 98.305 147.0141
155.000000 98.223 146.7129
157.500000 98.142 146.4077
160.000000 98.059 146.1013
162.500000 97.975 145.7937
165.000000 97.886 145.4823
167.500000 97.803 145.1390
170.000000 97.725 144.7824
172.500000 97.641 144.5246
175.000000 97.555 144.3500
177.500000 97.465 144.1511
180.000000 97.380 143.9091
182.500000 97.303 143.6195
185.000000 97.222 143.3434
187.500000 97.136 143.1279
190.000000 97.052 142.9420
192.500000 96.972 142.7613
195.000000 96.895 142.5926
197.500000 96.814 142.4406
200.000000 96.731 142.2926
203.000000 96.632 142.1174
206.000000 96.540 141.9473
209.000000 96.446 141.8004
212.000000 96.351 141.6833
214.000000 96.287 141.5901
218.000000 96.155 141.4040
220.000000 96.090 141.3281
224.000000 95.961 141.1938
227.000000 95.870 141.1187
230.000000 95.779 141.0494
233.000000 95.691 140.9752
236.000000 95.604 140.9358
240.000000 95.488 140.9783
243.000000 95.399 140.9995
247.000000 95.281 140.9599
250.000000 95.188 140.9719
254.000000 95.068 141.0227
258.000000 94.946 140.9952
262.000000 94.830 141.0561
265.000000 94.750 141.1534
269.000000 94.635 141.2641
272.000000 94.552 141.3178
276.000000 94.462 141.3834
280.000000 94.367 141.5742
285.000000 94.241 141.9130
290.000000 94.128 142.1984
295.000000 94.012 142.4346
300.000000 93.896 142.7468
304.000000 93.808 143.0129
307.000000 93.744 143.2284
311.000000 93.661 143.5511
315.000000 93.585 143.8824
320.000000 93.486 144.3167
325.000000 93.382 144.7610
330.000000 93.302 145.2144
335.000000 93.233 145.6569
340.000000 93.164 146.0939
345.000000 93.097 146.5182
350.000000 93.036 146.9518
355.000000 92.981 147.3924
360.000000 92.921 147.8303
365.000000 92.865 148.3119
370.000000 92.814 148.7956
375.000000 92.766 149.2302
382.000000 92.714 149.7908
387.000000 92.683 150.1716
395.000000 92.640 150.8185
400.000000 92.625 151.2269
406.000000 92.608 151.6513
412.000000 92.581 152.0771
418.000000 92.559 152.4700
425.000000 92.538 152.8296
431.000000 92.519 153.1517
437.000000 92.504 153.4856
444.000000 92.492 153.8260
450.000000 92.477 154.0516
455.000000 92.460 154.2287
462.000000 92.444 154.5033
468.000000 92.436 154.7165
475.000000 92.426 154.9432
482.000000 92.412 155.1645
487.000000 92.399 155.3066
494.000000 92.382 155.4865
500.000000 92.371 155.6371
508.000000 92.355 155.8216
515.000000 92.341 155.9825
522.000000 92.327 156.1347
530.000000 92.301 156.3296
538.000000 92.273 156.5341
545.000000 92.249 156.6912
552.000000 92.230 156.8417
560.000000 92.216 157.0301
570.000000 92.196 157.2717
580.000000 92.167 157.4823
590.000000 92.142 157.7034
600.000000 92.118 157.9595
608.000000 92.098 158.1639
615.000000 92.076 158.3441
622.000000 92.053 158.5340
630.000000 92.033 158.7596
640.000000 92.009 159.0463
650.000000 91.986 159.3226
660.000000 91.966 159.6026
670.000000 91.947 159.8910
680.000000 91.930 160.1835
690.000000 91.916 160.4791
700.000000 91.903 160.7665
710.000000 91.894 161.0576
720.000000 91.890 161.3459
730.000000 91.886 161.6217
740.000000 91.883 161.8832
750.000000 91.885 162.1227
762.000000 91.886 162.3866
775.000000 91.883 162.5973
788.000000 91.868 162.7636
800.000000 91.840 162.9466
812.000000 91.802 163.2081
825.000000 91.758 163.6113
838.000000 91.724 164.1547
850.000000 91.706 164.7479
862.000000 91.705 165.3729
875.000000 91.718 166.0299
885.000000 91.740 166.5011
900.000000 91.785 167.1495
912.000000 91.828 167.6269
925.000000 91.882 168.0934
938.000000 91.939 168.5055
950.000000 91.996 168.8570
962.000000 92.055 169.1802
975.000000 92.120 169.4773
988.000000 92.189 169.7239
1000.000000 92.252 169.9213
1015.000000 92.331 170.1427
1030.000000 92.412 170.3002
1044.000000 92.490 170.3817
1060.000000 92.579 170.4432
1075.000000 92.658 170.4641
1090.000000 92.743 170.4337
1106.000000 92.841 170.3444
1120.000000 92.927 170.2326
1138.000000 93.032 170.0582
1150.000000 93.099 169.9140
1172.000000 93.221 169.5892
1180.000000 93.264 169.4538
1206.000000 93.397 168.9770
1220.000000 93.468 168.7034
1241.000000 93.573 168.2532
1250.000000 93.617 168.0499
1265.000000 93.684 167.7070
1280.000000 93.744 167.3642
1315.000000 93.860 166.5720
1320.000000 93.875 166.4580
1340.000000 93.925 165.9944
1360.000000 93.953 165.5405
1380.000000 93.973 165.1092
1400.000000 94.004 164.6966
1430.000000 94.055 164.1173
1450.000000 94.085 163.7697
1475.000000 94.119 163.3707
1500.000000 94.144 163.0255
1525.000000 94.160 162.7422
1550.000000 94.172 162.5115
1575.000000 94.186 162.3289
1600.000000 94.203 162.1968
1625.000000 94.223 162.1234
1650.000000 94.248 162.0860
1675.000000 94.279 162.0982
1700.000000 94.318 162.1481
1725.000000 94.369 162.2134
1750.000000 94.431 162.2989
1775.000000 94.502 162.3785
1800.000000 94.579 162.4542
1825.000000 94.665 162.5176
1850.000000 94.761 162.5462
1875.000000 94.863 162.5580
1900.000000 94.971 162.5435
1925.000000 95.085 162.4859
1950.000000 95.207 162.3818
1975.000000 95.338 162.2183
2000.000000 95.472 161.9996
2030.000000 95.635 161.6678
2060.000000 95.803 161.2333
2090.000000 95.976 160.6994
2120.000000 96.147 160.0699
2140.000000 96.261 159.5930
2180.000000 96.484 158.5046
2200.000000 96.590 157.8960
2240.000000 96.787 156.5610
2270.000000 96.919 155.4797
2300.000000 97.037 154.3335
2330.000000 97.143 153.1288
2360.000000 97.234 151.8828
2400.000000 97.328 150.1929
2430.000000 97.379 148.9343
2470.000000 97.426 147.2926
2500.000000 97.453 146.1083
2540.000000 97.480 144.5440
2580.000000 97.488 142.9630
2620.000000 97.471 141.4087
2650.000000 97.445 140.2834
2690.000000 97.392 138.8553
2720.000000 97.340 137.8422
2760.000000 97.256 136.5821
2800.000000 97.161 135.4131
2850.000000 97.032 134.0898
2900.000000 96.890 132.9272
2950.000000 96.740 131.9580
3000.000000 96.590 131.1975
3040.000000 96.477 130.7409
3070.000000 96.401 130.4656
3110.000000 96.317 130.1398
3150.000000 96.251 129.8167
3200.000000 96.181 129.3731
3250.000000 96.117 128.8929
3300.000000 96.062 128.3759
3350.000000 96.005 127.7155
3400.000000 95.924 127.0236
3450.000000 95.830 126.4629
3500.000000 95.739 126.0266
3550.000000 95.653 125.6795
3600.000000 95.572 125.3746
3650.000000 95.490 125.1319
3700.000000 95.406 124.9737
3750.000000 95.326 124.9081
3820.000000 95.221 124.9734
3870.000000 95.160 125.1163
3950.000000 95.105 125.4633
4000.000000 95.101 125.5912
4060.000000 95.097 125.5390
4120.000000 95.080 125.3117
4180.000000 95.045 124.9772
4250.000000 94.964 124.5165
4310.000000 94.842 124.1929
4370.000000 94.678 124.0757
4440.000000 94.453 124.3144
4500.000000 94.245 124.9852
4550.000000 94.080 125.9633
4620.000000 93.913 127.9532
4680.000000 93.868 130.0192
4750.000000 93.940 132.5120
4820.000000 94.144 134.8041
4870.000000 94.363 136.1211
4940.000000 94.740 137.2715
5000.000000 95.088 137.5058
5080.000000 95.516 136.7542
5150.000000 95.806 135.2897
5220.000000 95.986 133.3478
5300.000000 96.051 130.9282
5380.000000 95.978 128.6973
5450.000000 95.830 127.0958
5520.000000 95.629 125.8828
5600.000000 95.352 125.0223
5700.000000 94.970 124.7548
5800.000000 94.587 125.2997
5900.000000 94.234 126.4889
6000.000000 93.916 128.2123
6080.000000 93.694 129.9213
6150.000000 93.529 131.6287
6220.000000 93.394 133.5125
6300.000000 93.280 135.8560
6400.000000 93.199 139.0244
6500.000000 93.192 142.3796
6600.000000 93.260 145.8484
6700.000000 93.411 149.3610
6800.000000 93.656 152.8562
6900.000000 94.015 156.2736
7000.000000 94.499 159.5428
7100.000000 95.107 162.5425
7200.000000 95.849 165.0187
7300.000000 96.718 166.5816
7400.000000 97.656 166.7761
7500.000000 98.548 165.3338
7620.000000 99.449 162.2420
7750.000000 100.387 158.4443
7880.000000 101.262 152.3827
8000.000000 101.674 144.0080
8120.000000 101.532 135.1393
8250.000000 100.886 127.5945
8380.000000 100.015 123.0335
8500.000000 99.225 120.8918
8620.000000 98.546 119.8404
8750.000000 97.931 119.0766
8850.000000 97.509 118.4025
9000.000000 96.880 117.0435
9120.000000 96.325 115.7457
9250.000000 95.642 114.3880
9380.000000 94.872 113.3279
9500.000000 94.100 112.6732
9620.000000 93.287 112.1828
9750.000000 92.340 111.4679
9880.000000 91.207 110.4120
10000.000000 89.789 110.4717
10150.000000 87.377 117.2290
10300.000000 85.169 133.9037
10440.000000 84.650 150.7302
10600.000000 85.132 164.0600
10750.000000 85.602 172.2038
10900.000000 85.942 178.7070
11060.000000 86.247 -175.0352
11200.000000 86.516 -169.9605
11380.000000 86.888 -164.0509
11500.000000 87.152 -160.5800
11720.000000 87.640 -155.3966
11800.000000 87.801 -153.9090
12060.000000 88.185 -150.2497
12200.000000 88.284 -148.7985
12410.000000 88.249 -147.0676
12500.000000 88.153 -146.3358
12650.000000 87.886 -144.8029
12800.000000 87.512 -142.5685
13150.000000 86.494 -133.5152
13200.000000 86.361 -131.7444
13400.000000 85.948 -123.5072
13600.000000 85.878 -113.7491
13800.000000 86.384 -103.6450
14000.000000 87.487 -95.7646
14300.000000 89.091 -93.3892
14500.000000 89.369 -95.2048
14750.000000 89.122 -93.7703
15000.000000 89.164 -87.8453
15250.000000 90.011 -81.5870
15500.000000 91.553 -79.4999
15750.000000 93.031 -85.6334
16000.000000 93.397 -99.2779
16250.000000 92.235 -111.6430
16500.000000 90.077 -115.5397
16750.000000 87.798 -111.7376
17000.000000 85.945 -103.5838
17250.000000 84.644 -93.3944
17500.000000 83.841 -82.3948
17750.000000 83.450 -71.0660
18000.000000 83.510 -59.3492
18250.000000 84.340 -48.0362
18500.000000 85.938 -40.9454
18750.000000 87.491 -40.8727
19000.000000 88.472 -44.6270
19250.000000 88.855 -48.1841
19500.000000 88.751 -50.4433
19750.000000 88.315 -52.3199
20000.000000 87.489 -54.5219
20300.000000 85.914 -55.7811
20600.000000 83.970 -53.6344
20900.000000 81.835 -47.3794
21200.000000 79.699 -36.5787
21400.000000 78.422 -27.1235
21800.000000 76.294 -10.0852
22000.000000 74.906 -21.5766
22400.000000 69.959 -99.3790
22700.000000 64.362 -109.7395
23000.000000 57.544 125.8984
23300.000000 50.816 75.9648
23600.000000 48.916 56.3750
24000.000000 50.811 -96.8750
