* Measurement data measured by REW V5.20.13
* Source: Headset (DS by VECLAN.COM), MICROPHONE (Master Volume), L, volume: 0.710. Timing signal peak level -15.4 dBFS, measurement signal peak level -15.0 dBFS
* Format: 2M Log Swept Sine, 1 sweep at -12.0 dBFS using an acoustic timing reference
* Dated: Nov 11, 2023 3:42:17 PM
* REW Settings:
*  C-weighting compensation: Off
*  Target level: 75.0 dB
* Note: ; Delay -0.0640 ms (-22 mm, -0.86 in) using estimated IR delay relative to Acoustic reference played from HEADPHONE L with no timing offset
* Measurement: KZ Castor Bass DDUU L
* Smoothing: 1/24 octave
* Frequency Step: 1/48 octave
* Start Frequency: 1.000 Hz
*
* Freq(Hz) SPL(dB) Phase(degrees)
1.000000 64.117 106.1864
1.015000 64.239 108.7205
1.030000 64.355 111.0976
1.044000 64.459 113.1605
1.060000 64.569 115.3165
1.075000 64.663 117.1256
1.090000 64.746 118.7129
1.106000 64.826 120.1578
1.120000 64.901 121.2852
1.138000 65.007 122.5722
1.150000 65.082 123.3300
1.172000 65.227 124.5146
1.180000 65.282 124.8806
1.206000 65.462 125.8355
1.220000 65.559 126.2037
1.241000 65.701 126.5680
1.250000 65.760 126.6562
1.265000 65.855 126.7141
1.280000 65.943 126.6619
1.315000 66.120 126.1227
1.320000 66.141 125.9989
1.340000 66.212 125.3895
1.360000 66.260 124.6005
1.380000 66.283 123.6360
1.400000 66.276 122.5002
1.430000 66.204 120.4848
1.450000 66.109 118.9394
1.475000 65.928 116.7683
1.500000 65.629 114.1737
1.525000 65.220 111.1532
1.550000 64.723 107.7489
1.575000 64.157 104.0027
1.600000 63.545 99.9567
1.625000 62.908 95.6530
1.650000 62.268 91.1334
1.675000 61.644 86.4400
1.700000 61.060 81.6149
1.725000 60.536 76.7001
1.750000 60.093 71.7375
1.775000 59.753 66.7692
1.800000 59.537 61.8372
1.825000 59.466 56.9834
1.850000 59.551 52.0972
1.875000 59.769 46.8702
1.900000 60.103 41.3549
1.925000 60.539 35.6197
1.950000 61.060 29.7330
1.975000 61.650 23.7630
2.000000 62.295 17.7782
2.030000 63.118 10.6732
2.060000 63.969 3.7633
2.090000 64.822 -2.8332
2.120000 65.648 -8.9981
2.140000 66.172 -12.8101
2.180000 67.116 -19.5611
2.200000 67.522 -22.4311
2.240000 68.287 -27.3014
2.270000 68.850 -30.3215
2.300000 69.404 -32.8675
2.330000 69.946 -35.0009
2.360000 70.475 -36.7828
2.400000 71.157 -38.7181
2.430000 71.651 -39.9186
2.470000 72.281 -41.3013
2.500000 72.730 -42.2543
2.540000 73.297 -43.5296
2.580000 73.823 -44.8814
2.620000 74.303 -45.8977
2.650000 74.636 -46.4140
2.690000 75.046 -46.8466
2.720000 75.333 -47.0285
2.760000 75.692 -47.1530
2.800000 76.029 -47.2253
2.850000 76.429 -47.3792
2.900000 76.816 -47.7679
2.950000 77.197 -48.5440
3.000000 77.553 -49.5923
3.040000 77.818 -50.5519
3.070000 78.007 -51.3170
3.110000 78.246 -52.3672
3.150000 78.474 -53.4167
3.200000 78.745 -54.6694
3.250000 79.005 -55.7870
3.300000 79.257 -56.6950
3.350000 79.496 -57.3893
3.400000 79.718 -57.9303
3.450000 79.926 -58.3600
3.500000 80.121 -58.7204
3.550000 80.308 -59.0535
3.600000 80.487 -59.4013
3.650000 80.662 -59.8059
3.700000 80.831 -60.2861
3.750000 80.991 -60.7993
3.820000 81.200 -61.5422
3.870000 81.342 -62.0701
3.950000 81.559 -62.8690
4.000000 81.691 -63.3167
4.060000 81.846 -63.7799
4.120000 81.995 -64.1719
4.180000 82.138 -64.5117
4.250000 82.298 -64.8668
4.310000 82.432 -65.1564
4.370000 82.564 -65.4519
4.440000 82.716 -65.8140
4.500000 82.843 -66.1150
4.550000 82.947 -66.3605
4.620000 83.089 -66.7009
4.680000 83.208 -66.9945
4.750000 83.345 -67.3454
4.820000 83.479 -67.7082
4.870000 83.574 -67.9719
4.940000 83.703 -68.3450
5.000000 83.812 -68.6667
5.080000 83.953 -69.0954
5.150000 84.073 -69.4675
5.220000 84.189 -69.8367
5.300000 84.318 -70.2576
5.380000 84.442 -70.6800
5.450000 84.548 -71.0528
5.520000 84.651 -71.4313
5.600000 84.764 -71.8782
5.700000 84.899 -72.4440
5.800000 85.030 -72.9947
5.900000 85.159 -73.5069
6.000000 85.284 -73.9823
6.080000 85.382 -74.3461
6.150000 85.468 -74.6586
6.220000 85.556 -74.9706
6.300000 85.657 -75.3233
6.400000 85.785 -75.7524
6.500000 85.915 -76.1812
6.600000 86.049 -76.6232
6.700000 86.190 -77.0666
6.800000 86.334 -77.5156
6.900000 86.482 -77.9965
7.000000 86.631 -78.5319
7.100000 86.785 -79.1099
7.200000 86.941 -79.7304
7.300000 87.094 -80.3993
7.400000 87.244 -81.1237
7.500000 87.393 -81.9029
7.620000 87.566 -82.8903
7.750000 87.739 -84.0060
7.880000 87.901 -85.1900
8.000000 88.039 -86.3017
8.120000 88.163 -87.3946
8.250000 88.282 -88.5853
8.380000 88.389 -89.7353
8.500000 88.477 -90.7228
8.620000 88.554 -91.6585
8.750000 88.631 -92.5939
8.850000 88.690 -93.2428
9.000000 88.772 -94.1079
9.120000 88.839 -94.7248
9.250000 88.920 -95.3210
9.380000 89.006 -95.8367
9.500000 89.090 -96.2863
9.620000 89.179 -96.7277
9.750000 89.281 -97.1817
9.880000 89.380 -97.6497
10.000000 89.466 -98.1123
10.150000 89.569 -98.7136
10.300000 89.660 -99.3359
10.440000 89.733 -99.9468
10.600000 89.804 -100.6386
10.750000 89.861 -101.2583
10.900000 89.907 -101.8498
11.060000 89.952 -102.3959
11.200000 89.985 -102.8070
11.380000 90.031 -103.2318
11.500000 90.064 -103.4326
11.720000 90.141 -103.7071
11.800000 90.178 -103.7902
12.060000 90.324 -104.0325
12.200000 90.422 -104.2452
12.410000 90.587 -104.6775
12.500000 90.657 -104.9386
12.650000 90.778 -105.4709
12.800000 90.891 -106.1073
13.150000 91.099 -107.9818
13.200000 91.121 -108.2653
13.400000 91.186 -109.4576
13.600000 91.221 -110.5829
13.800000 91.224 -111.5883
14.000000 91.217 -112.3958
14.300000 91.202 -113.2233
14.500000 91.213 -113.5387
14.750000 91.268 -113.8529
15.000000 91.372 -114.1838
15.250000 91.516 -114.7596
15.500000 91.665 -115.6229
15.750000 91.801 -116.7631
16.000000 91.895 -118.0772
16.250000 91.941 -119.3475
16.500000 91.948 -120.4454
16.750000 91.929 -121.1932
17.000000 91.923 -121.5548
17.250000 91.950 -121.5988
17.500000 92.035 -121.4335
17.750000 92.179 -121.3225
18.000000 92.366 -121.3884
18.250000 92.580 -121.7636
18.500000 92.783 -122.4643
18.750000 92.963 -123.4109
19.000000 93.104 -124.5277
19.250000 93.202 -125.6556
19.500000 93.263 -126.7138
19.750000 93.293 -127.6379
20.000000 93.304 -128.3842
20.299999 93.303 -129.0618
20.600000 93.297 -129.5257
20.900000 93.294 -129.8138
21.200001 93.300 -129.9619
21.400000 93.312 -130.0062
21.799999 93.366 -130.0469
22.000000 93.409 -130.1021
22.400000 93.520 -130.4256
22.700001 93.610 -130.9447
23.000000 93.682 -131.7235
23.299999 93.720 -132.6762
23.600000 93.714 -133.6573
24.000000 93.647 -134.7314
24.299999 93.582 -135.1843
24.700001 93.531 -135.2844
25.000000 93.557 -135.1560
25.400000 93.697 -135.1229
25.799999 93.907 -135.7016
26.200001 94.099 -137.0103
26.500000 94.184 -138.2494
26.900000 94.204 -139.7563
27.200001 94.179 -140.4415
27.600000 94.170 -140.5969
28.000000 94.283 -140.2556
28.500000 94.605 -140.3023
29.000000 94.939 -141.7879
29.500000 95.078 -144.2054
30.000000 94.983 -146.0304
30.400000 94.845 -146.3637
30.700001 94.781 -146.0239
31.100000 94.804 -145.3442
31.500000 94.921 -144.9998
32.000000 95.072 -145.3923
32.500000 95.129 -146.1889
33.000000 95.123 -146.6704
33.500000 95.148 -146.8149
34.000000 95.236 -147.1503
34.500000 95.324 -147.9899
35.000000 95.353 -149.0914
35.500000 95.331 -150.0030
36.000000 95.313 -150.5761
36.500000 95.337 -151.0128
37.000000 95.393 -151.5667
37.500000 95.448 -152.2741
38.200001 95.501 -153.2681
38.700001 95.532 -153.8586
39.500000 95.596 -154.7010
40.000000 95.635 -155.2296
40.599998 95.675 -155.8338
41.200001 95.713 -156.3868
41.799999 95.756 -156.9674
42.500000 95.795 -157.7515
43.099998 95.809 -158.4320
43.700001 95.817 -159.0293
44.400002 95.837 -159.6613
45.000000 95.865 -160.2390
45.500000 95.891 -160.7729
46.200001 95.921 -161.5694
46.799999 95.939 -162.2280
47.500000 95.962 -162.8897
48.200001 96.003 -163.4991
48.700001 96.041 -163.9879
49.400002 96.086 -164.7675
50.000000 96.110 -165.4417
50.799999 96.132 -166.2884
51.500000 96.142 -166.9938
52.200001 96.148 -167.6072
53.000000 96.173 -168.2130
53.799999 96.220 -168.9577
54.500000 96.246 -169.7640
55.200001 96.247 -170.5323
56.000000 96.238 -171.2382
57.000000 96.233 -171.9267
58.000000 96.245 -172.4467
59.000000 96.286 -173.0464
60.000000 96.308 -173.8926
60.799999 96.299 -174.6066
61.500000 96.276 -175.2473
62.200001 96.231 -175.8239
63.000000 96.182 -176.2264
64.000000 96.198 -176.6652
65.000000 96.248 -177.6205
66.000000 96.252 -178.7701
67.000000 96.221 -179.7111
68.000000 96.191 179.7500
69.000000 96.212 179.3636
70.000000 96.236 178.7694
71.000000 96.237 178.2072
72.000000 96.248 177.5786
73.000000 96.233 176.7231
74.000000 96.190 175.9529
75.000000 96.161 175.2131
76.199997 96.126 174.2293
77.500000 96.088 173.2336
78.800003 96.050 172.2643
80.000000 96.011 171.4237
81.199997 95.956 170.6204
82.500000 95.898 169.9732
83.800003 95.875 169.3212
85.000000 95.857 168.6371
86.199997 95.837 167.9916
87.500000 95.823 167.3163
88.500000 95.803 166.6692
90.000000 95.690 165.8159
91.199997 95.612 165.6334
92.500000 95.601 165.0914
93.800003 95.541 164.1143
95.000000 95.464 163.4521
96.199997 95.421 162.8052
97.500000 95.373 161.9959
98.800003 95.316 161.2529
100.000000 95.260 160.6608
101.500000 95.201 160.0012
103.000000 95.144 159.2441
104.400002 95.065 158.5380
106.000000 94.965 157.9406
107.500000 94.888 157.4286
109.000000 94.808 156.8077
110.599998 94.704 156.1333
112.000000 94.614 155.5593
113.800003 94.497 154.8105
115.000000 94.426 154.3892
117.199997 94.327 153.5811
118.000000 94.291 153.2526
120.599998 94.166 152.1614
122.000000 94.093 151.5912
124.099998 93.968 150.8961
125.000000 93.916 150.6927
126.500000 93.838 150.3239
128.000000 93.747 149.8107
131.500000 93.462 148.7531
132.000000 93.430 148.6754
134.000000 93.335 148.3196
136.000000 93.219 147.8486
138.000000 93.030 147.2440
140.000000 92.798 146.7891
143.000000 92.663 145.9265
145.000000 92.604 145.1439
147.500000 92.441 145.0415
150.000000 92.250 145.6116
152.500000 92.111 146.0163
155.000000 92.005 146.0564
157.500000 91.858 145.7626
160.000000 91.611 145.1362
162.500000 91.342 144.6762
165.000000 91.214 144.4442
167.500000 91.145 144.0950
170.000000 91.011 144.1011
172.500000 90.828 144.3820
175.000000 90.614 144.5102
177.500000 90.427 144.4467
180.000000 90.284 144.0820
182.500000 90.106 143.7145
185.000000 89.875 143.5547
187.500000 89.636 143.5397
190.000000 89.459 143.5491
192.500000 89.321 143.5610
195.000000 89.168 143.8650
197.500000 89.011 144.3346
200.000000 88.847 144.7518
203.000000 88.671 145.2017
206.000000 88.529 145.7925
209.000000 88.367 146.1690
212.000000 88.173 146.7397
214.000000 88.065 146.9915
218.000000 87.791 147.8620
220.000000 87.655 148.8182
224.000000 87.456 150.4898
227.000000 87.310 151.1187
230.000000 87.196 151.5367
233.000000 87.103 151.7336
236.000000 86.941 152.1331
240.000000 86.634 153.3366
243.000000 86.449 154.5287
247.000000 86.403 155.9648
250.000000 86.374 157.0155
254.000000 86.270 158.7322
258.000000 86.178 160.0351
262.000000 86.103 160.9700
265.000000 86.010 162.0525
269.000000 85.972 164.3607
272.000000 86.051 165.7993
276.000000 86.112 166.1660
280.000000 86.007 166.2377
285.000000 85.746 167.1417
290.000000 85.820 168.4808
295.000000 85.887 171.8714
300.000000 85.703 173.0853
304.000000 85.684 173.7509
307.000000 85.688 174.8239
311.000000 85.728 176.2726
315.000000 85.829 177.4925
320.000000 85.898 178.7218
325.000000 85.885 179.7922
330.000000 85.876 -179.4126
335.000000 85.898 -178.6229
340.000000 85.943 -177.8963
345.000000 85.992 -177.1112
350.000000 86.046 -176.3393
355.000000 86.112 -175.4252
360.000000 86.167 -174.2852
365.000000 86.213 -173.3471
370.000000 86.255 -172.7129
375.000000 86.289 -172.1663
382.000000 86.339 -171.2147
387.000000 86.383 -170.4230
395.000000 86.508 -169.8935
400.000000 86.518 -170.0821
406.000000 86.440 -169.4389
412.000000 86.462 -168.7676
418.000000 86.597 -168.2141
425.000000 86.722 -166.8413
431.000000 86.728 -165.9257
437.000000 86.784 -165.5542
444.000000 86.859 -165.0576
450.000000 86.915 -164.6764
455.000000 86.920 -164.4029
462.000000 86.919 -163.7590
468.000000 86.968 -163.2268
475.000000 87.031 -162.6897
482.000000 87.089 -162.3172
487.000000 87.129 -162.0594
494.000000 87.181 -161.6668
500.000000 87.206 -161.3227
508.000000 87.232 -160.7087
515.000000 87.253 -160.0201
522.000000 87.270 -159.4563
530.000000 87.316 -159.1119
538.000000 87.364 -158.6523
545.000000 87.387 -158.2473
552.000000 87.416 -157.8145
560.000000 87.445 -157.1968
570.000000 87.473 -156.4545
580.000000 87.483 -155.8558
590.000000 87.503 -155.4723
600.000000 87.555 -154.9024
608.000000 87.594 -154.2055
615.000000 87.613 -153.6062
622.000000 87.633 -153.1841
630.000000 87.652 -152.7311
640.000000 87.666 -151.9093
650.000000 87.676 -151.3977
660.000000 87.722 -150.8436
670.000000 87.777 -150.0719
680.000000 87.828 -149.2527
690.000000 87.876 -148.7604
700.000000 87.913 -148.4652
710.000000 87.917 -148.0172
720.000000 87.918 -147.2675
730.000000 87.917 -146.3596
740.000000 87.923 -145.6273
750.000000 87.942 -145.0003
762.000000 87.980 -144.2309
775.000000 88.034 -143.3320
788.000000 88.083 -142.3851
800.000000 88.130 -141.4492
812.000000 88.187 -140.6254
825.000000 88.252 -139.7518
838.000000 88.314 -138.8105
850.000000 88.359 -137.9829
862.000000 88.409 -137.2735
875.000000 88.476 -136.5312
885.000000 88.526 -135.8691
900.000000 88.613 -134.7477
912.000000 88.672 -133.9845
925.000000 88.731 -133.2145
938.000000 88.800 -132.3663
950.000000 88.868 -131.5724
962.000000 88.941 -130.7816
975.000000 89.049 -130.0026
988.000000 89.160 -129.2737
1000.000000 89.245 -128.6061
1015.000000 89.347 -127.8507
1030.000000 89.446 -127.0958
1044.000000 89.541 -126.3737
1060.000000 89.655 -125.6695
1075.000000 89.771 -125.1626
1090.000000 89.895 -124.6293
1106.000000 90.024 -124.0405
1120.000000 90.131 -123.5305
1138.000000 90.266 -122.9063
1150.000000 90.356 -122.5217
1172.000000 90.517 -121.8781
1180.000000 90.574 -121.6547
1206.000000 90.758 -120.9585
1220.000000 90.852 -120.6109
1241.000000 90.994 -120.0970
1250.000000 91.059 -119.8549
1265.000000 91.164 -119.4349
1280.000000 91.259 -119.0375
1315.000000 91.472 -118.1389
1320.000000 91.502 -118.0142
1340.000000 91.619 -117.5092
1360.000000 91.715 -117.0086
1380.000000 91.804 -116.5098
1400.000000 91.904 -115.9847
1430.000000 92.064 -115.2230
1450.000000 92.172 -114.7022
1475.000000 92.303 -114.0282
1500.000000 92.430 -113.3479
1525.000000 92.558 -112.6581
1550.000000 92.685 -111.9854
1575.000000 92.807 -111.2859
1600.000000 92.929 -110.5869
1625.000000 93.059 -109.9045
1650.000000 93.193 -109.2196
1675.000000 93.326 -108.5180
1700.000000 93.460 -107.8127
1725.000000 93.601 -107.1307
1750.000000 93.748 -106.4748
1775.000000 93.898 -105.8600
1800.000000 94.050 -105.2849
1825.000000 94.204 -104.7511
1850.000000 94.355 -104.2339
1875.000000 94.504 -103.7128
1900.000000 94.656 -103.2235
1925.000000 94.813 -102.7504
1950.000000 94.972 -102.2949
1975.000000 95.132 -101.8736
2000.000000 95.296 -101.4900
2030.000000 95.496 -101.1161
2060.000000 95.697 -100.8179
2090.000000 95.895 -100.5825
2120.000000 96.093 -100.4122
2140.000000 96.224 -100.3286
2180.000000 96.482 -100.2372
2200.000000 96.605 -100.2194
2240.000000 96.845 -100.2686
2270.000000 97.025 -100.3919
2300.000000 97.204 -100.5786
2330.000000 97.378 -100.8420
2360.000000 97.543 -101.1595
2400.000000 97.748 -101.6743
2430.000000 97.889 -102.1355
2470.000000 98.062 -102.8024
2500.000000 98.182 -103.3783
2540.000000 98.327 -104.2132
2580.000000 98.448 -105.1070
2620.000000 98.543 -106.0201
2650.000000 98.590 -106.6951
2690.000000 98.630 -107.5960
2720.000000 98.645 -108.2435
2760.000000 98.638 -109.0340
2800.000000 98.611 -109.6489
2850.000000 98.571 -110.1130
2900.000000 98.544 -110.4225
2950.000000 98.534 -110.7236
3000.000000 98.521 -111.0880
3040.000000 98.500 -111.4250
3070.000000 98.479 -111.6820
3110.000000 98.437 -111.9872
3150.000000 98.385 -112.2663
3200.000000 98.304 -112.5460
3250.000000 98.203 -112.6851
3300.000000 98.093 -112.6871
3350.000000 97.985 -112.5563
3400.000000 97.884 -112.3022
3450.000000 97.798 -111.9539
3500.000000 97.726 -111.5773
3550.000000 97.654 -111.1863
3600.000000 97.579 -110.7859
3650.000000 97.502 -110.3598
3700.000000 97.421 -109.8481
3750.000000 97.341 -109.2713
3820.000000 97.228 -108.3289
3870.000000 97.148 -107.5881
3950.000000 97.029 -106.3150
4000.000000 96.958 -105.4586
4060.000000 96.884 -104.3795
4120.000000 96.819 -103.2315
4180.000000 96.769 -102.0271
4250.000000 96.730 -100.5978
4310.000000 96.706 -99.3510
4370.000000 96.690 -98.0974
4440.000000 96.690 -96.7036
4500.000000 96.705 -95.6034
4550.000000 96.728 -94.7821
4620.000000 96.769 -93.7879
4680.000000 96.797 -93.0403
4750.000000 96.822 -92.2944
4820.000000 96.837 -91.6558
4870.000000 96.840 -91.2510
4940.000000 96.837 -90.7648
5000.000000 96.825 -90.3983
5080.000000 96.789 -89.9651
5150.000000 96.740 -89.6147
5220.000000 96.673 -89.2706
5300.000000 96.574 -88.8608
5380.000000 96.448 -88.3895
5450.000000 96.324 -87.9128
5520.000000 96.186 -87.3494
5600.000000 96.017 -86.5833
5700.000000 95.791 -85.4220
5800.000000 95.552 -84.0137
5900.000000 95.316 -82.3673
6000.000000 95.087 -80.4757
6080.000000 94.918 -78.8067
6150.000000 94.784 -77.2400
6220.000000 94.660 -75.5771
6300.000000 94.532 -73.5719
6400.000000 94.404 -70.9408
6500.000000 94.314 -68.1964
6600.000000 94.262 -65.3659
6700.000000 94.250 -62.4829
6800.000000 94.288 -59.5854
6900.000000 94.404 -56.7355
7000.000000 94.600 -53.9823
7100.000000 94.862 -51.4033
7200.000000 95.185 -49.0906
7300.000000 95.569 -47.1659
7400.000000 96.012 -45.7707
7500.000000 96.500 -45.0428
7620.000000 97.127 -45.2629
7750.000000 97.793 -47.1385
7880.000000 98.260 -50.8777
8000.000000 98.423 -55.7484
8120.000000 98.277 -61.3245
8250.000000 97.749 -67.0673
8380.000000 96.898 -71.4912
8500.000000 95.924 -73.9474
8620.000000 94.856 -74.7855
8750.000000 93.671 -74.0769
8850.000000 92.777 -72.5786
9000.000000 91.514 -69.1194
9120.000000 90.582 -65.5281
9250.000000 89.651 -61.0071
9380.000000 88.809 -55.9867
9500.000000 88.114 -51.0121
9620.000000 87.498 -45.7902
9750.000000 86.918 -39.9161
9880.000000 86.425 -33.8733
10000.000000 86.037 -28.1882
10150.000000 85.638 -20.9885
10300.000000 85.336 -13.7484
10440.000000 85.139 -7.0010
10600.000000 85.015 0.6329
10750.000000 84.993 7.6450
10900.000000 85.066 14.4373
11060.000000 85.254 21.3407
11200.000000 85.511 26.9909
11380.000000 85.966 33.5031
11500.000000 86.337 37.2253
11720.000000 87.103 42.3136
11800.000000 87.387 43.4847
12060.000000 88.157 44.4250
12200.000000 88.354 43.3053
12410.000000 88.201 40.7939
12500.000000 87.966 39.9401
12650.000000 87.388 39.4564
12800.000000 86.654 40.5310
13150.000000 84.878 49.3288
13200.000000 84.665 51.1890
13400.000000 84.019 59.5272
13600.000000 83.756 68.3897
13800.000000 83.839 76.7466
14000.000000 84.162 83.9671
14300.000000 84.866 92.2915
14500.000000 85.386 96.3724
14750.000000 86.084 100.0766
15000.000000 86.881 101.9979
15250.000000 87.775 100.9515
15500.000000 88.531 95.1756
15750.000000 88.625 84.7281
16000.000000 87.664 73.7897
16250.000000 85.764 67.6098
16500.000000 83.420 67.7304
16750.000000 81.111 72.7281
17000.000000 79.086 80.7742
17250.000000 77.403 90.5845
17500.000000 76.050 101.3983
17750.000000 75.002 112.7288
18000.000000 74.238 124.1989
18250.000000 73.774 135.4372
18500.000000 73.699 146.0108
18750.000000 74.109 155.3339
19000.000000 74.878 162.6620
19250.000000 75.597 167.2442
19500.000000 75.860 168.8517
19750.000000 75.473 168.6501
20000.000000 74.389 169.0388
20300.000000 72.413 173.3222
20600.000000 70.287 -177.1029
20900.000000 68.515 -164.0869
21200.000000 67.408 -156.1163
21400.000000 67.033 -177.9258
21800.000000 66.228 -0.4333
22000.000000 65.025 -10.2780
22400.000000 59.806 -16.1826
22700.000000 53.873 122.3730
23000.000000 47.961 142.5801
23300.000000 45.892 31.9688
23600.000000 46.958 -120.8750
24000.000000 48.112 178.8281
