* Measurement data measured by REW V5.20.13
* Source: Microphone (Realtek(R) Audio), MICROPHONE (Master Volume), L, volume: 0.710. Timing signal peak level -37.4 dBFS, measurement signal peak level -37.3 dBFS
* Format: 2M Log Swept Sine, 1 sweep at -12.0 dBFS using an acoustic timing reference
* Dated: Sep 7, 2023 4:11:23 PM
* REW Settings:
*  C-weighting compensation: Off
*  Target level: 75.0 dB
* Note: ; Delay -0.0485 ms (-17 mm, -0.66 in) using estimated IR delay relative to Acoustic reference played from HEADPHONE R with no timing offset Clock adjustment: 120.6 ppm
* Measurement: KZ Krila UUDU R
* Smoothing: 1/24 octave
* Frequency Step: 1/48 octave
* Start Frequency: 20.000 Hz
*
* Freq(Hz) SPL(dB) Phase(degrees)
20.000000 93.571 7.5009
20.299999 93.546 7.0498
20.600000 93.524 6.6307
20.900000 93.506 6.2275
21.200001 93.492 5.8199
21.400000 93.484 5.5360
21.799999 93.468 4.9346
22.000000 93.458 4.6195
22.400000 93.433 3.9794
22.700001 93.408 3.5158
23.000000 93.380 3.0874
23.299999 93.353 2.6978
23.600000 93.329 2.3394
24.000000 93.303 1.8866
24.299999 93.289 1.5454
24.700001 93.272 1.0739
25.000000 93.258 0.7107
25.400000 93.236 0.2310
25.799999 93.211 -0.2206
26.200001 93.185 -0.6316
26.500000 93.166 -0.9153
26.900000 93.143 -1.2709
27.200001 93.128 -1.5306
27.600000 93.109 -1.8798
28.000000 93.089 -2.2401
28.500000 93.059 -2.7025
29.000000 93.023 -3.1571
29.500000 92.980 -3.5804
30.000000 92.934 -3.9659
30.400000 92.896 -4.2537
30.700001 92.866 -4.4617
31.100000 92.829 -4.7323
31.500000 92.793 -5.0000
32.000000 92.752 -5.3410
32.500000 92.714 -5.6979
33.000000 92.676 -6.0604
33.500000 92.641 -6.4077
34.000000 92.615 -6.7495
34.500000 92.599 -7.1414
35.000000 92.583 -7.6217
35.500000 92.550 -8.1382
36.000000 92.500 -8.5621
36.500000 92.446 -8.8055
37.000000 92.412 -8.9139
37.500000 92.401 -9.0299
38.200001 92.399 -9.3945
38.700001 92.380 -9.7625
39.500000 92.312 -10.2697
40.000000 92.261 -10.4725
40.599998 92.204 -10.6367
41.200001 92.154 -10.7787
41.799999 92.110 -10.9479
42.500000 92.061 -11.2076
43.099998 92.017 -11.4562
43.700001 91.974 -11.6929
44.400002 91.933 -11.9804
45.000000 91.902 -12.2840
45.500000 91.871 -12.5588
46.200001 91.817 -12.8777
46.799999 91.775 -13.0401
47.500000 91.744 -13.1826
48.200001 91.720 -13.3909
48.700001 91.696 -13.5729
49.400002 91.649 -13.7845
50.000000 91.606 -13.8958
50.799999 91.558 -14.0411
51.500000 91.515 -14.2513
52.200001 91.461 -14.4988
53.000000 91.395 -14.7188
53.799999 91.348 -14.9032
54.500000 91.322 -15.1583
55.200001 91.287 -15.4515
56.000000 91.245 -15.6132
57.000000 91.227 -15.6582
58.000000 91.210 -15.5453
59.000000 91.270 -15.1603
60.000000 91.363 -15.8075
60.799999 91.275 -16.6877
61.500000 91.122 -16.8438
62.200001 91.007 -16.5893
63.000000 90.927 -16.4362
64.000000 90.831 -16.4869
65.000000 90.754 -16.5856
66.000000 90.707 -16.8068
67.000000 90.679 -17.1564
68.000000 90.647 -17.5466
69.000000 90.610 -17.8963
70.000000 90.535 -18.2402
71.000000 90.416 -18.1554
72.000000 90.341 -17.6799
73.000000 90.319 -17.4358
74.000000 90.289 -17.5054
75.000000 90.241 -17.6593
76.199997 90.184 -17.7921
77.500000 90.141 -17.9269
78.800003 90.096 -18.0646
80.000000 90.045 -18.0718
81.199997 89.999 -18.0067
82.500000 89.948 -18.0070
83.800003 89.887 -18.0670
85.000000 89.831 -18.1197
86.199997 89.784 -18.1775
87.500000 89.733 -18.2421
88.500000 89.697 -18.2329
90.000000 89.647 -18.2144
91.199997 89.599 -18.1692
92.500000 89.550 -18.0829
93.800003 89.503 -18.0681
95.000000 89.455 -18.0679
96.199997 89.413 -18.0419
97.500000 89.380 -18.0372
98.800003 89.354 -18.0511
100.000000 89.331 -18.0691
101.500000 89.289 -18.0878
103.000000 89.221 -18.0122
104.400002 89.148 -17.8002
106.000000 89.088 -17.5732
107.500000 89.046 -17.5707
109.000000 89.006 -17.6587
110.599998 88.975 -17.7305
112.000000 88.940 -17.7540
113.800003 88.885 -17.6055
115.000000 88.846 -17.5443
117.199997 88.755 -17.6755
118.000000 88.715 -17.7968
120.599998 88.569 -17.7727
122.000000 88.555 -17.3835
124.099998 88.577 -17.0699
125.000000 88.573 -17.0032
126.500000 88.545 -16.9301
128.000000 88.499 -16.8917
131.500000 88.409 -16.7616
132.000000 88.401 -16.7400
134.000000 88.372 -16.6381
136.000000 88.331 -16.4918
138.000000 88.285 -16.3140
140.000000 88.245 -16.2034
143.000000 88.193 -16.0972
145.000000 88.163 -15.9258
147.500000 88.136 -15.7236
150.000000 88.090 -15.6617
152.500000 88.035 -15.5627
155.000000 87.997 -15.4308
157.500000 87.951 -15.2300
160.000000 87.899 -14.9165
162.500000 87.852 -14.6896
165.000000 87.814 -14.5319
167.500000 87.789 -14.3727
170.000000 87.760 -14.1853
172.500000 87.719 -13.9937
175.000000 87.678 -13.8627
177.500000 87.635 -13.7604
180.000000 87.589 -13.5522
182.500000 87.548 -13.2920
185.000000 87.503 -13.1003
187.500000 87.458 -12.9479
190.000000 87.437 -12.8228
192.500000 87.431 -12.7385
195.000000 87.414 -12.5665
197.500000 87.381 -12.3079
200.000000 87.335 -12.0912
203.000000 87.287 -11.8541
206.000000 87.263 -11.6220
209.000000 87.234 -11.4183
212.000000 87.197 -11.2391
214.000000 87.175 -11.1108
218.000000 87.139 -10.8066
220.000000 87.121 -10.6734
224.000000 87.076 -10.4851
227.000000 87.035 -10.2545
230.000000 86.999 -9.9479
233.000000 86.955 -9.6954
236.000000 86.914 -9.5607
240.000000 86.883 -9.4493
243.000000 86.865 -9.1469
247.000000 86.844 -8.6797
250.000000 86.835 -8.4296
254.000000 86.815 -8.2283
258.000000 86.762 -8.0291
262.000000 86.722 -7.7357
265.000000 86.702 -7.5660
269.000000 86.674 -7.3712
272.000000 86.649 -7.1364
276.000000 86.621 -6.7413
280.000000 86.605 -6.4092
285.000000 86.580 -6.0861
290.000000 86.552 -5.7145
295.000000 86.508 -5.3685
300.000000 86.473 -5.0166
304.000000 86.466 -4.7177
307.000000 86.462 -4.5126
311.000000 86.445 -4.2247
315.000000 86.417 -3.8940
320.000000 86.385 -3.5309
325.000000 86.370 -3.2421
330.000000 86.353 -2.9435
335.000000 86.335 -2.6028
340.000000 86.324 -2.2333
345.000000 86.303 -1.8214
350.000000 86.272 -1.4370
355.000000 86.247 -1.0933
360.000000 86.223 -0.7472
365.000000 86.204 -0.5225
370.000000 86.193 -0.3143
375.000000 86.176 0.0528
382.000000 86.137 0.6318
387.000000 86.126 1.0310
395.000000 86.120 1.6177
400.000000 86.108 1.8804
406.000000 86.081 2.2123
412.000000 86.055 2.6339
418.000000 86.033 3.1431
425.000000 86.008 3.6045
431.000000 85.996 3.9257
437.000000 85.981 4.2361
444.000000 85.964 4.6364
450.000000 85.957 5.0043
455.000000 85.948 5.3190
462.000000 85.927 5.8311
468.000000 85.914 6.2916
475.000000 85.896 6.7794
482.000000 85.863 7.2454
487.000000 85.863 7.5884
494.000000 85.878 8.0200
500.000000 85.880 8.3947
508.000000 85.877 8.9794
515.000000 85.868 9.4641
522.000000 85.860 9.8909
530.000000 85.853 10.3040
538.000000 85.838 10.7338
545.000000 85.835 11.1863
552.000000 85.837 11.6798
560.000000 85.833 12.2213
570.000000 85.837 12.8219
580.000000 85.840 13.3945
590.000000 85.838 13.9969
600.000000 85.844 14.5957
608.000000 85.861 15.1224
615.000000 85.876 15.5603
622.000000 85.887 15.9606
630.000000 85.898 16.4147
640.000000 85.928 16.9058
650.000000 85.972 17.3316
660.000000 86.020 17.5732
670.000000 86.049 17.3385
680.000000 86.011 16.6147
690.000000 85.792 15.8864
700.000000 85.410 16.7003
710.000000 85.160 19.3207
720.000000 85.173 21.9672
730.000000 85.292 23.6410
740.000000 85.412 24.6499
750.000000 85.510 25.4285
762.000000 85.584 26.3365
775.000000 85.636 27.2915
788.000000 85.691 28.2251
800.000000 85.749 29.0667
812.000000 85.802 29.8793
825.000000 85.861 30.7428
838.000000 85.921 31.6354
850.000000 85.982 32.4861
862.000000 86.044 33.3335
875.000000 86.102 34.1594
885.000000 86.142 34.7811
900.000000 86.217 35.7593
912.000000 86.286 36.5008
925.000000 86.359 37.2673
938.000000 86.432 37.9685
950.000000 86.505 38.5998
962.000000 86.583 39.2773
975.000000 86.659 40.0237
988.000000 86.738 40.6814
1000.000000 86.819 41.2262
1015.000000 86.917 41.9292
1030.000000 87.011 42.6505
1044.000000 87.098 43.2480
1060.000000 87.204 43.8282
1075.000000 87.301 44.3615
1090.000000 87.404 44.8899
1106.000000 87.517 45.4262
1120.000000 87.619 45.8209
1138.000000 87.756 46.3201
1150.000000 87.847 46.6731
1172.000000 87.995 47.2910
1180.000000 88.050 47.4911
1206.000000 88.237 48.0707
1220.000000 88.332 48.3428
1241.000000 88.470 48.7603
1250.000000 88.530 48.9246
1265.000000 88.628 49.1840
1280.000000 88.722 49.4476
1315.000000 88.932 50.0709
1320.000000 88.960 50.1627
1340.000000 89.069 50.5264
1360.000000 89.161 50.8715
1380.000000 89.244 51.2272
1400.000000 89.337 51.5746
1430.000000 89.481 52.0681
1450.000000 89.581 52.3998
1475.000000 89.702 52.8324
1500.000000 89.813 53.2512
1525.000000 89.924 53.6836
1550.000000 90.033 54.1053
1575.000000 90.136 54.5100
1600.000000 90.241 54.9389
1625.000000 90.346 55.3849
1650.000000 90.449 55.7992
1675.000000 90.549 56.2332
1700.000000 90.643 56.6520
1725.000000 90.740 57.0793
1750.000000 90.838 57.5693
1775.000000 90.934 58.0919
1800.000000 91.039 58.6461
1825.000000 91.159 59.2060
1850.000000 91.294 59.7069
1875.000000 91.442 60.1194
1900.000000 91.595 60.4221
1925.000000 91.739 60.6151
1950.000000 91.867 60.7355
1975.000000 91.986 60.8304
2000.000000 92.095 60.9283
2030.000000 92.217 61.0331
2060.000000 92.340 61.1356
2090.000000 92.460 61.2560
2120.000000 92.574 61.3971
2140.000000 92.649 61.4940
2180.000000 92.798 61.7067
2200.000000 92.873 61.8224
2240.000000 93.029 62.0936
2270.000000 93.155 62.3076
2300.000000 93.289 62.4490
2330.000000 93.427 62.4736
2360.000000 93.557 62.3748
2400.000000 93.714 62.1298
2430.000000 93.824 61.9280
2470.000000 93.953 61.6572
2500.000000 94.041 61.4506
2540.000000 94.148 61.1917
2580.000000 94.249 60.9590
2620.000000 94.343 60.7111
2650.000000 94.407 60.5297
2690.000000 94.483 60.3082
2720.000000 94.535 60.1772
2760.000000 94.602 60.0785
2800.000000 94.676 60.0490
2850.000000 94.791 60.0435
2900.000000 94.934 59.9109
2950.000000 95.078 59.5008
3000.000000 95.194 58.8422
3040.000000 95.257 58.2560
3070.000000 95.290 57.8367
3110.000000 95.321 57.3492
3150.000000 95.340 56.9628
3200.000000 95.365 56.6126
3250.000000 95.403 56.3721
3300.000000 95.458 56.1599
3350.000000 95.533 55.8726
3400.000000 95.621 55.4350
3450.000000 95.714 54.7990
3500.000000 95.792 53.9798
3550.000000 95.845 53.0440
3600.000000 95.874 52.0824
3650.000000 95.882 51.1224
3700.000000 95.873 50.1713
3750.000000 95.850 49.2436
3820.000000 95.792 47.9782
3870.000000 95.733 47.0815
3950.000000 95.607 45.6632
4000.000000 95.507 44.8135
4060.000000 95.369 43.8708
4120.000000 95.212 43.0015
4180.000000 95.041 42.2030
4250.000000 94.829 41.3896
4310.000000 94.630 40.7779
4370.000000 94.407 40.2488
4440.000000 94.125 39.7742
4500.000000 93.870 39.4911
4550.000000 93.651 39.3548
4620.000000 93.342 39.3303
4680.000000 93.079 39.4467
4750.000000 92.780 39.7151
4820.000000 92.488 40.0751
4870.000000 92.280 40.3649
4940.000000 91.986 40.8209
5000.000000 91.729 41.2787
5080.000000 91.375 42.0518
5150.000000 91.061 42.9054
5220.000000 90.754 43.9134
5300.000000 90.411 45.2663
5380.000000 90.077 46.8395
5450.000000 89.799 48.3860
5520.000000 89.540 50.0595
5600.000000 89.270 52.1183
5700.000000 88.970 54.8687
5800.000000 88.713 57.7609
5900.000000 88.494 60.7626
6000.000000 88.310 63.8361
6080.000000 88.182 66.3734
6150.000000 88.087 68.6746
6220.000000 88.016 71.0665
6300.000000 87.964 73.9030
6400.000000 87.948 77.5457
6500.000000 87.989 81.2227
6600.000000 88.087 84.8855
6700.000000 88.243 88.5234
6800.000000 88.473 92.1014
6900.000000 88.800 95.5798
7000.000000 89.225 98.9045
7100.000000 89.733 102.0005
7200.000000 90.332 104.7657
7300.000000 91.028 107.0728
7400.000000 91.826 108.7219
7500.000000 92.724 109.4244
7620.000000 93.919 108.5201
7750.000000 95.226 104.5389
7880.000000 96.213 96.7374
8000.000000 96.593 86.6864
8120.000000 96.327 76.0054
8250.000000 95.380 66.5766
8380.000000 94.019 60.8780
8500.000000 92.649 58.7649
8620.000000 91.320 58.9186
8750.000000 89.996 60.7982
8850.000000 89.063 63.1041
9000.000000 87.794 67.8893
9120.000000 86.948 72.7239
9250.000000 86.248 78.1277
9380.000000 85.688 83.3336
9500.000000 85.253 88.1007
9620.000000 84.895 92.8215
9750.000000 84.595 97.8140
9880.000000 84.385 102.6461
10000.000000 84.265 106.9320
10150.000000 84.199 111.9474
10300.000000 84.209 116.4536
10440.000000 84.274 120.1429
10600.000000 84.393 123.7140
10750.000000 84.525 126.4480
10900.000000 84.658 128.6663
11060.000000 84.775 130.6564
11200.000000 84.858 132.2731
11380.000000 84.989 134.3865
11500.000000 85.121 135.7386
11720.000000 85.445 137.7615
11800.000000 85.582 138.3334
12060.000000 86.107 139.4487
12200.000000 86.432 139.3353
12410.000000 86.890 137.7891
12500.000000 87.041 136.5639
12650.000000 87.181 133.8995
12800.000000 87.137 130.8528
13150.000000 86.280 125.6243
13200.000000 86.093 125.3669
13400.000000 85.284 125.8505
13600.000000 84.518 128.5007
13800.000000 83.946 132.6178
14000.000000 83.619 137.1931
14300.000000 83.481 142.6332
14500.000000 83.418 144.1421
14750.000000 82.930 144.0427
15000.000000 81.761 146.2378
15250.000000 80.588 153.0192
15500.000000 79.860 161.1305
15750.000000 79.655 168.5306
16000.000000 79.755 173.0649
16250.000000 79.889 174.0790
16500.000000 79.799 171.7483
16750.000000 79.368 167.2138
17000.000000 78.758 161.5790
17250.000000 78.219 154.8499
17500.000000 77.928 141.5297
17750.000000 77.954 76.3230
18000.000000 77.814 145.6488
18250.000000 77.148 -79.5365
18500.000000 76.337 163.1407
18750.000000 75.352 -138.4194
19000.000000 74.493 -23.9497
19250.000000 74.023 -166.6897
19500.000000 73.941 157.1938
19750.000000 74.064 158.9204
20000.000000 74.100 166.6289
