* Measurement data measured by REW V5.20.13
* Source: Microphone (Realtek(R) Audio), MICROPHONE (Master Volume), L, volume: 0.710. Timing signal peak level -37.4 dBFS, measurement signal peak level -37.3 dBFS
* Format: 2M Log Swept Sine, 1 sweep at -12.0 dBFS using an acoustic timing reference
* Dated: Sep 7, 2023 4:11:23 PM
* REW Settings:
*  C-weighting compensation: Off
*  Target level: 75.0 dB
* Note: ; Delay -0.0485 ms (-17 mm, -0.66 in) using estimated IR delay relative to Acoustic reference played from HEADPHONE R with no timing offset Clock adjustment: 120.6 ppm
* Measurement: KZ Krila UUDU R
* Smoothing: 1/48 octave
* Frequency Step: 1/96 octave
* Start Frequency: 20.000 Hz
*
* Freq(Hz) SPL(dB) Phase(degrees)
20.000000 93.570 7.4774
20.144928 93.557 7.2560
20.290907 93.545 7.0414
20.437943 93.533 6.8339
20.586044 93.522 6.6333
20.735220 93.512 6.4414
20.885475 93.504 6.2469
21.036821 93.497 6.0468
21.189262 93.491 5.8411
21.342808 93.486 5.6254
21.497467 93.481 5.4008
21.653246 93.475 5.1676
21.810154 93.469 4.9258
21.968201 93.462 4.6753
22.127390 93.453 4.4124
22.287735 93.443 4.1439
22.449242 93.431 3.8813
22.611917 93.417 3.6229
22.775772 93.402 3.3763
22.940815 93.386 3.1418
23.107054 93.369 2.9178
23.274498 93.353 2.7045
23.443153 93.338 2.5010
23.613033 93.324 2.3093
23.784142 93.312 2.1229
23.956491 93.303 1.9346
24.130091 93.295 1.7441
24.304947 93.287 1.5446
24.481071 93.281 1.3379
24.658470 93.274 1.1258
24.837156 93.267 0.9082
25.017136 93.259 0.6855
25.198421 93.249 0.4587
25.381020 93.239 0.2367
25.564941 93.227 0.0193
25.750195 93.214 -0.1874
25.936790 93.201 -0.3843
26.124741 93.188 -0.5752
26.314051 93.176 -0.7593
26.504732 93.164 -0.9346
26.696796 93.153 -1.1029
26.890253 93.142 -1.2683
27.085112 93.132 -1.4326
27.281382 93.123 -1.6011
27.479073 93.114 -1.7727
27.678198 93.105 -1.9468
27.878765 93.096 -2.1261
28.080786 93.086 -2.3123
28.284271 93.074 -2.5032
28.489231 93.062 -2.6984
28.695675 93.048 -2.8918
28.903616 93.032 -3.0830
29.113064 93.015 -3.2705
29.324028 92.996 -3.4522
29.536524 92.977 -3.6254
29.750557 92.958 -3.7914
29.966141 92.938 -3.9503
30.183289 92.917 -4.1077
30.402010 92.895 -4.2628
30.622314 92.873 -4.4152
30.844217 92.852 -4.5656
31.067726 92.830 -4.7148
31.292856 92.809 -4.8644
31.519617 92.789 -5.0145
31.748020 92.770 -5.1647
31.978081 92.752 -5.3203
32.209808 92.735 -5.4827
32.443211 92.718 -5.6537
32.678310 92.700 -5.8295
32.915108 92.682 -6.0081
33.153625 92.663 -6.1833
33.393871 92.645 -6.3512
33.635857 92.627 -6.5074
33.879597 92.614 -6.6583
34.125103 92.605 -6.8164
34.372387 92.600 -6.9937
34.621464 92.597 -7.2061
34.872345 92.593 -7.4550
35.125042 92.586 -7.7405
35.379574 92.570 -8.0422
35.635948 92.547 -8.3292
35.894180 92.516 -8.5777
36.154285 92.480 -8.7577
36.416275 92.446 -8.8629
36.680161 92.418 -8.9044
36.945961 92.400 -8.9031
37.213688 92.393 -8.9086
37.483353 92.396 -8.9520
37.754974 92.403 -9.0532
38.028561 92.409 -9.2227
38.304131 92.408 -9.4418
38.581699 92.398 -9.6826
38.861279 92.379 -9.9186
39.142883 92.352 -10.1244
39.426529 92.321 -10.2872
39.712231 92.289 -10.4104
40.000000 92.258 -10.5025
40.289856 92.229 -10.5754
40.581814 92.202 -10.6394
40.875885 92.177 -10.7001
41.172089 92.153 -10.7627
41.470440 92.131 -10.8326
41.770950 92.111 -10.9158
42.073643 92.091 -11.0191
42.378525 92.071 -11.1445
42.685616 92.049 -11.2838
42.994934 92.025 -11.4249
43.306492 92.000 -11.5563
43.620308 91.976 -11.6715
43.936401 91.954 -11.7759
44.254780 91.937 -11.8879
44.575470 91.924 -12.0269
44.898483 91.911 -12.2018
45.223835 91.895 -12.4060
45.551544 91.873 -12.6173
45.881630 91.845 -12.8059
46.214108 91.814 -12.9473
46.548996 91.784 -13.0325
46.886307 91.760 -13.0740
47.226067 91.746 -13.1031
47.568283 91.738 -13.1545
47.912983 91.734 -13.2506
48.260181 91.726 -13.3918
48.609894 91.710 -13.5553
48.962143 91.686 -13.7068
49.316940 91.656 -13.8174
49.674313 91.625 -13.8777
50.034271 91.598 -13.9038
50.396843 91.576 -13.9288
50.762039 91.559 -13.9850
51.129883 91.542 -14.0878
51.500389 91.521 -14.2313
51.873581 91.493 -14.3947
52.249481 91.459 -14.5518
52.628101 91.421 -14.6765
53.009464 91.385 -14.7534
53.393593 91.356 -14.7922
53.780506 91.339 -14.8340
54.170223 91.334 -14.9385
54.562763 91.329 -15.1414
54.958145 91.313 -15.4081
55.356396 91.281 -15.6351
55.757530 91.242 -15.7166
56.161572 91.218 -15.6472
56.568542 91.221 -15.5554
56.978462 91.239 -15.5949
57.391350 91.241 -15.7687
57.807232 91.210 -15.8702
58.226128 91.168 -15.6575
58.648056 91.169 -15.1360
59.073048 91.247 -14.6650
59.501114 91.371 -14.7230
59.932281 91.460 -15.4624
60.366577 91.442 -16.5216
60.804020 91.314 -17.2853
61.244629 91.144 -17.3683
61.688435 91.020 -16.9003
62.135452 90.975 -16.3950
62.585712 90.968 -16.2365
63.039234 90.942 -16.3713
63.496040 90.884 -16.5172
63.956161 90.821 -16.5138
64.419617 90.779 -16.4590
64.886421 90.754 -16.5002
65.356621 90.729 -16.6303
65.830215 90.703 -16.7455
66.307251 90.688 -16.8370
66.787743 90.688 -17.0048
67.271713 90.682 -17.2838
67.759193 90.658 -17.5463
68.250206 90.629 -17.6685
68.744774 90.619 -17.7203
69.242928 90.621 -17.9044
69.744690 90.599 -18.2667
70.250084 90.527 -18.5762
70.759148 90.426 -18.5410
71.271896 90.345 -18.1364
71.788361 90.316 -17.6425
72.308571 90.324 -17.3454
72.832550 90.332 -17.2979
73.360321 90.323 -17.3718
73.891922 90.301 -17.4667
74.427376 90.275 -17.5714
74.966705 90.244 -17.6853
75.509949 90.210 -17.7640
76.057121 90.180 -17.7873
76.608261 90.162 -17.8029
77.163399 90.151 -17.8616
77.722557 90.138 -17.9550
78.285767 90.120 -18.0458
78.853058 90.098 -18.1143
79.424461 90.070 -18.1449
80.000000 90.040 -18.1094
80.579712 90.016 -18.0242
81.163628 90.000 -17.9634
81.751770 89.983 -17.9674
82.344177 89.958 -17.9946
82.940880 89.929 -18.0079
83.541901 89.902 -18.0411
84.147285 89.871 -18.1064
84.757050 89.835 -18.1360
85.371231 89.807 -18.1104
85.989868 89.792 -18.1200
86.612984 89.775 -18.2172
87.240616 89.744 -18.3029
87.872803 89.711 -18.2811
88.509560 89.691 -18.2104
89.150940 89.679 -18.1926
89.796967 89.662 -18.2252
90.447670 89.634 -18.2455
91.103088 89.600 -18.2151
91.763260 89.569 -18.1289
92.428215 89.548 -18.0327
93.097992 89.534 -18.0106
93.772614 89.512 -18.0725
94.452133 89.477 -18.1166
95.136566 89.442 -18.0826
95.825966 89.417 -18.0305
96.520363 89.400 -18.0168
97.219788 89.384 -18.0271
97.924286 89.369 -18.0408
98.633881 89.356 -18.0523
99.348625 89.344 -18.0541
100.068542 89.334 -18.0593
100.793686 89.321 -18.0881
101.524078 89.298 -18.1187
102.259766 89.266 -18.1194
103.000778 89.225 -18.0804
103.747162 89.177 -17.9729
104.498962 89.132 -17.7825
105.256203 89.101 -17.5823
106.018929 89.082 -17.4686
106.787186 89.067 -17.4692
107.561012 89.047 -17.5504
108.340446 89.022 -17.6508
109.125526 88.994 -17.6992
109.916290 88.979 -17.6777
110.712791 88.981 -17.7020
111.515060 88.971 -17.8453
112.323143 88.928 -17.8787
113.137085 88.893 -17.6573
113.956924 88.886 -17.4915
114.782700 88.865 -17.5196
115.614464 88.823 -17.5018
116.452255 88.791 -17.4958
117.296112 88.757 -17.6281
118.146095 88.718 -17.7965
119.002228 88.674 -18.0878
119.864563 88.585 -18.2732
120.733154 88.504 -17.8727
121.608040 88.518 -17.3067
122.489258 88.569 -17.1251
123.376869 88.590 -17.1045
124.270905 88.592 -17.0546
125.171425 88.581 -16.9786
126.078468 88.565 -16.8982
126.992081 88.543 -16.9045
127.912323 88.502 -16.9269
128.839233 88.461 -16.8771
129.772842 88.435 -16.8130
130.713242 88.418 -16.7917
131.660431 88.402 -16.7751
132.614502 88.390 -16.7142
133.575485 88.384 -16.6556
134.543427 88.370 -16.6315
135.518387 88.345 -16.5712
136.500412 88.317 -16.4495
137.489548 88.294 -16.3266
138.485855 88.274 -16.2422
139.489380 88.254 -16.2059
140.500168 88.233 -16.1724
141.518295 88.219 -16.1503
142.543793 88.204 -16.1648
143.576721 88.181 -16.1268
144.617142 88.160 -15.9828
145.665100 88.153 -15.8203
146.720642 88.148 -15.7240
147.783844 88.138 -15.6636
148.854752 88.124 -15.6550
149.933411 88.098 -15.6982
151.019897 88.061 -15.6743
152.114243 88.034 -15.5907
153.216522 88.017 -15.5103
154.326797 88.008 -15.4542
155.445114 87.997 -15.4305
156.571533 87.976 -15.3893
157.706116 87.945 -15.2614
158.848923 87.918 -15.0513
160.000000 87.899 -14.8606
161.159424 87.879 -14.7581
162.327255 87.852 -14.6914
163.503540 87.828 -14.6136
164.688354 87.812 -14.5487
165.881760 87.801 -14.4888
167.083801 87.794 -14.4110
168.294571 87.786 -14.3255
169.514099 87.772 -14.2314
170.742462 87.753 -14.1270
171.979736 87.728 -14.0191
173.225967 87.704 -13.9138
174.481232 87.686 -13.8408
175.745605 87.670 -13.8401
177.019119 87.645 -13.8365
178.301880 87.619 -13.7585
179.593933 87.594 -13.6396
180.895340 87.571 -13.4464
182.206177 87.555 -13.2762
183.526520 87.535 -13.1708
184.856430 87.509 -13.0961
186.195984 87.477 -13.0363
187.545227 87.446 -12.9467
188.904266 87.428 -12.8401
190.273132 87.430 -12.7688
191.651932 87.439 -12.7794
193.040726 87.437 -12.7886
194.439575 87.425 -12.6935
195.848572 87.408 -12.4923
197.267761 87.391 -12.2880
198.697250 87.366 -12.1555
200.137085 87.331 -12.0870
201.587372 87.294 -11.9912
203.048157 87.274 -11.8450
204.519531 87.271 -11.7133
206.001556 87.268 -11.6242
207.494324 87.255 -11.5072
208.997925 87.238 -11.3973
210.512405 87.216 -11.3317
212.037857 87.192 -11.2471
213.574371 87.177 -11.1494
215.122025 87.165 -11.0565
216.680893 87.149 -10.9238
218.251053 87.135 -10.7543
219.832581 87.125 -10.6342
221.425583 87.112 -10.5801
223.030121 87.093 -10.5564
224.646286 87.067 -10.5130
226.274170 87.040 -10.3834
227.913849 87.020 -10.1721
229.565399 87.009 -9.9583
231.228928 86.991 -9.8019
232.904510 86.956 -9.6715
234.592224 86.919 -9.5303
236.292191 86.902 -9.4833
238.004456 86.896 -9.5720
239.729126 86.885 -9.6224
241.466309 86.870 -9.4342
243.216080 86.865 -9.1069
244.978516 86.856 -8.8513
246.753738 86.841 -8.6616
248.541809 86.832 -8.5088
250.342850 86.835 -8.3697
252.156937 86.840 -8.2510
253.984161 86.832 -8.2190
255.824646 86.798 -8.2172
257.678467 86.757 -8.1047
259.545685 86.735 -7.9237
261.426483 86.723 -7.7448
263.320862 86.712 -7.5991
265.229004 86.700 -7.5291
267.150970 86.689 -7.5001
269.086853 86.676 -7.4341
271.036774 86.660 -7.2766
273.000824 86.639 -7.0605
274.979095 86.620 -6.8296
276.971710 86.609 -6.6149
278.978760 86.610 -6.4274
281.000336 86.609 -6.3255
283.036591 86.593 -6.2407
285.087585 86.575 -6.1111
287.153442 86.566 -5.9360
289.234283 86.564 -5.7520
291.330200 86.551 -5.6080
293.441284 86.524 -5.4738
295.567688 86.497 -5.3311
297.709503 86.479 -5.1948
299.866821 86.466 -5.0532
302.039795 86.461 -4.8491
304.228485 86.466 -4.6747
306.433044 86.469 -4.5446
308.653595 86.464 -4.4276
310.890228 86.450 -4.2737
313.143066 86.431 -4.0515
315.412231 86.413 -3.8302
317.697845 86.394 -3.6600
320.000000 86.378 -3.5112
322.318848 86.374 -3.3745
324.654510 86.373 -3.2686
327.007080 86.368 -3.1460
329.376709 86.357 -3.0024
331.763519 86.343 -2.8339
334.167603 86.333 -2.6636
336.589142 86.329 -2.4966
339.028198 86.330 -2.3313
341.484924 86.326 -2.1350
343.959473 86.316 -1.9080
346.451935 86.296 -1.6794
348.962463 86.274 -1.4781
351.491211 86.258 -1.3300
354.038239 86.251 -1.1870
356.603760 86.244 -0.9943
359.187866 86.226 -0.7640
361.790680 86.209 -0.5471
364.412354 86.204 -0.5031
367.053040 86.197 -0.5216
369.712860 86.194 -0.4243
372.391968 86.195 -0.2040
375.090454 86.187 0.0609
377.808533 86.159 0.2969
380.546265 86.133 0.5228
383.303864 86.126 0.7372
386.081451 86.126 0.9509
388.879150 86.121 1.1760
391.697144 86.119 1.4292
394.535522 86.126 1.6503
397.394501 86.125 1.7805
400.274170 86.113 1.8696
403.174744 86.094 2.0088
406.096313 86.079 2.2039
409.039062 86.066 2.3848
412.003113 86.052 2.5808
414.988647 86.044 2.8537
417.995850 86.034 3.1905
421.024811 86.021 3.4777
424.075714 86.007 3.5736
427.148743 85.997 3.6700
430.244049 86.000 3.8928
433.361786 85.999 4.0878
436.502106 85.982 4.1918
439.665161 85.967 4.3362
442.851166 85.963 4.5528
446.060242 85.960 4.7773
449.292572 85.958 4.9730
452.548340 85.958 5.1351
455.827698 85.950 5.3353
459.130798 85.937 5.5931
462.457855 85.922 5.8641
465.809021 85.909 6.1294
469.184448 85.911 6.4015
472.584381 85.922 6.6514
476.008911 85.906 6.8398
479.458252 85.860 7.0427
482.932617 85.835 7.3035
486.432159 85.852 7.5672
489.957031 85.876 7.8220
493.507477 85.887 8.0009
497.083618 85.883 8.1487
500.685699 85.878 8.3973
504.313873 85.880 8.7051
507.968323 85.881 8.9955
511.649292 85.875 9.2621
515.356934 85.866 9.5005
519.091370 85.858 9.7342
522.852966 85.856 9.9720
526.641724 85.861 10.1621
530.458008 85.860 10.3029
534.301941 85.847 10.4979
538.173706 85.829 10.7177
542.073547 85.822 10.9452
546.001648 85.839 11.2474
549.958191 85.846 11.5417
553.943420 85.835 11.8238
557.957520 85.830 12.1034
562.000671 85.830 12.3624
566.073181 85.834 12.6200
570.175171 85.838 12.8439
574.306885 85.839 13.0435
578.468567 85.843 13.2729
582.660400 85.842 13.5558
586.882568 85.837 13.8351
591.135376 85.836 14.0650
595.419006 85.836 14.2971
599.733643 85.838 14.5446
604.079590 85.850 14.8423
608.456970 85.862 15.1736
612.866089 85.874 15.4785
617.307190 85.885 15.7010
621.780457 85.888 15.9166
626.286133 85.888 16.2133
630.824463 85.893 16.5015
635.395691 85.907 16.7166
640.000000 85.926 16.9120
644.637695 85.945 17.1101
649.309021 85.965 17.3148
654.014160 85.989 17.5516
658.753418 86.019 17.7251
663.527039 86.042 17.6995
668.335205 86.053 17.5352
673.178284 86.070 17.3035
678.056396 86.075 16.9462
682.969849 86.040 16.3497
687.918945 85.933 15.6125
692.903870 85.728 15.1710
697.924927 85.453 15.5234
702.982422 85.207 16.8463
708.076477 85.073 18.6906
713.207520 85.061 20.5052
718.375732 85.124 22.0043
723.581360 85.206 23.0297
728.824707 85.279 23.6931
734.106079 85.345 24.2401
739.425720 85.410 24.6780
744.783936 85.474 25.0322
750.180908 85.526 25.4225
755.617065 85.561 25.8551
761.092529 85.585 26.2830
766.607727 85.605 26.6847
772.162903 85.629 27.0707
777.758301 85.642 27.4960
783.394287 85.660 27.9165
789.071045 85.696 28.2977
794.789001 85.730 28.6888
800.548340 85.753 29.1139
806.349487 85.773 29.5254
812.192627 85.802 29.8992
818.078125 85.831 30.2567
824.006226 85.856 30.6578
829.977295 85.881 31.0855
835.991699 85.910 31.4882
842.049622 85.940 31.8956
848.151428 85.968 32.3423
854.297485 86.003 32.7997
860.488098 86.040 33.2563
866.723572 86.073 33.6967
873.004211 86.096 34.0493
879.330322 86.117 34.3837
885.702332 86.140 34.7969
892.120483 86.168 35.2437
898.585144 86.205 35.6924
905.096680 86.243 36.1045
911.655396 86.286 36.4733
918.261597 86.322 36.8755
924.915710 86.359 37.2913
931.618042 86.395 37.6679
938.368896 86.430 37.9882
945.168762 86.469 38.3109
952.017822 86.514 38.6819
958.916504 86.568 39.0852
965.865234 86.612 39.4882
972.864319 86.645 39.9357
979.914062 86.682 40.3477
987.014954 86.726 40.6647
994.167236 86.776 40.9548
1001.371399 86.829 41.2709
1008.627747 86.879 41.6077
1015.936646 86.923 41.9616
1023.298584 86.968 42.3300
1030.713867 87.018 42.7167
1038.182739 87.059 43.0628
1045.705933 87.103 43.3428
1053.283447 87.159 43.5957
1060.916016 87.213 43.8487
1068.603882 87.258 44.1256
1076.347412 87.304 44.4184
1084.147095 87.361 44.6840
1092.003296 87.419 44.9510
1099.916382 87.471 45.2540
1107.886841 87.527 45.5351
1115.915039 87.587 45.7310
1124.001343 87.644 45.8988
1132.146362 87.705 46.1327
1140.350342 87.776 46.3858
1148.613770 87.843 46.6287
1156.937134 87.899 46.8826
1165.320801 87.950 47.1370
1173.765137 88.002 47.3562
1182.270752 88.059 47.5503
1190.838013 88.124 47.7537
1199.467285 88.193 47.9589
1208.159180 88.254 48.1326
1216.913940 88.313 48.2681
1225.732178 88.369 48.4352
1234.614380 88.423 48.6477
1243.560913 88.485 48.8394
1252.572266 88.550 48.9721
1261.648926 88.608 49.1108
1270.791382 88.662 49.2827
1280.000000 88.720 49.4595
1289.275391 88.780 49.6011
1298.618042 88.841 49.7604
1308.028320 88.896 49.9435
1317.506836 88.944 50.1159
1327.054077 88.996 50.2850
1336.670410 89.053 50.4815
1346.356567 89.109 50.6483
1356.112793 89.152 50.7885
1365.939697 89.183 50.9665
1375.837891 89.221 51.1552
1385.807739 89.266 51.3380
1395.849854 89.315 51.5060
1405.964844 89.365 51.6746
1416.152954 89.413 51.8510
1426.415039 89.460 52.0194
1436.751465 89.511 52.1637
1447.162720 89.567 52.3217
1457.649414 89.621 52.5416
1468.212158 89.672 52.7419
1478.851440 89.720 52.8919
1489.567871 89.767 53.0565
1500.361816 89.815 53.2538
1511.234131 89.859 53.4494
1522.185059 89.909 53.6320
1533.215454 89.963 53.8245
1544.325806 90.013 54.0247
1555.516602 90.055 54.1992
1566.788574 90.100 54.3650
1578.142090 90.148 54.5539
1589.578003 90.196 54.7466
1601.096680 90.244 54.9401
1612.698975 90.294 55.1735
1624.385254 90.344 55.3990
1636.156250 90.393 55.5775
1648.012451 90.440 55.7476
1659.954590 90.487 55.9487
1671.983398 90.539 56.1846
1684.099243 90.587 56.4144
1696.302856 90.627 56.5951
1708.594971 90.670 56.7741
1720.976196 90.722 56.9763
1733.447144 90.776 57.2169
1746.008423 90.824 57.4797
1758.660645 90.868 57.7439
1771.404663 90.917 58.0053
1784.240967 90.967 58.2711
1797.170288 91.020 58.5685
1810.193359 91.078 58.8874
1823.310791 91.144 59.1887
1836.523193 91.214 59.4706
1849.831421 91.287 59.7304
1863.236084 91.363 59.9673
1876.737793 91.448 60.1823
1890.337524 91.534 60.3612
1904.035645 91.620 60.4992
1917.833008 91.705 60.5997
1931.730469 91.779 60.6718
1945.728638 91.847 60.7325
1959.828125 91.915 60.7737
1974.029907 91.984 60.8128
1988.334473 92.049 60.8864
2002.742798 92.107 60.9493
2017.255493 92.164 60.9911
2031.873291 92.222 61.0392
2046.597168 92.282 61.0854
2061.427734 92.346 61.1382
2076.365479 92.408 61.1838
2091.411865 92.467 61.2514
2106.566895 92.523 61.3375
2121.832031 92.579 61.4047
2137.207764 92.637 61.4745
2152.694824 92.695 61.5504
2168.294189 92.754 61.6386
2184.006592 92.812 61.7261
2199.832764 92.869 61.8138
2215.773682 92.929 61.9056
2231.830078 92.993 62.0108
2248.002686 93.058 62.1594
2264.292725 93.125 62.2977
2280.700684 93.196 62.3994
2297.227539 93.272 62.4807
2313.874268 93.351 62.5270
2330.641602 93.431 62.5214
2347.530273 93.508 62.4714
2364.541504 93.579 62.3778
2381.676025 93.644 62.2636
2398.934570 93.709 62.1352
2416.318359 93.777 62.0184
2433.827881 93.841 61.9079
2451.464355 93.899 61.7806
2469.228760 93.952 61.6643
2487.121826 94.006 61.5502
2505.144531 94.058 61.4093
2523.297852 94.105 61.2769
2541.582764 94.151 61.1722
2560.000000 94.199 61.0817
2578.550781 94.247 60.9791
2597.236084 94.291 60.8598
2616.056641 94.335 60.7332
2635.013672 94.378 60.6105
2654.108154 94.417 60.5026
2673.340820 94.453 60.3959
2692.713135 94.491 60.2770
2712.225586 94.524 60.1760
2731.879395 94.554 60.1151
2751.675781 94.585 60.0718
2771.615479 94.619 60.0457
2791.699707 94.654 60.0381
2811.929688 94.694 60.0403
2832.305908 94.739 60.0575
2852.830078 94.790 60.0695
2873.502930 94.851 60.0548
2894.325439 94.915 59.9998
2915.298828 94.980 59.8855
2936.424316 95.043 59.7044
2957.702881 95.103 59.4698
2979.135742 95.158 59.1744
3000.723633 95.205 58.8436
3022.468262 95.242 58.5089
3044.370117 95.269 58.1817
3066.430908 95.292 57.8611
3088.651611 95.310 57.5582
3111.033203 95.326 57.3009
3133.577148 95.336 57.0783
3156.284180 95.342 56.8762
3179.156006 95.350 56.7056
3202.193359 95.362 56.5750
3225.397949 95.378 56.4645
3248.770508 95.399 56.3646
3272.312500 95.421 56.2868
3296.024902 95.445 56.2004
3319.909180 95.479 56.0897
3343.966797 95.519 55.9537
3368.198486 95.560 55.7821
3392.605713 95.604 55.5698
3417.189941 95.652 55.3052
3441.952393 95.702 54.9738
3466.894287 95.748 54.5893
3492.016846 95.788 54.1680
3517.321289 95.820 53.6961
3542.809326 95.846 53.1871
3568.481934 95.865 52.6887
3594.340576 95.878 52.1949
3620.386719 95.885 51.6959
3646.621582 95.888 51.1893
3673.046387 95.885 50.6806
3699.662842 95.878 50.1743
3726.472168 95.868 49.6686
3753.475586 95.853 49.1734
3780.675049 95.833 48.6898
3808.071289 95.808 48.2006
3835.666016 95.780 47.6954
3863.460938 95.747 47.1965
3891.457275 95.708 46.7046
3919.656250 95.665 46.2028
3948.059814 95.617 45.6875
3976.668945 95.561 45.1837
4005.485596 95.499 44.7034
4034.510986 95.434 44.2401
