* Measurement data measured by REW V5.20.13
* Source: Microphone (Realtek(R) Audio), MICROPHONE (Master Volume), L, volume: 0.710. Timing signal peak level -37.7 dBFS, measurement signal peak level -37.3 dBFS
* Format: 2M Log Swept Sine, 1 sweep at -12.0 dBFS using an acoustic timing reference
* Dated: Sep 7, 2023 4:24:10 PM
* REW Settings:
*  C-weighting compensation: Off
*  Target level: 75.0 dB
* Note: ; Delay -0.0542 ms (-19 mm, -0.73 in) using estimated IR delay relative to Acoustic reference played from HEADPHONE R with no timing offset Clock adjustment: 120.7 ppm
* Measurement: KZ Krila DUDU R
* Smoothing: 1/48 octave
* Frequency Step: 1/96 octave
* Start Frequency: 20.000 Hz
*
* Freq(Hz) SPL(dB) Phase(degrees)
20.000000 92.944 8.7063
20.144928 92.937 8.4930
20.290907 92.930 8.2729
20.437943 92.923 8.0494
20.586044 92.915 7.8272
20.735220 92.907 7.6057
20.885475 92.898 7.3835
21.036821 92.889 7.1592
21.189262 92.879 6.9355
21.342808 92.868 6.7159
21.497467 92.857 6.4998
21.653246 92.845 6.2898
21.810154 92.833 6.0880
21.968201 92.822 5.8884
22.127390 92.811 5.6870
22.287735 92.800 5.4868
22.449242 92.790 5.2904
22.611917 92.780 5.0973
22.775772 92.770 4.9056
22.940815 92.761 4.7161
23.107054 92.751 4.5256
23.274498 92.742 4.3322
23.443153 92.732 4.1404
23.613033 92.723 3.9531
23.784142 92.713 3.7686
23.956491 92.704 3.5856
24.130091 92.695 3.4043
24.304947 92.687 3.2236
24.481071 92.679 3.0442
24.658470 92.671 2.8674
24.837156 92.664 2.6925
25.017136 92.657 2.5138
25.198421 92.649 2.3322
25.381020 92.642 2.1497
25.564941 92.634 1.9664
25.750195 92.626 1.7849
25.936790 92.618 1.6046
26.124741 92.610 1.4226
26.314051 92.601 1.2401
26.504732 92.592 1.0617
26.696796 92.584 0.8859
26.890253 92.576 0.7103
27.085112 92.568 0.5331
27.281382 92.560 0.3494
27.479073 92.551 0.1608
27.678198 92.542 -0.0321
27.878765 92.532 -0.2294
28.080786 92.520 -0.4321
28.284271 92.507 -0.6334
28.489231 92.492 -0.8322
28.695675 92.475 -1.0189
28.903616 92.458 -1.1937
29.113064 92.441 -1.3563
29.324028 92.425 -1.5093
29.536524 92.411 -1.6541
29.750557 92.398 -1.8010
29.966141 92.387 -1.9536
30.183289 92.375 -2.1243
30.402010 92.363 -2.3108
30.622314 92.349 -2.5121
30.844217 92.331 -2.7191
31.067726 92.311 -2.9275
31.292856 92.287 -3.1234
31.519617 92.262 -3.3026
31.748020 92.237 -3.4563
31.978081 92.213 -3.5918
32.209808 92.191 -3.7125
32.443211 92.172 -3.8302
32.678310 92.155 -3.9508
32.915108 92.139 -4.0784
33.153625 92.123 -4.2143
33.393871 92.107 -4.3510
33.635857 92.090 -4.4825
33.879597 92.076 -4.6047
34.125103 92.064 -4.7247
34.372387 92.055 -4.8495
34.621464 92.049 -4.9943
34.872345 92.043 -5.1652
35.125042 92.035 -5.3669
35.379574 92.023 -5.5883
35.635948 92.004 -5.8048
35.894180 91.979 -5.9982
36.154285 91.951 -6.1443
36.416275 91.925 -6.2417
36.680161 91.903 -6.3036
36.945961 91.890 -6.3516
37.213688 91.883 -6.4279
37.483353 91.878 -6.5474
37.754974 91.873 -6.7133
38.028561 91.861 -6.9142
38.304131 91.841 -7.1145
38.581699 91.816 -7.2892
38.861279 91.789 -7.4251
39.142883 91.764 -7.5239
39.426529 91.744 -7.6144
39.712231 91.728 -7.7220
40.000000 91.712 -7.8600
40.289856 91.694 -8.0286
40.581814 91.669 -8.2028
40.875885 91.640 -8.3496
41.172089 91.609 -8.4548
41.470440 91.582 -8.5215
41.770950 91.562 -8.5697
42.073643 91.550 -8.6344
42.378525 91.541 -8.7413
42.685616 91.533 -8.8888
42.994934 91.522 -9.0598
43.306492 91.507 -9.2311
43.620308 91.489 -9.3837
43.936401 91.473 -9.5143
44.254780 91.458 -9.6371
44.575470 91.446 -9.7662
44.898483 91.434 -9.9039
45.223835 91.420 -10.0409
45.551544 91.404 -10.1619
45.881630 91.388 -10.2572
46.214108 91.375 -10.3320
46.548996 91.365 -10.4049
46.886307 91.359 -10.4979
47.226067 91.352 -10.6240
47.568283 91.340 -10.7765
47.912983 91.321 -10.9310
48.260181 91.294 -11.0578
48.609894 91.262 -11.1342
48.962143 91.232 -11.1578
49.316940 91.207 -11.1517
49.674313 91.189 -11.1544
50.034271 91.176 -11.2015
50.396843 91.160 -11.3032
50.762039 91.138 -11.4348
51.129883 91.108 -11.5515
51.500389 91.076 -11.6216
51.873581 91.050 -11.6553
52.249481 91.034 -11.7018
52.628101 91.025 -11.8090
53.009464 91.014 -11.9824
53.393593 90.996 -12.1788
53.780506 90.971 -12.3433
54.170223 90.949 -12.4597
54.562763 90.935 -12.5602
54.958145 90.924 -12.6829
55.356396 90.912 -12.8218
55.757530 90.894 -12.9289
56.161572 90.877 -12.9729
56.568542 90.866 -12.9859
56.978462 90.857 -13.0215
57.391350 90.835 -13.0535
57.807232 90.799 -12.9451
58.226128 90.772 -12.5798
58.648056 90.793 -12.0530
59.073048 90.879 -11.7031
59.501114 90.990 -11.8842
59.932281 91.054 -12.6324
60.366577 91.022 -13.5823
60.804020 90.902 -14.2284
61.244629 90.756 -14.3100
61.688435 90.649 -13.9809
62.135452 90.601 -13.6419
62.585712 90.580 -13.5443
63.039234 90.548 -13.6208
63.496040 90.500 -13.6833
63.956161 90.457 -13.6635
64.419617 90.433 -13.6578
64.886421 90.417 -13.7543
65.356621 90.396 -13.9180
65.830215 90.369 -14.0553
66.307251 90.346 -14.1406
66.787743 90.333 -14.2233
67.271713 90.322 -14.3395
67.759193 90.307 -14.4646
68.250206 90.288 -14.5602
68.744774 90.267 -14.6196
69.242928 90.244 -14.6516
69.744690 90.220 -14.6525
70.250084 90.198 -14.6249
70.759148 90.179 -14.5975
71.271896 90.159 -14.5938
71.788361 90.135 -14.5958
72.308571 90.110 -14.5750
72.832550 90.091 -14.5530
73.360321 90.078 -14.5912
73.891922 90.061 -14.7039
74.427376 90.032 -14.8212
74.966705 89.996 -14.8635
75.509949 89.967 -14.8235
76.057121 89.952 -14.7665
76.608261 89.944 -14.7568
77.163399 89.933 -14.7928
77.722557 89.915 -14.8259
78.285767 89.894 -14.8272
78.853058 89.875 -14.8196
79.424461 89.856 -14.8434
80.000000 89.831 -14.9007
80.579712 89.798 -14.9496
81.163628 89.766 -14.9665
81.751770 89.740 -14.9898
82.344177 89.721 -15.0747
82.940880 89.700 -15.2332
83.541901 89.670 -15.4210
84.147285 89.632 -15.5684
84.757050 89.592 -15.6138
85.371231 89.562 -15.5452
85.989868 89.551 -15.4148
86.612984 89.555 -15.3068
87.240616 89.563 -15.2661
87.872803 89.564 -15.2815
88.509560 89.551 -15.3027
89.150940 89.528 -15.2852
89.796967 89.501 -15.2340
90.447670 89.472 -15.1863
91.103088 89.438 -15.1439
91.763260 89.407 -15.0906
92.428215 89.382 -15.0724
93.097992 89.359 -15.1294
93.772614 89.329 -15.1934
94.452133 89.302 -15.1915
95.136566 89.290 -15.1819
95.825966 89.283 -15.2279
96.520363 89.271 -15.2860
97.219788 89.256 -15.3137
97.924286 89.240 -15.3272
98.633881 89.219 -15.3216
99.348625 89.194 -15.2757
100.068542 89.173 -15.2106
100.793686 89.154 -15.1696
101.524078 89.134 -15.1761
102.259766 89.108 -15.2062
103.000778 89.077 -15.2012
103.747162 89.052 -15.1492
104.498962 89.037 -15.1019
105.256203 89.026 -15.0948
106.018929 89.012 -15.1262
106.787186 88.992 -15.1733
107.561012 88.964 -15.1915
108.340446 88.936 -15.1768
109.125526 88.906 -15.1476
109.916290 88.878 -15.0715
110.712791 88.861 -14.9717
111.515060 88.852 -14.9304
112.323143 88.837 -14.9182
113.137085 88.818 -14.8810
113.956924 88.797 -14.8378
114.782700 88.767 -14.7895
115.614464 88.728 -14.7167
116.452255 88.685 -14.6096
117.296112 88.648 -14.5920
118.146095 88.582 -14.7186
119.002228 88.481 -14.5548
119.864563 88.445 -14.0321
120.733154 88.493 -13.8732
121.608040 88.520 -14.1506
122.489258 88.517 -14.3187
123.376869 88.528 -14.3684
124.270905 88.543 -14.4329
125.171425 88.550 -14.4845
126.078468 88.537 -14.5313
126.992081 88.501 -14.4527
127.912323 88.469 -14.2415
128.839233 88.451 -14.0970
129.772842 88.430 -14.0779
130.713242 88.403 -14.1263
131.660431 88.372 -14.1830
132.614502 88.345 -14.2092
133.575485 88.324 -14.1981
134.543427 88.310 -14.1191
135.518387 88.309 -14.0022
136.500412 88.314 -13.9177
137.489548 88.315 -13.8786
138.485855 88.304 -13.8549
139.489380 88.286 -13.8143
140.500168 88.267 -13.7892
141.518295 88.243 -13.8188
142.543793 88.209 -13.8297
143.576721 88.177 -13.7581
144.617142 88.159 -13.6794
145.665100 88.143 -13.6530
146.720642 88.122 -13.5912
147.783844 88.111 -13.4756
148.854752 88.108 -13.3936
149.933411 88.103 -13.3533
151.019897 88.091 -13.3348
152.114243 88.068 -13.3148
153.216522 88.035 -13.2068
154.326797 88.016 -13.0310
155.445114 88.006 -12.9614
156.571533 87.989 -12.9662
157.706116 87.968 -12.9977
158.848923 87.940 -13.0306
160.000000 87.910 -12.9928
161.159424 87.890 -12.8527
162.327255 87.891 -12.6771
163.503540 87.902 -12.6164
164.688354 87.894 -12.6005
165.881760 87.876 -12.5271
167.083801 87.849 -12.4302
168.294571 87.818 -12.2744
169.514099 87.797 -12.1489
170.742462 87.776 -12.0927
171.979736 87.756 -12.0692
173.225967 87.741 -12.0717
174.481232 87.731 -12.0951
175.745605 87.723 -12.1313
177.019119 87.714 -12.1412
178.301880 87.702 -12.0960
179.593933 87.685 -11.9907
180.895340 87.664 -11.7661
182.206177 87.656 -11.5284
183.526520 87.642 -11.4413
184.856430 87.603 -11.3669
186.195984 87.564 -11.2177
187.545227 87.539 -11.0940
188.904266 87.525 -11.0305
190.273132 87.513 -11.0276
191.651932 87.498 -11.0154
193.040726 87.479 -10.9742
194.439575 87.455 -10.8719
195.848572 87.436 -10.7246
197.267761 87.418 -10.6168
198.697250 87.395 -10.5015
200.137085 87.375 -10.3742
201.587372 87.359 -10.2393
203.048157 87.352 -10.1109
204.519531 87.349 -10.0295
206.001556 87.346 -9.9672
207.494324 87.341 -9.9270
208.997925 87.328 -9.8794
210.512405 87.310 -9.8020
212.037857 87.288 -9.7186
213.574371 87.260 -9.6293
215.122025 87.233 -9.4951
216.680893 87.219 -9.3653
218.251053 87.208 -9.2802
219.832581 87.193 -9.1404
221.425583 87.182 -8.9453
223.030121 87.166 -8.8066
224.646286 87.142 -8.7282
226.274170 87.118 -8.7458
227.913849 87.097 -8.7752
229.565399 87.093 -8.7030
231.228928 87.093 -8.5680
232.904510 87.071 -8.3614
234.592224 87.028 -8.1147
236.292191 86.995 -7.9651
238.004456 86.979 -8.1113
239.729126 86.949 -8.2771
241.466309 86.932 -8.0913
243.216080 86.935 -7.7587
244.978516 86.931 -7.4881
246.753738 86.914 -7.3431
248.541809 86.900 -7.2719
250.342850 86.900 -7.2151
252.156937 86.896 -7.1429
253.984161 86.874 -6.9839
255.824646 86.853 -6.7675
257.678467 86.843 -6.6669
259.545685 86.829 -6.5955
261.426483 86.818 -6.4464
263.320862 86.808 -6.3185
265.229004 86.792 -6.2649
267.150970 86.770 -6.2142
269.086853 86.754 -6.0421
271.036774 86.747 -5.7517
273.000824 86.739 -5.4547
274.979095 86.726 -5.2429
276.971710 86.718 -5.1847
278.978760 86.714 -5.2432
281.000336 86.705 -5.2398
283.036591 86.695 -5.0809
285.087585 86.683 -4.8529
287.153442 86.663 -4.6620
289.234283 86.638 -4.5415
291.330200 86.614 -4.4618
293.441284 86.600 -4.3284
295.567688 86.602 -4.1224
297.709503 86.611 -3.9235
299.866821 86.608 -3.8036
302.039795 86.591 -3.7120
304.228485 86.576 -3.6053
306.433044 86.564 -3.4694
308.653595 86.547 -3.2993
310.890228 86.522 -3.0858
313.143066 86.499 -2.8719
315.412231 86.489 -2.7115
317.697845 86.484 -2.6175
320.000000 86.475 -2.4956
322.318848 86.470 -2.3322
324.654510 86.464 -2.2082
327.007080 86.451 -2.0768
329.376709 86.441 -1.9122
331.763519 86.434 -1.7471
334.167603 86.425 -1.5508
336.589142 86.416 -1.3228
339.028198 86.408 -1.1202
341.484924 86.394 -0.9771
343.959473 86.375 -0.8467
346.451935 86.360 -0.7133
348.962463 86.352 -0.5805
351.491211 86.350 -0.4268
354.038239 86.342 -0.2446
356.603760 86.319 0.0081
359.187866 86.299 0.2877
361.790680 86.295 0.4403
364.412354 86.291 0.5277
367.053040 86.280 0.7063
369.712860 86.270 0.9440
372.391968 86.262 1.1211
375.090454 86.251 1.2620
377.808533 86.239 1.4065
380.546265 86.230 1.5599
383.303864 86.227 1.7397
386.081451 86.222 1.9355
388.879150 86.205 2.1499
391.697144 86.184 2.3900
394.535522 86.172 2.5770
397.394501 86.161 2.7081
400.274170 86.149 2.8557
403.174744 86.135 3.0757
406.096313 86.123 3.3157
409.039062 86.119 3.4725
412.003113 86.115 3.5950
414.988647 86.096 3.7371
417.995850 86.066 3.9080
421.024811 86.052 4.1746
424.075714 86.060 4.4800
427.148743 86.062 4.7352
430.244049 86.059 4.9415
433.361786 86.057 5.1268
436.502106 86.051 5.3324
439.665161 86.036 5.5461
442.851166 86.010 5.7350
446.060242 85.985 5.8516
449.292572 85.972 5.9595
452.548340 85.967 6.1705
455.827698 85.974 6.4578
459.130798 85.985 6.7476
462.457855 85.989 7.0452
465.809021 85.983 7.2819
469.184448 85.971 7.4744
472.584381 85.965 7.7098
476.008911 85.965 8.0049
479.458252 85.969 8.2850
482.932617 85.964 8.4355
486.432159 85.955 8.5605
489.957031 85.947 8.7723
493.507477 85.928 9.0278
497.083618 85.905 9.2368
500.685699 85.898 9.4160
504.313873 85.896 9.6223
507.968323 85.888 9.8952
511.649292 85.881 10.2158
515.356934 85.879 10.4712
519.091370 85.878 10.6943
522.852966 85.881 10.9825
526.641724 85.880 11.2507
530.458008 85.870 11.4930
534.301941 85.858 11.7131
538.173706 85.850 11.9263
542.073547 85.858 12.2000
546.001648 85.869 12.5188
549.958191 85.868 12.7803
553.943420 85.865 13.0046
557.957520 85.876 13.2645
562.000671 85.888 13.5188
566.073181 85.885 13.8104
570.175171 85.875 14.1354
574.306885 85.872 14.4064
578.468567 85.875 14.6051
582.660400 85.881 14.7795
586.882568 85.884 15.0156
591.135376 85.883 15.3337
595.419006 85.887 15.6246
599.733643 85.900 15.9174
604.079590 85.907 16.2007
608.456970 85.902 16.4296
612.866089 85.897 16.6627
617.307190 85.900 16.9143
621.780457 85.910 17.1708
626.286133 85.922 17.4489
630.824463 85.929 17.7572
635.395691 85.940 18.0308
640.000000 85.967 18.2208
644.637695 85.994 18.4017
649.309021 86.008 18.6262
654.014160 86.020 18.7859
658.753418 86.034 18.8412
663.527039 86.056 18.8882
668.335205 86.083 18.8912
673.178284 86.095 18.7533
678.056396 86.088 18.4607
682.969849 86.058 17.9135
687.918945 85.975 17.1572
692.903870 85.794 16.6635
697.924927 85.530 16.9298
702.982422 85.284 18.1219
708.076477 85.148 19.9142
713.207520 85.124 21.7489
718.375732 85.171 23.2822
723.581360 85.233 24.3291
728.824707 85.294 25.0038
734.106079 85.360 25.5717
739.425720 85.430 26.1123
744.783936 85.496 26.5522
750.180908 85.550 26.9521
755.617065 85.590 27.3290
761.092529 85.617 27.6735
766.607727 85.640 28.0053
772.162903 85.661 28.3174
777.758301 85.678 28.6651
783.394287 85.701 29.1583
789.071045 85.729 29.6841
794.789001 85.751 30.1522
800.548340 85.771 30.5927
806.349487 85.790 31.0421
812.192627 85.818 31.4703
818.078125 85.853 31.8730
824.006226 85.886 32.2990
829.977295 85.913 32.7329
835.991699 85.940 33.1819
842.049622 85.962 33.6073
848.151428 85.988 34.0119
854.297485 86.018 34.4190
860.488098 86.045 34.7975
866.723572 86.073 35.2227
873.004211 86.106 35.6898
879.330322 86.137 36.1051
885.702332 86.163 36.4739
892.120483 86.194 36.8772
898.585144 86.230 37.3333
905.096680 86.269 37.7604
911.655396 86.316 38.1379
918.261597 86.366 38.5486
924.915710 86.407 39.0067
931.618042 86.434 39.4307
938.368896 86.462 39.7892
945.168762 86.502 40.1085
952.017822 86.544 40.4903
958.916504 86.583 40.9597
965.865234 86.625 41.4319
972.864319 86.667 41.8751
979.914062 86.703 42.2603
987.014954 86.744 42.6000
994.167236 86.792 42.9285
1001.371399 86.845 43.2487
1008.627747 86.889 43.5425
1015.936646 86.927 43.8204
1023.298584 86.972 44.1663
1030.713867 87.027 44.5889
1038.182739 87.086 44.9631
1045.705933 87.143 45.2759
1053.283447 87.189 45.6066
1060.916016 87.233 45.9380
1068.603882 87.282 46.2703
1076.347412 87.331 46.5849
1084.147095 87.381 46.8377
1092.003296 87.437 47.1076
1099.916382 87.498 47.4135
1107.886841 87.560 47.6914
1115.915039 87.619 47.9640
1124.001343 87.674 48.2112
1132.146362 87.723 48.4479
1140.350342 87.782 48.7066
1148.613770 87.846 48.9370
1156.937134 87.910 49.1387
1165.320801 87.974 49.3180
1173.765137 88.038 49.4982
1182.270752 88.100 49.7292
1190.838013 88.157 49.9788
1199.467285 88.206 50.1722
1208.159180 88.259 50.3424
1216.913940 88.323 50.5248
1225.732178 88.387 50.7063
1234.614380 88.445 50.8925
1243.560913 88.501 51.0964
1252.572266 88.558 51.2740
1261.648926 88.619 51.4497
1270.791382 88.687 51.6485
1280.000000 88.750 51.8543
1289.275391 88.806 52.0734
1298.618042 88.862 52.3013
1308.028320 88.915 52.4932
1317.506836 88.967 52.6777
1327.054077 89.026 52.8440
1336.670410 89.087 52.9975
1346.356567 89.139 53.1767
1356.112793 89.175 53.4017
1365.939697 89.203 53.6346
1375.837891 89.237 53.8332
1385.807739 89.282 53.9679
1395.849854 89.333 54.1164
1405.964844 89.386 54.2975
1416.152954 89.441 54.5037
1426.415039 89.500 54.7240
1436.751465 89.559 54.9417
1447.162720 89.612 55.1475
1457.649414 89.661 55.3441
1468.212158 89.709 55.5179
1478.851440 89.756 55.6805
1489.567871 89.803 55.8716
1500.361816 89.855 56.1040
1511.234131 89.908 56.3407
1522.185059 89.955 56.5578
1533.215454 90.002 56.7617
1544.325806 90.055 56.9360
1555.516602 90.106 57.1167
1566.788574 90.159 57.3063
1578.142090 90.206 57.5128
1589.578003 90.246 57.7386
1601.096680 90.290 57.9721
1612.698975 90.340 58.2065
1624.385254 90.391 58.4464
1636.156250 90.442 58.6619
1648.012451 90.495 58.8841
1659.954590 90.548 59.1267
1671.983398 90.599 59.3361
1684.099243 90.653 59.5247
1696.302856 90.711 59.7350
1708.594971 90.768 59.9661
1720.976196 90.820 60.2018
1733.447144 90.872 60.4464
1746.008423 90.918 60.6745
1758.660645 90.963 60.8540
1771.404663 91.015 61.0338
1784.240967 91.074 61.2511
1797.170288 91.132 61.4843
1810.193359 91.185 61.7195
1823.310791 91.238 61.9412
1836.523193 91.297 62.1512
1849.831421 91.360 62.3723
1863.236084 91.422 62.6216
1876.737793 91.481 62.8708
1890.337524 91.540 63.0945
1904.035645 91.605 63.3040
1917.833008 91.671 63.4919
1931.730469 91.735 63.6767
1945.728638 91.804 63.8539
1959.828125 91.876 64.0269
1974.029907 91.945 64.1829
1988.334473 92.009 64.3071
2002.742798 92.073 64.4335
2017.255493 92.139 64.5742
2031.873291 92.208 64.6993
2046.597168 92.273 64.8076
2061.427734 92.336 64.9152
2076.365479 92.400 65.0141
2091.411865 92.465 65.1330
2106.566895 92.531 65.2724
2121.832031 92.597 65.3918
2137.207764 92.663 65.4854
2152.694824 92.730 65.5741
2168.294189 92.799 65.6729
2184.006592 92.868 65.7498
2199.832764 92.935 65.8077
2215.773682 93.001 65.8683
2231.830078 93.068 65.9026
2248.002686 93.137 65.9232
2264.292725 93.208 65.9515
2280.700684 93.275 65.9724
2297.227539 93.335 65.9720
2313.874268 93.395 65.9534
2330.641602 93.458 65.9348
2347.530273 93.522 65.9066
2364.541504 93.583 65.8783
2381.676025 93.640 65.8461
2398.934570 93.698 65.8174
2416.318359 93.755 65.7809
2433.827881 93.810 65.7216
2451.464355 93.862 65.6713
2469.228760 93.912 65.6168
2487.121826 93.965 65.5510
2505.144531 94.018 65.4811
2523.297852 94.068 65.4129
2541.582764 94.115 65.3271
2560.000000 94.161 65.2185
2578.550781 94.204 65.1139
2597.236084 94.247 65.0219
2616.056641 94.289 64.9477
2635.013672 94.330 64.8808
2654.108154 94.369 64.7906
2673.340820 94.406 64.6756
2692.713135 94.443 64.5648
2712.225586 94.478 64.4559
2731.879395 94.508 64.3529
2751.675781 94.532 64.2636
2771.615479 94.553 64.1757
2791.699707 94.576 64.1027
2811.929688 94.597 64.0468
2832.305908 94.617 63.9956
2852.830078 94.631 63.9695
2873.502930 94.643 63.9721
2894.325439 94.658 64.0211
2915.298828 94.678 64.0950
2936.424316 94.696 64.1814
2957.702881 94.716 64.2990
2979.135742 94.745 64.4610
3000.723633 94.783 64.6566
3022.468262 94.832 64.8578
3044.370117 94.889 65.0239
3066.430908 94.954 65.1244
3088.651611 95.027 65.1269
3111.033203 95.099 65.0519
3133.577148 95.168 64.9163
3156.284180 95.232 64.7261
3179.156006 95.289 64.4977
3202.193359 95.336 64.2539
3225.397949 95.378 64.0187
3248.770508 95.415 63.8046
3272.312500 95.451 63.6003
3296.024902 95.489 63.3917
3319.909180 95.530 63.1749
3343.966797 95.572 62.9348
3368.198486 95.615 62.6713
3392.605713 95.657 62.3873
3417.189941 95.694 62.0649
3441.952393 95.731 61.7008
3466.894287 95.766 61.3166
3492.016846 95.796 60.9127
3517.321289 95.822 60.4861
3542.809326 95.843 60.0453
3568.481934 95.859 59.5933
3594.340576 95.871 59.1240
3620.386719 95.879 58.6548
3646.621582 95.882 58.1970
3673.046387 95.879 57.7397
3699.662842 95.870 57.2778
3726.472168 95.857 56.8163
3753.475586 95.840 56.3478
3780.675049 95.819 55.8820
3808.071289 95.793 55.4323
3835.666016 95.765 54.9811
3863.460938 95.733 54.5245
3891.457275 95.694 54.0686
3919.656250 95.647 53.6140
3948.059814 95.595 53.1702
3976.668945 95.538 52.7340
4005.485596 95.477 52.3079
4034.510986 95.414 51.9015
4063.746582 95.346 51.5068
