* Measurement data measured by REW V5.20.13
* Source: Microphone (Realtek(R) Audio), MICROPHONE (Master Volume), L, volume: 0.710. Timing signal peak level -37.1 dBFS, measurement signal peak level -37.2 dBFS
* Format: 2M Log Swept Sine, 1 sweep at -12.0 dBFS using an acoustic timing reference
* Dated: Sep 7, 2023 4:02:31 PM
* REW Settings:
*  C-weighting compensation: Off
*  Target level: 75.0 dB
* Note: ; Delay -0.0553 ms (-19 mm, -0.75 in) using estimated IR delay relative to Acoustic reference played from HEADPHONE L with no timing offset Clock adjustment: 120.9 ppm
* Measurement: KZ Krila DDDD L
* Smoothing: 1/48 octave
* Frequency Step: 1/96 octave
* Start Frequency: 20.000 Hz
*
* Freq(Hz) SPL(dB) Phase(degrees)
20.000000 89.757 13.9521
20.144928 89.757 13.7855
20.290907 89.758 13.6108
20.437943 89.759 13.4305
20.586044 89.758 13.2482
20.735220 89.757 13.0630
20.885475 89.755 12.8746
21.036821 89.751 12.6803
21.189262 89.745 12.4859
21.342808 89.737 12.2990
21.497467 89.727 12.1180
21.653246 89.715 11.9553
21.810154 89.702 11.8126
21.968201 89.689 11.6875
22.127390 89.677 11.5809
22.287735 89.667 11.4915
22.449242 89.660 11.4187
22.611917 89.656 11.3617
22.775772 89.657 11.3002
22.940815 89.662 11.2374
23.107054 89.670 11.1505
23.274498 89.681 11.0334
23.443153 89.692 10.8870
23.613033 89.702 10.7057
23.784142 89.710 10.4978
23.956491 89.713 10.2666
24.130091 89.711 10.0219
24.304947 89.703 9.7859
24.481071 89.689 9.5612
24.658470 89.671 9.3779
24.837156 89.650 9.2319
25.017136 89.631 9.1281
25.198421 89.613 9.0638
25.381020 89.602 9.0212
25.564941 89.596 8.9984
25.750195 89.597 8.9591
25.936790 89.604 8.9025
26.124741 89.613 8.7955
26.314051 89.624 8.6431
26.504732 89.630 8.4496
26.696796 89.632 8.2231
26.890253 89.625 7.9894
27.085112 89.612 7.7594
27.281382 89.592 7.5628
27.479073 89.568 7.4058
27.678198 89.543 7.3083
27.878765 89.522 7.2505
28.080786 89.507 7.2313
28.284271 89.500 7.2128
28.489231 89.500 7.1879
28.695675 89.504 7.1246
28.903616 89.512 7.0231
29.113064 89.518 6.8744
29.324028 89.520 6.6976
29.536524 89.517 6.5052
29.750557 89.509 6.3265
29.966141 89.496 6.1700
30.183289 89.483 6.0474
30.402010 89.471 5.9517
30.622314 89.463 5.8770
30.844217 89.460 5.7968
31.067726 89.462 5.7000
31.292856 89.466 5.5662
31.519617 89.469 5.4021
31.748020 89.468 5.2119
31.978081 89.463 5.0209
32.209808 89.452 4.8395
32.443211 89.439 4.6921
32.678310 89.426 4.5791
32.915108 89.414 4.5018
33.153625 89.408 4.4378
33.393871 89.406 4.3720
33.635857 89.408 4.2900
33.879597 89.412 4.1765
34.125103 89.416 4.0347
34.372387 89.415 3.8674
34.621464 89.408 3.6996
34.872345 89.395 3.5476
35.125042 89.378 3.4263
35.379574 89.359 3.3505
35.635948 89.341 3.3184
35.894180 89.327 3.3237
36.154285 89.320 3.3468
36.416275 89.319 3.3563
36.680161 89.324 3.3312
36.945961 89.331 3.2491
37.213688 89.334 3.1006
37.483353 89.328 2.9086
37.754974 89.312 2.7015
38.028561 89.283 2.5220
38.304131 89.248 2.4116
38.581699 89.215 2.3723
38.861279 89.190 2.3843
39.142883 89.177 2.3976
39.426529 89.175 2.3346
39.712231 89.173 2.1641
40.000000 89.160 1.8982
40.289856 89.127 1.5898
40.581814 89.070 1.3502
40.875885 89.000 1.2882
41.172089 88.936 1.4348
41.470440 88.896 1.7509
41.770950 88.894 2.1287
42.073643 88.932 2.4075
42.378525 88.991 2.4640
42.685616 89.048 2.2908
42.994934 89.086 1.9596
43.306492 89.100 1.5848
43.620308 89.092 1.2791
43.936401 89.077 1.1014
44.254780 89.069 1.0249
44.575470 89.074 0.9730
44.898483 89.086 0.8827
45.223835 89.097 0.7372
45.551544 89.100 0.5662
45.881630 89.092 0.4211
46.214108 89.079 0.3386
46.548996 89.068 0.3182
46.886307 89.062 0.3278
47.226067 89.061 0.3315
47.568283 89.061 0.3159
47.912983 89.061 0.2883
48.260181 89.059 0.2554
48.609894 89.059 0.2104
48.962143 89.059 0.1367
49.316940 89.056 0.0262
49.674313 89.048 -0.1074
50.034271 89.035 -0.2366
50.396843 89.019 -0.3396
50.762039 89.005 -0.4149
51.129883 88.994 -0.4762
51.500389 88.989 -0.5360
51.873581 88.987 -0.5979
52.249481 88.989 -0.6662
52.628101 88.997 -0.7542
53.009464 89.006 -0.8773
53.393593 89.010 -1.0287
53.780506 89.005 -1.1648
54.170223 88.995 -1.2355
54.562763 88.989 -1.2352
54.958145 88.992 -1.2198
55.356396 88.997 -1.2533
55.757530 88.991 -1.3293
56.161572 88.970 -1.3607
56.568542 88.943 -1.2744
56.978462 88.928 -1.1234
57.391350 88.925 -1.0646
57.807232 88.906 -1.1731
58.226128 88.842 -1.2786
58.648056 88.741 -1.0507
59.073048 88.664 -0.3110
59.501114 88.683 0.6707
59.932281 88.810 1.2710
60.366577 88.968 1.0363
60.804020 89.057 0.0907
61.244629 89.036 -1.0088
61.688435 88.936 -1.7120
62.135452 88.837 -1.8812
62.585712 88.790 -1.8168
63.039234 88.786 -1.8660
63.496040 88.783 -2.0914
63.956161 88.763 -2.3162
64.419617 88.741 -2.4000
64.886421 88.737 -2.4056
65.356621 88.750 -2.4713
65.830215 88.757 -2.6243
66.307251 88.746 -2.7510
66.787743 88.729 -2.7551
67.271713 88.724 -2.6653
67.759193 88.732 -2.5984
68.250206 88.744 -2.6284
68.744774 88.743 -2.7322
69.242928 88.727 -2.8285
69.744690 88.703 -2.8623
70.250084 88.683 -2.8439
70.759148 88.672 -2.8313
71.271896 88.665 -2.8690
71.788361 88.654 -2.9498
72.308571 88.638 -3.0312
72.832550 88.622 -3.0883
73.360321 88.610 -3.1348
73.891922 88.602 -3.1907
74.427376 88.594 -3.2545
74.966705 88.588 -3.3133
75.509949 88.582 -3.3689
76.057121 88.578 -3.4313
76.608261 88.572 -3.4943
77.163399 88.564 -3.5385
77.722557 88.558 -3.5635
78.285767 88.556 -3.5961
78.853058 88.553 -3.6534
79.424461 88.547 -3.7155
80.000000 88.540 -3.7626
80.579712 88.536 -3.8206
81.163628 88.528 -3.9182
81.751770 88.509 -4.0066
82.344177 88.485 -4.0066
82.940880 88.470 -3.9260
83.541901 88.470 -3.8676
84.147285 88.474 -3.8972
84.757050 88.469 -3.9722
85.371231 88.458 -4.0274
85.989868 88.447 -4.0509
86.612984 88.441 -4.0771
87.240616 88.435 -4.1295
87.872803 88.425 -4.1866
88.509560 88.413 -4.1986
89.150940 88.410 -4.1718
89.796967 88.417 -4.1847
90.447670 88.423 -4.2827
91.103088 88.417 -4.4036
91.763260 88.402 -4.4710
92.428215 88.390 -4.4882
93.097992 88.384 -4.5055
93.772614 88.377 -4.5621
94.452133 88.364 -4.6488
95.136566 88.341 -4.6994
95.825966 88.319 -4.6721
96.520363 88.309 -4.6171
97.219788 88.307 -4.6044
97.924286 88.305 -4.6394
98.633881 88.299 -4.6919
99.348625 88.291 -4.7485
100.068542 88.279 -4.8092
100.793686 88.262 -4.8547
101.524078 88.243 -4.8588
102.259766 88.230 -4.8472
103.000778 88.222 -4.8676
103.747162 88.215 -4.9056
104.498962 88.213 -4.9644
105.256203 88.209 -5.0864
106.018929 88.192 -5.1992
106.787186 88.171 -5.1987
107.561012 88.162 -5.1359
108.340446 88.160 -5.1033
109.125526 88.152 -5.1207
109.916290 88.132 -5.1548
110.712791 88.103 -5.1395
111.515060 88.080 -5.1158
112.323143 88.057 -5.1894
113.137085 88.022 -5.2566
113.956924 87.998 -5.2120
114.782700 88.003 -5.2123
115.614464 88.013 -5.3141
116.452255 88.020 -5.3881
117.296112 88.025 -5.3743
118.146095 88.038 -5.1541
119.002228 88.103 -4.9086
119.864563 88.176 -5.1823
120.733154 88.148 -5.7072
121.608040 88.055 -5.7330
122.489258 88.001 -5.4475
123.376869 87.975 -5.3389
124.270905 87.941 -5.3298
125.171425 87.914 -5.3013
126.078468 87.904 -5.3374
126.992081 87.895 -5.4523
127.912323 87.882 -5.5256
128.839233 87.878 -5.5358
129.772842 87.880 -5.5786
130.713242 87.872 -5.6550
131.660431 87.852 -5.6873
132.614502 87.831 -5.6516
133.575485 87.817 -5.5872
134.543427 87.813 -5.5698
135.518387 87.806 -5.6334
136.500412 87.786 -5.6713
137.489548 87.766 -5.5815
138.485855 87.761 -5.4453
139.489380 87.761 -5.3724
140.500168 87.755 -5.3609
141.518295 87.737 -5.3945
142.543793 87.708 -5.3892
143.576721 87.689 -5.3579
144.617142 87.672 -5.4000
145.665100 87.653 -5.4164
146.720642 87.646 -5.4272
147.783844 87.637 -5.4531
148.854752 87.628 -5.4036
149.933411 87.623 -5.2968
151.019897 87.622 -5.1477
152.114243 87.632 -5.0286
153.216522 87.638 -5.0368
154.326797 87.624 -5.1025
155.445114 87.604 -5.1256
156.571533 87.590 -5.1615
157.706116 87.576 -5.2531
158.848923 87.557 -5.3348
160.000000 87.537 -5.3623
161.159424 87.518 -5.3108
162.327255 87.509 -5.2120
163.503540 87.504 -5.1747
164.688354 87.489 -5.1583
165.881760 87.474 -5.1193
167.083801 87.458 -5.1213
168.294571 87.439 -5.0960
169.514099 87.427 -5.0436
170.742462 87.419 -4.9856
171.979736 87.416 -4.9248
173.225967 87.415 -4.8844
174.481232 87.412 -4.8911
175.745605 87.399 -4.9121
177.019119 87.383 -4.8908
178.301880 87.370 -4.8699
179.593933 87.354 -4.8663
180.895340 87.328 -4.8334
182.206177 87.301 -4.7136
183.526520 87.285 -4.5956
184.856430 87.267 -4.5643
186.195984 87.240 -4.5245
187.545227 87.217 -4.4551
188.904266 87.203 -4.4056
190.273132 87.189 -4.4163
191.651932 87.165 -4.3761
193.040726 87.147 -4.2206
194.439575 87.145 -4.0610
195.848572 87.145 -3.9607
197.267761 87.146 -3.9115
198.697250 87.142 -3.9655
200.137085 87.121 -4.0389
201.587372 87.100 -4.0007
203.048157 87.096 -3.9340
204.519531 87.095 -3.9050
206.001556 87.086 -3.8701
207.494324 87.070 -3.7823
208.997925 87.050 -3.6801
210.512405 87.024 -3.5959
212.037857 86.995 -3.4921
213.574371 86.973 -3.3795
215.122025 86.957 -3.2736
216.680893 86.947 -3.1656
218.251053 86.942 -3.0955
219.832581 86.937 -3.0851
221.425583 86.924 -3.0975
223.030121 86.908 -3.0414
224.646286 86.899 -2.9010
226.274170 86.898 -2.7413
227.913849 86.893 -2.6691
229.565399 86.873 -2.6628
231.228928 86.848 -2.6759
232.904510 86.828 -2.6778
234.592224 86.820 -2.6027
236.292191 86.813 -2.4384
238.004456 86.795 -2.1266
239.729126 86.784 -1.7849
241.466309 86.771 -1.6982
243.216080 86.742 -1.7803
244.978516 86.721 -1.8672
246.753738 86.713 -1.9377
248.541809 86.700 -1.9436
250.342850 86.677 -1.8505
252.156937 86.655 -1.7294
253.984161 86.634 -1.6359
255.824646 86.621 -1.4800
257.678467 86.620 -1.3020
259.545685 86.611 -1.1846
261.426483 86.587 -1.1084
263.320862 86.565 -1.0581
265.229004 86.555 -1.0114
267.150970 86.560 -0.9299
269.086853 86.565 -0.8110
271.036774 86.558 -0.6309
273.000824 86.542 -0.4064
274.979095 86.525 -0.2166
276.971710 86.507 -0.0991
278.978760 86.491 -0.0430
281.000336 86.472 -0.0046
283.036591 86.458 0.1448
285.087585 86.462 0.3510
287.153442 86.469 0.4884
289.234283 86.465 0.5825
291.330200 86.452 0.6686
293.441284 86.442 0.8278
295.567688 86.449 0.9906
297.709503 86.458 1.1074
299.866821 86.457 1.1929
302.039795 86.431 1.2689
304.228485 86.391 1.4327
306.433044 86.365 1.6246
308.653595 86.353 1.7920
310.890228 86.347 1.9691
313.143066 86.337 2.1335
315.412231 86.317 2.2307
317.697845 86.296 2.2750
320.000000 86.288 2.3353
322.318848 86.295 2.4518
324.654510 86.301 2.6262
327.007080 86.301 2.7976
329.376709 86.293 2.9031
331.763519 86.277 2.9975
334.167603 86.261 3.1839
336.589142 86.258 3.3716
339.028198 86.248 3.4620
341.484924 86.226 3.5607
343.959473 86.210 3.7296
346.451935 86.210 3.9233
348.962463 86.211 4.0576
351.491211 86.197 4.1542
354.038239 86.184 4.3000
356.603760 86.191 4.5010
359.187866 86.203 4.6953
361.790680 86.188 4.8856
364.412354 86.160 5.0878
367.053040 86.143 5.2222
369.712860 86.134 5.3412
372.391968 86.123 5.5187
375.090454 86.111 5.7010
377.808533 86.102 5.8379
380.546265 86.092 5.9602
383.303864 86.077 6.1041
386.081451 86.061 6.2418
388.879150 86.055 6.4027
391.697144 86.062 6.5795
394.535522 86.063 6.7880
397.394501 86.054 7.0502
400.274170 86.040 7.2899
403.174744 86.016 7.4716
406.096313 85.993 7.6602
409.039062 85.990 7.8915
412.003113 85.996 8.0792
414.988647 85.991 8.1670
417.995850 85.982 8.1986
421.024811 85.979 8.3434
424.075714 85.984 8.6494
427.148743 85.985 8.9750
430.244049 85.978 9.2663
433.361786 85.961 9.4791
436.502106 85.940 9.6255
439.665161 85.925 9.8063
442.851166 85.915 10.0884
446.060242 85.908 10.3690
449.292572 85.902 10.5582
452.548340 85.896 10.6946
455.827698 85.883 10.8619
459.130798 85.862 11.0999
462.457855 85.852 11.3168
465.809021 85.857 11.4396
469.184448 85.860 11.5671
472.584381 85.864 11.7748
476.008911 85.875 11.9564
479.458252 85.877 12.1013
482.932617 85.866 12.3455
486.432159 85.862 12.6837
489.957031 85.862 13.0187
493.507477 85.851 13.3065
497.083618 85.841 13.5289
500.685699 85.841 13.7107
504.313873 85.842 13.9180
507.968323 85.842 14.2153
511.649292 85.844 14.5217
515.356934 85.844 14.7396
519.091370 85.849 14.9527
522.852966 85.851 15.1901
526.641724 85.848 15.4337
530.458008 85.844 15.6926
534.301941 85.856 15.9313
538.173706 85.885 16.1307
542.073547 85.886 16.4005
546.001648 85.862 16.7406
549.958191 85.855 17.0093
553.943420 85.855 17.2527
557.957520 85.857 17.4614
562.000671 85.864 17.6635
566.073181 85.859 17.9192
570.175171 85.859 18.1911
574.306885 85.878 18.4540
578.468567 85.888 18.7235
582.660400 85.884 18.9608
586.882568 85.885 19.1265
591.135376 85.896 19.3447
595.419006 85.917 19.6331
599.733643 85.935 19.8948
604.079590 85.936 20.1710
608.456970 85.938 20.4431
612.866089 85.955 20.6589
617.307190 85.972 20.8777
621.780457 85.987 21.0935
626.286133 86.012 21.2964
630.824463 86.036 21.4488
635.395691 86.061 21.5106
640.000000 86.092 21.5006
644.637695 86.113 21.4220
649.309021 86.119 21.2593
654.014160 86.103 20.9949
658.753418 86.042 20.6011
663.527039 85.927 20.1547
668.335205 85.766 20.0942
673.178284 85.588 20.6555
678.056396 85.448 21.6643
682.969849 85.382 22.8997
687.918945 85.380 24.0721
692.903870 85.409 25.0273
697.924927 85.445 25.7590
702.982422 85.473 26.2956
708.076477 85.498 26.7839
713.207520 85.527 27.3109
718.375732 85.556 27.8212
723.581360 85.585 28.2010
728.824707 85.614 28.4899
734.106079 85.631 28.8254
739.425720 85.636 29.2110
744.783936 85.632 29.6051
750.180908 85.619 30.0472
755.617065 85.606 30.5438
761.092529 85.607 31.0364
766.607727 85.622 31.5371
772.162903 85.632 32.1209
777.758301 85.639 32.7805
783.394287 85.672 33.4105
789.071045 85.722 34.0064
794.789001 85.767 34.5780
800.548340 85.814 35.0375
806.349487 85.855 35.3849
812.192627 85.893 35.7023
818.078125 85.928 36.0287
824.006226 85.962 36.4412
829.977295 85.996 36.9172
835.991699 86.037 37.3496
842.049622 86.078 37.7899
848.151428 86.106 38.2491
854.297485 86.127 38.6595
860.488098 86.152 39.0803
866.723572 86.189 39.5002
873.004211 86.221 39.8914
879.330322 86.252 40.2985
885.702332 86.288 40.6730
892.120483 86.332 41.0702
898.585144 86.384 41.5356
905.096680 86.425 41.9482
911.655396 86.452 42.3547
918.261597 86.478 42.8102
924.915710 86.515 43.2639
931.618042 86.565 43.6442
938.368896 86.623 43.9810
945.168762 86.679 44.3632
952.017822 86.722 44.7888
958.916504 86.755 45.1808
965.865234 86.794 45.5318
972.864319 86.845 45.8865
979.914062 86.895 46.2638
987.014954 86.945 46.6732
994.167236 87.003 47.0466
1001.371399 87.057 47.3226
1008.627747 87.107 47.6495
1015.936646 87.169 48.0818
1023.298584 87.225 48.4857
1030.713867 87.262 48.7342
1038.182739 87.298 48.9746
1045.705933 87.345 49.2857
1053.283447 87.398 49.6073
1060.916016 87.452 49.9384
1068.603882 87.503 50.2091
1076.347412 87.558 50.4374
1084.147095 87.621 50.6957
1092.003296 87.683 50.9866
1099.916382 87.742 51.2949
1107.886841 87.806 51.5695
1115.915039 87.871 51.8268
1124.001343 87.937 52.0662
1132.146362 88.010 52.3444
1140.350342 88.083 52.6214
1148.613770 88.144 52.8196
1156.937134 88.201 52.9826
1165.320801 88.265 53.1720
1173.765137 88.330 53.3746
1182.270752 88.390 53.5518
1190.838013 88.447 53.7388
1199.467285 88.504 53.9579
1208.159180 88.570 54.1850
1216.913940 88.639 54.3891
1225.732178 88.700 54.5747
1234.614380 88.763 54.7227
1243.560913 88.834 54.8437
1252.572266 88.910 54.9969
1261.648926 88.979 55.1877
1270.791382 89.037 55.4003
1280.000000 89.091 55.5561
1289.275391 89.145 55.6929
1298.618042 89.200 55.8436
1308.028320 89.259 56.0085
1317.506836 89.322 56.1758
1327.054077 89.387 56.3686
1336.670410 89.450 56.5531
1346.356567 89.501 56.7182
1356.112793 89.538 56.8829
1365.939697 89.569 57.0638
1375.837891 89.615 57.2822
1385.807739 89.673 57.4465
1395.849854 89.728 57.5429
1405.964844 89.781 57.6613
1416.152954 89.837 57.8472
1426.415039 89.893 58.0448
1436.751465 89.946 58.1968
1447.162720 89.999 58.3761
1457.649414 90.051 58.5742
1468.212158 90.099 58.7512
1478.851440 90.149 58.9550
1489.567871 90.206 59.1678
1500.361816 90.268 59.3481
1511.234131 90.325 59.4776
1522.185059 90.378 59.6173
1533.215454 90.430 59.7863
1544.325806 90.484 59.9553
1555.516602 90.540 60.1268
1566.788574 90.595 60.2984
1578.142090 90.650 60.5080
1589.578003 90.704 60.7248
1601.096680 90.755 60.8878
1612.698975 90.806 61.0364
1624.385254 90.861 61.2100
1636.156250 90.917 61.3858
1648.012451 90.971 61.5645
1659.954590 91.024 61.7390
1671.983398 91.080 61.9340
1684.099243 91.134 62.1371
1696.302856 91.194 62.3194
1708.594971 91.255 62.5107
1720.976196 91.310 62.6946
1733.447144 91.367 62.8488
1746.008423 91.424 62.9927
1758.660645 91.478 63.1699
1771.404663 91.535 63.3526
1784.240967 91.596 63.5243
1797.170288 91.657 63.7130
1810.193359 91.718 63.9084
1823.310791 91.778 64.0798
1836.523193 91.838 64.2296
1849.831421 91.899 64.3820
1863.236084 91.964 64.5456
1876.737793 92.031 64.7035
1890.337524 92.096 64.8510
1904.035645 92.159 64.9746
1917.833008 92.221 65.0887
1931.730469 92.284 65.1862
1945.728638 92.351 65.2715
1959.828125 92.417 65.3844
1974.029907 92.481 65.4945
1988.334473 92.543 65.5867
2002.742798 92.606 65.6612
2017.255493 92.671 65.7458
2031.873291 92.739 65.8494
2046.597168 92.804 65.9396
2061.427734 92.871 66.0120
2076.365479 92.939 66.0621
2091.411865 93.005 66.0883
2106.566895 93.071 66.1089
2121.832031 93.137 66.1546
2137.207764 93.205 66.1915
2152.694824 93.269 66.2274
2168.294189 93.331 66.2584
2184.006592 93.394 66.2538
2199.832764 93.456 66.2539
2215.773682 93.516 66.2620
2231.830078 93.576 66.2542
2248.002686 93.637 66.2299
2264.292725 93.698 66.2059
2280.700684 93.756 66.1707
2297.227539 93.816 66.1186
2313.874268 93.874 66.0649
2330.641602 93.932 66.0042
2347.530273 93.992 65.9393
2364.541504 94.051 65.8625
2381.676025 94.103 65.7634
2398.934570 94.154 65.6570
2416.318359 94.207 65.5771
2433.827881 94.262 65.4940
2451.464355 94.311 65.3730
2469.228760 94.361 65.2445
2487.121826 94.411 65.1240
2505.144531 94.460 65.0139
2523.297852 94.507 64.8979
2541.582764 94.549 64.7674
2560.000000 94.590 64.6266
2578.550781 94.628 64.4707
2597.236084 94.666 64.3313
2616.056641 94.704 64.1986
2635.013672 94.740 64.0541
2654.108154 94.773 63.9011
2673.340820 94.806 63.7504
2692.713135 94.837 63.6141
2712.225586 94.864 63.4673
2731.879395 94.888 63.3005
2751.675781 94.909 63.1320
2771.615479 94.928 62.9807
2791.699707 94.941 62.8495
2811.929688 94.955 62.7219
2832.305908 94.965 62.5908
2852.830078 94.973 62.4608
2873.502930 94.980 62.3488
2894.325439 94.986 62.2687
2915.298828 94.988 62.2225
2936.424316 94.987 62.1793
2957.702881 94.985 62.1497
2979.135742 94.982 62.1670
3000.723633 94.983 62.2254
3022.468262 94.986 62.3356
3044.370117 94.988 62.4871
3066.430908 94.996 62.6790
3088.651611 95.014 62.9093
3111.033203 95.043 63.1461
3133.577148 95.083 63.3642
3156.284180 95.137 63.5560
3179.156006 95.204 63.7011
3202.193359 95.280 63.7632
3225.397949 95.359 63.7125
3248.770508 95.434 63.5694
3272.312500 95.501 63.3607
3296.024902 95.561 63.1042
3319.909180 95.615 62.8144
3343.966797 95.663 62.4803
3368.198486 95.703 62.1208
3392.605713 95.735 61.7526
3417.189941 95.761 61.3952
3441.952393 95.784 61.0279
3466.894287 95.803 60.6410
3492.016846 95.820 60.2618
3517.321289 95.833 59.8998
3542.809326 95.842 59.5468
3568.481934 95.845 59.1867
3594.340576 95.848 58.8268
3620.386719 95.851 58.4794
3646.621582 95.854 58.1359
3673.046387 95.853 57.7777
3699.662842 95.848 57.4152
3726.472168 95.840 57.0591
3753.475586 95.831 56.6955
3780.675049 95.818 56.3122
3808.071289 95.800 55.9110
3835.666016 95.776 55.5066
3863.460938 95.744 55.0998
3891.457275 95.708 54.6926
3919.656250 95.669 54.3037
3948.059814 95.628 53.9256
3976.668945 95.581 53.5484
4005.485596 95.527 53.1719
4034.510986 95.467 52.7920
4063.746582 95.402 52.4149
4093.194336 95.333 52.0569
4122.855469 95.256 51.7004
4152.730957 95.171 51.3603
4182.823730 95.079 51.0441
4213.133789 94.979 50.7620
4243.664062 94.872 50.5086
4274.415527 94.761 50.2975
4305.389648 94.646 50.1647
4336.588379 94.524 50.1031
4368.013184 94.402 50.0803
4399.665527 94.279 50.0946
