* Measurement data measured by REW V5.20.13
* Source: Microphone (Realtek(R) Audio), MICROPHONE (Master Volume), L, volume: 0.710. Timing signal peak level -37.3 dBFS, measurement signal peak level -37.2 dBFS
* Format: 2M Log Swept Sine, 1 sweep at -12.0 dBFS using an acoustic timing reference
* Dated: Sep 7, 2023 3:57:58 PM
* REW Settings:
*  C-weighting compensation: Off
*  Target level: 75.0 dB
* Note: ; Delay -0.0556 ms (-19 mm, -0.75 in) using estimated IR delay relative to Acoustic reference played from HEADPHONE L with no timing offset Clock adjustment: 120.8 ppm
* Measurement: KZ Krila DUDD L
* Smoothing: 1/24 octave
* Frequency Step: 1/48 octave
* Start Frequency: 20.000 Hz
*
* Freq(Hz) SPL(dB) Phase(degrees)
20.000000 92.284 6.5894
20.299999 92.273 6.1309
20.600000 92.256 5.6679
20.900000 92.234 5.2217
21.200001 92.206 4.8172
21.400000 92.186 4.5789
21.799999 92.150 4.1701
22.000000 92.136 3.9882
22.400000 92.117 3.6291
22.700001 92.111 3.3291
23.000000 92.105 2.9808
23.299999 92.094 2.5897
23.600000 92.076 2.1801
24.000000 92.040 1.6590
24.299999 92.007 1.3248
24.700001 91.964 0.9685
25.000000 91.938 0.7453
25.400000 91.915 0.4499
25.799999 91.900 0.0988
26.200001 91.882 -0.3196
26.500000 91.863 -0.6517
26.900000 91.830 -1.0720
27.200001 91.802 -1.3464
27.600000 91.767 -1.6559
28.000000 91.739 -1.9351
28.500000 91.715 -2.3089
29.000000 91.692 -2.7396
29.500000 91.661 -3.1872
30.000000 91.623 -3.5921
30.400000 91.591 -3.8747
30.700001 91.568 -4.0724
31.100000 91.539 -4.3361
31.500000 91.509 -4.6074
32.000000 91.467 -4.9365
32.500000 91.421 -5.2085
33.000000 91.380 -5.4105
33.500000 91.352 -5.5993
34.000000 91.334 -5.8601
34.500000 91.312 -6.2169
35.000000 91.275 -6.6064
35.500000 91.227 -6.9330
36.000000 91.178 -7.1576
36.500000 91.139 -7.3166
37.000000 91.115 -7.4840
37.500000 91.100 -7.7156
38.200001 91.073 -8.1537
38.700001 91.041 -8.4664
39.500000 90.989 -8.7662
40.000000 90.981 -8.8973
40.599998 90.992 -9.2317
41.200001 90.979 -9.8260
41.799999 90.911 -10.3918
42.500000 90.800 -10.6130
43.099998 90.736 -10.5108
43.700001 90.706 -10.4463
44.400002 90.675 -10.5236
45.000000 90.638 -10.6068
45.500000 90.609 -10.6567
46.200001 90.573 -10.7502
46.799999 90.545 -10.8733
47.500000 90.515 -11.0735
48.200001 90.481 -11.3668
48.700001 90.445 -11.5957
49.400002 90.380 -11.8016
50.000000 90.332 -11.8267
50.799999 90.302 -11.8336
51.500000 90.284 -11.9884
52.200001 90.248 -12.1967
53.000000 90.192 -12.3071
53.799999 90.151 -12.3721
54.500000 90.116 -12.5353
55.200001 90.068 -12.7483
56.000000 90.007 -12.9742
57.000000 89.939 -13.2473
58.000000 89.907 -13.6576
59.000000 89.846 -14.5594
60.000000 89.662 -14.9485
60.799999 89.571 -14.3599
61.500000 89.597 -13.8987
62.200001 89.640 -13.8714
63.000000 89.645 -13.9966
64.000000 89.631 -14.0199
65.000000 89.601 -14.0902
66.000000 89.548 -14.0558
67.000000 89.507 -13.9858
68.000000 89.465 -14.0334
69.000000 89.417 -14.0553
70.000000 89.383 -14.0500
71.000000 89.360 -14.1195
72.000000 89.329 -14.2478
73.000000 89.281 -14.3444
74.000000 89.227 -14.3343
75.000000 89.183 -14.2822
76.199997 89.137 -14.2792
77.500000 89.088 -14.3660
78.800003 89.029 -14.4876
80.000000 88.977 -14.5131
81.199997 88.936 -14.5118
82.500000 88.896 -14.5032
83.800003 88.860 -14.4781
85.000000 88.824 -14.4585
86.199997 88.783 -14.3814
87.500000 88.739 -14.2663
88.500000 88.704 -14.1684
90.000000 88.654 -14.0779
91.199997 88.609 -14.0696
92.500000 88.563 -14.0872
93.800003 88.525 -14.1310
95.000000 88.496 -14.1722
96.199997 88.470 -14.1696
97.500000 88.446 -14.0914
98.800003 88.422 -13.9999
100.000000 88.389 -13.9303
101.500000 88.332 -13.8586
103.000000 88.271 -13.7598
104.400002 88.231 -13.6940
106.000000 88.200 -13.6696
107.500000 88.171 -13.6081
109.000000 88.145 -13.4372
110.599998 88.113 -13.3199
112.000000 88.063 -13.3194
113.800003 87.983 -13.3336
115.000000 87.947 -13.3391
117.199997 87.946 -13.4682
118.000000 87.957 -13.5743
120.599998 87.911 -13.8568
122.000000 87.844 -13.4744
124.099998 87.791 -12.8127
125.000000 87.771 -12.6650
126.500000 87.736 -12.5575
128.000000 87.702 -12.5671
131.500000 87.633 -12.4468
132.000000 87.627 -12.3923
134.000000 87.602 -12.1454
136.000000 87.574 -11.9086
138.000000 87.545 -11.7878
140.000000 87.500 -11.7566
143.000000 87.456 -11.5446
145.000000 87.452 -11.4452
147.500000 87.424 -11.2871
150.000000 87.374 -11.0071
152.500000 87.328 -10.7920
155.000000 87.291 -10.6828
157.500000 87.260 -10.4890
160.000000 87.229 -10.2525
162.500000 87.192 -10.0995
165.000000 87.163 -9.9857
167.500000 87.148 -9.8325
170.000000 87.127 -9.6708
172.500000 87.090 -9.4828
175.000000 87.056 -9.2671
177.500000 87.022 -8.9942
180.000000 86.994 -8.6717
182.500000 86.969 -8.5661
185.000000 86.930 -8.5471
187.500000 86.901 -8.4097
190.000000 86.876 -8.2294
192.500000 86.845 -8.0815
195.000000 86.809 -7.9253
197.500000 86.786 -7.6969
200.000000 86.771 -7.4944
203.000000 86.745 -7.2990
206.000000 86.719 -7.1058
209.000000 86.689 -6.8915
212.000000 86.654 -6.6678
214.000000 86.637 -6.5137
218.000000 86.624 -6.1592
220.000000 86.621 -5.9891
224.000000 86.607 -5.7715
227.000000 86.582 -5.6344
230.000000 86.546 -5.3419
233.000000 86.519 -5.0618
236.000000 86.509 -4.8689
240.000000 86.509 -4.5865
243.000000 86.483 -4.4299
247.000000 86.435 -4.1444
250.000000 86.405 -3.8671
254.000000 86.362 -3.4309
258.000000 86.350 -3.1312
262.000000 86.332 -2.9468
265.000000 86.311 -2.7296
269.000000 86.297 -2.4806
272.000000 86.291 -2.3303
276.000000 86.270 -2.0307
280.000000 86.238 -1.6005
285.000000 86.229 -1.1280
290.000000 86.217 -0.9213
295.000000 86.185 -0.7254
300.000000 86.124 -0.3728
304.000000 86.102 -0.0757
307.000000 86.101 0.1505
311.000000 86.097 0.4455
315.000000 86.094 0.6684
320.000000 86.083 0.9774
325.000000 86.077 1.3692
330.000000 86.066 1.7841
335.000000 86.048 2.1470
340.000000 86.034 2.4415
345.000000 86.020 2.7658
350.000000 86.002 3.1052
355.000000 85.999 3.3555
360.000000 85.999 3.5893
365.000000 85.979 3.9867
370.000000 85.953 4.4050
375.000000 85.942 4.7623
382.000000 85.933 5.2715
387.000000 85.922 5.6817
395.000000 85.895 6.1866
400.000000 85.872 6.5319
406.000000 85.852 6.9838
412.000000 85.855 7.3682
418.000000 85.855 7.8502
425.000000 85.836 8.3010
431.000000 85.803 8.6217
437.000000 85.786 9.0193
444.000000 85.777 9.4994
450.000000 85.767 9.8097
455.000000 85.762 10.1040
462.000000 85.762 10.6158
468.000000 85.763 11.0552
475.000000 85.769 11.5959
482.000000 85.759 12.1191
487.000000 85.743 12.4060
494.000000 85.736 12.7952
500.000000 85.737 13.1902
508.000000 85.730 13.7244
515.000000 85.731 14.1728
522.000000 85.735 14.6122
530.000000 85.737 15.0847
538.000000 85.726 15.5436
545.000000 85.722 15.9946
552.000000 85.728 16.4776
560.000000 85.728 17.0658
570.000000 85.742 17.8391
580.000000 85.766 18.4578
590.000000 85.796 19.0282
600.000000 85.825 19.6619
608.000000 85.849 20.1351
615.000000 85.876 20.4997
622.000000 85.907 20.8185
630.000000 85.945 21.1170
640.000000 86.002 21.2208
650.000000 86.023 20.8319
660.000000 85.913 20.2607
670.000000 85.652 20.3357
680.000000 85.412 21.8300
690.000000 85.346 23.8965
700.000000 85.397 25.5310
710.000000 85.464 26.6546
720.000000 85.517 27.4951
730.000000 85.547 28.2031
740.000000 85.554 28.8859
750.000000 85.553 29.7183
762.000000 85.561 30.9124
775.000000 85.592 32.1970
788.000000 85.670 33.4154
800.000000 85.751 34.5089
812.000000 85.834 35.4167
825.000000 85.912 36.3118
838.000000 85.978 37.1951
850.000000 86.044 38.0834
862.000000 86.112 38.9328
875.000000 86.186 39.7680
885.000000 86.245 40.4138
900.000000 86.325 41.3718
912.000000 86.399 42.1255
925.000000 86.488 42.8984
938.000000 86.570 43.6891
950.000000 86.645 44.4408
962.000000 86.728 45.1568
975.000000 86.822 45.8329
988.000000 86.907 46.4639
1000.000000 86.991 47.0483
1015.000000 87.111 47.6951
1030.000000 87.223 48.3621
1044.000000 87.319 49.0156
1060.000000 87.425 49.6518
1075.000000 87.525 50.1865
1090.000000 87.635 50.7138
1106.000000 87.762 51.2530
1120.000000 87.875 51.7353
1138.000000 88.018 52.3043
1150.000000 88.112 52.5918
1172.000000 88.283 53.0822
1180.000000 88.341 53.2754
1206.000000 88.529 53.8899
1220.000000 88.632 54.1998
1241.000000 88.788 54.6438
1250.000000 88.854 54.8207
1265.000000 88.958 55.0991
1280.000000 89.055 55.3532
1315.000000 89.284 55.9437
1320.000000 89.316 56.0297
1340.000000 89.433 56.3755
1360.000000 89.526 56.7169
1380.000000 89.617 57.0174
1400.000000 89.722 57.3600
1430.000000 89.883 57.9090
1450.000000 89.989 58.2527
1475.000000 90.119 58.6877
1500.000000 90.254 59.0783
1525.000000 90.383 59.4942
1550.000000 90.503 59.8972
1575.000000 90.612 60.3033
1600.000000 90.722 60.7170
1625.000000 90.837 61.1048
1650.000000 90.955 61.4672
1675.000000 91.067 61.8571
1700.000000 91.175 62.2222
1725.000000 91.285 62.5827
1750.000000 91.400 62.9617
1775.000000 91.520 63.3393
1800.000000 91.638 63.6883
1825.000000 91.753 64.0333
1850.000000 91.877 64.3574
1875.000000 92.002 64.6319
1900.000000 92.123 64.8699
1925.000000 92.239 65.0978
1950.000000 92.350 65.2962
1975.000000 92.462 65.4722
2000.000000 92.576 65.6353
2030.000000 92.711 65.7873
2060.000000 92.845 65.9162
2090.000000 92.974 66.0443
2120.000000 93.100 66.1399
2140.000000 93.186 66.1747
2180.000000 93.356 66.2241
2200.000000 93.437 66.2431
2240.000000 93.592 66.2022
2270.000000 93.704 66.1225
2300.000000 93.811 66.0473
2330.000000 93.915 65.9472
2360.000000 94.014 65.8198
2400.000000 94.141 65.6132
2430.000000 94.231 65.4424
2470.000000 94.341 65.1799
2500.000000 94.417 64.9647
2540.000000 94.515 64.6958
2580.000000 94.604 64.4243
2620.000000 94.683 64.1294
2650.000000 94.735 63.8957
2690.000000 94.797 63.5818
2720.000000 94.836 63.3489
2760.000000 94.876 63.0594
2800.000000 94.904 62.8199
2850.000000 94.927 62.5810
2900.000000 94.937 62.4221
2950.000000 94.939 62.4123
3000.000000 94.943 62.6083
3040.000000 94.959 62.9294
3070.000000 94.988 63.2358
3110.000000 95.057 63.6461
3150.000000 95.163 63.9550
3200.000000 95.323 64.0303
3250.000000 95.479 63.7021
3300.000000 95.606 63.0960
3350.000000 95.698 62.3565
3400.000000 95.759 61.5830
3450.000000 95.799 60.8257
3500.000000 95.824 60.1071
3550.000000 95.836 59.4107
3600.000000 95.839 58.7501
3650.000000 95.834 58.1292
3700.000000 95.825 57.5054
3750.000000 95.809 56.8577
3820.000000 95.762 55.9041
3870.000000 95.710 55.2061
3950.000000 95.594 54.1306
4000.000000 95.505 53.4739
4060.000000 95.380 52.7095
4120.000000 95.232 51.9923
4180.000000 95.057 51.3652
4250.000000 94.825 50.8394
4310.000000 94.608 50.5941
4370.000000 94.383 50.5129
4440.000000 94.122 50.5888
4500.000000 93.909 50.7836
4550.000000 93.738 51.0003
4620.000000 93.508 51.3222
4680.000000 93.322 51.5720
4750.000000 93.109 51.7740
4820.000000 92.881 51.8945
4870.000000 92.699 51.9506
4940.000000 92.412 52.0691
5000.000000 92.140 52.3220
5080.000000 91.755 52.9545
5150.000000 91.412 53.7904
5220.000000 91.072 54.8773
5300.000000 90.692 56.3839
5380.000000 90.327 58.1442
5450.000000 90.024 59.8644
5520.000000 89.741 61.7254
5600.000000 89.444 64.0121
5700.000000 89.110 67.0675
5800.000000 88.812 70.3180
5900.000000 88.559 73.7016
6000.000000 88.355 77.2258
6080.000000 88.223 80.1544
6150.000000 88.132 82.7865
6220.000000 88.066 85.4448
6300.000000 88.021 88.5025
6400.000000 88.014 92.3872
6500.000000 88.061 96.3031
6600.000000 88.161 100.1999
6700.000000 88.325 104.0531
6800.000000 88.558 107.8791
6900.000000 88.883 111.5677
7000.000000 89.309 115.0651
7100.000000 89.825 118.3206
7200.000000 90.432 121.2414
7300.000000 91.137 123.6714
7400.000000 91.941 125.4121
7500.000000 92.844 126.1980
7620.000000 94.044 125.3980
7750.000000 95.357 121.5681
7880.000000 96.355 113.9583
8000.000000 96.752 104.0673
8120.000000 96.509 93.4737
8250.000000 95.586 84.0695
8380.000000 94.238 78.4087
8500.000000 92.878 76.3779
8620.000000 91.564 76.6899
8750.000000 90.265 78.8791
8850.000000 89.367 81.5030
9000.000000 88.204 86.5600
9120.000000 87.444 91.2496
9250.000000 86.779 96.6459
9380.000000 86.261 102.2354
9500.000000 85.916 107.2893
9620.000000 85.664 112.1492
9750.000000 85.479 117.3059
9880.000000 85.385 122.2969
10000.000000 85.375 126.6691
10150.000000 85.462 131.7261
10300.000000 85.638 136.2106
10440.000000 85.854 139.7669
10600.000000 86.137 142.9941
10750.000000 86.409 145.2016
10900.000000 86.649 146.7369
11060.000000 86.838 147.9112
11200.000000 86.959 148.8352
11380.000000 87.113 150.0710
11500.000000 87.236 150.7697
11720.000000 87.499 151.4553
11800.000000 87.606 151.4945
12060.000000 87.991 150.5271
12200.000000 88.193 148.9588
12410.000000 88.352 144.8014
12500.000000 88.318 142.4202
12650.000000 88.069 138.0366
12800.000000 87.555 133.8065
13150.000000 85.518 128.6131
13200.000000 85.174 128.6041
13400.000000 83.803 130.2787
13600.000000 82.555 134.1588
13800.000000 81.520 139.4944
14000.000000 80.719 145.5032
14300.000000 79.895 154.6342
14500.000000 79.514 160.3745
14750.000000 79.129 166.9773
15000.000000 78.782 173.3336
15250.000000 78.498 179.4896
15500.000000 78.344 -174.7015
15750.000000 78.378 -169.5776
16000.000000 78.528 -165.9136
16250.000000 78.655 -164.2982
16500.000000 78.599 -164.6918
16750.000000 78.281 -165.9369
17000.000000 77.782 -167.1649
17250.000000 77.363 -173.3596
17500.000000 77.345 133.6129
17750.000000 77.895 -103.7730
18000.000000 78.495 135.7073
18250.000000 78.343 -76.2274
18500.000000 77.516 79.0518
18750.000000 76.192 -77.5188
19000.000000 74.576 -58.7832
19250.000000 72.894 172.4434
19500.000000 71.501 108.3000
19750.000000 70.959 -82.1802
20000.000000 70.969 -124.6196
