* Measurement data measured by REW V5.20.13
* Source: Microphone (Realtek(R) Audio), MICROPHONE (Master Volume), L, volume: 0.710. Timing signal peak level -37.4 dBFS, measurement signal peak level -37.3 dBFS
* Format: 2M Log Swept Sine, 1 sweep at -12.0 dBFS using an acoustic timing reference
* Dated: Sep 7, 2023 4:21:23 PM
* REW Settings:
*  C-weighting compensation: Off
*  Target level: 75.0 dB
* Note: ; Delay -0.0524 ms (-18 mm, -0.71 in) using estimated IR delay relative to Acoustic reference played from HEADPHONE R with no timing offset Clock adjustment: 120.8 ppm
* Measurement: KZ Krila DUUU R
* Smoothing: 1/48 octave
* Frequency Step: 1/96 octave
* Start Frequency: 20.000 Hz
*
* Freq(Hz) SPL(dB) Phase(degrees)
20.000000 95.201 5.0864
20.144928 95.195 4.8723
20.290907 95.189 4.6478
20.437943 95.184 4.4163
20.586044 95.178 4.1810
20.735220 95.172 3.9413
20.885475 95.166 3.6964
21.036821 95.158 3.4441
21.189262 95.150 3.1879
21.342808 95.140 2.9320
21.497467 95.129 2.6755
21.653246 95.117 2.4230
21.810154 95.104 2.1760
21.968201 95.090 1.9304
22.127390 95.077 1.6830
22.287735 95.063 1.4373
22.449242 95.048 1.1977
22.611917 95.033 0.9634
22.775772 95.018 0.7342
22.940815 95.003 0.5106
23.107054 94.988 0.2891
23.274498 94.972 0.0684
23.443153 94.958 -0.1489
23.613033 94.943 -0.3599
23.784142 94.929 -0.5681
23.956491 94.916 -0.7764
24.130091 94.903 -0.9848
24.304947 94.892 -1.1964
24.481071 94.880 -1.4104
24.658470 94.869 -1.6252
24.837156 94.857 -1.8418
25.017136 94.845 -2.0630
25.198421 94.833 -2.2878
25.381020 94.819 -2.5106
25.564941 94.806 -2.7314
25.750195 94.792 -2.9451
25.936790 94.778 -3.1525
26.124741 94.764 -3.3578
26.314051 94.752 -3.5606
26.504732 94.741 -3.7605
26.696796 94.730 -3.9598
26.890253 94.721 -4.1651
27.085112 94.712 -4.3778
27.281382 94.703 -4.6042
27.479073 94.693 -4.8394
27.678198 94.682 -5.0810
27.878765 94.669 -5.3243
28.080786 94.653 -5.5679
28.284271 94.635 -5.8021
28.489231 94.616 -6.0248
28.695675 94.596 -6.2293
28.903616 94.577 -6.4172
29.113064 94.559 -6.5936
29.324028 94.543 -6.7633
29.536524 94.530 -6.9305
29.750557 94.517 -7.1045
29.966141 94.506 -7.2880
30.183289 94.492 -7.4874
30.402010 94.477 -7.6986
30.622314 94.460 -7.9160
30.844217 94.439 -8.1304
31.067726 94.416 -8.3377
31.292856 94.391 -8.5281
31.519617 94.366 -8.7001
31.748020 94.342 -8.8489
31.978081 94.320 -8.9855
32.209808 94.302 -9.1150
32.443211 94.287 -9.2523
32.678310 94.274 -9.4067
32.915108 94.263 -9.5852
33.153625 94.251 -9.7939
33.393871 94.235 -10.0237
33.635857 94.216 -10.2672
33.879597 94.193 -10.5058
34.125103 94.168 -10.7312
34.372387 94.141 -10.9348
34.621464 94.114 -11.1118
34.872345 94.090 -11.2714
35.125042 94.069 -11.4218
35.379574 94.052 -11.5820
35.635948 94.037 -11.7593
35.894180 94.023 -11.9572
36.154285 94.006 -12.1744
36.416275 93.986 -12.3950
36.680161 93.963 -12.6079
36.945961 93.938 -12.8010
37.213688 93.913 -12.9714
37.483353 93.891 -13.1250
37.754974 93.871 -13.2698
38.028561 93.854 -13.4198
38.304131 93.838 -13.5859
38.581699 93.821 -13.7654
38.861279 93.802 -13.9517
39.142883 93.779 -14.1332
39.426529 93.755 -14.2971
39.712231 93.731 -14.4406
40.000000 93.708 -14.5687
40.289856 93.687 -14.6924
40.581814 93.669 -14.8253
40.875885 93.650 -14.9757
41.172089 93.630 -15.1423
41.470440 93.607 -15.3165
41.770950 93.580 -15.4843
42.073643 93.550 -15.6325
42.378525 93.521 -15.7568
42.685616 93.495 -15.8643
42.994934 93.473 -15.9704
43.306492 93.455 -16.0927
43.620308 93.438 -16.2438
43.936401 93.419 -16.4253
44.254780 93.396 -16.6237
44.575470 93.368 -16.8147
44.898483 93.336 -16.9785
45.223835 93.306 -17.1083
45.551544 93.279 -17.2131
45.881630 93.257 -17.3132
46.214108 93.239 -17.4299
46.548996 93.222 -17.5733
46.886307 93.202 -17.7356
47.226067 93.180 -17.8992
47.568283 93.156 -18.0487
47.912983 93.131 -18.1819
48.260181 93.107 -18.3081
48.609894 93.082 -18.4358
48.962143 93.055 -18.5641
49.316940 93.025 -18.6829
49.674313 92.995 -18.7817
50.034271 92.965 -18.8632
50.396843 92.939 -18.9442
50.762039 92.915 -19.0448
51.129883 92.890 -19.1728
51.500389 92.861 -19.3180
51.873581 92.828 -19.4612
52.249481 92.795 -19.5898
52.628101 92.763 -19.7035
53.009464 92.736 -19.8144
53.393593 92.713 -19.9409
53.780506 92.693 -20.1006
54.170223 92.672 -20.3049
54.562763 92.647 -20.5453
54.958145 92.611 -20.7798
55.356396 92.567 -20.9404
55.757530 92.524 -20.9758
56.161572 92.497 -20.9091
56.568542 92.492 -20.8456
56.978462 92.497 -20.8894
57.391350 92.491 -21.0269
57.807232 92.465 -21.1049
58.226128 92.436 -20.9720
58.648056 92.441 -20.6718
59.073048 92.498 -20.4838
59.501114 92.578 -20.7252
59.932281 92.618 -21.4391
60.366577 92.571 -22.2994
60.804020 92.450 -22.8458
61.244629 92.311 -22.8542
61.688435 92.218 -22.5075
62.135452 92.184 -22.2225
62.585712 92.169 -22.2400
63.039234 92.128 -22.4454
63.496040 92.060 -22.5848
63.956161 91.992 -22.5473
64.419617 91.951 -22.4550
64.886421 91.930 -22.4686
65.356621 91.909 -22.6036
65.830215 91.878 -22.7584
66.307251 91.848 -22.8682
66.787743 91.826 -22.9686
67.271713 91.808 -23.1135
67.759193 91.785 -23.2860
68.250206 91.754 -23.4266
68.744774 91.723 -23.5122
69.242928 91.695 -23.5751
69.744690 91.667 -23.6431
70.250084 91.635 -23.7028
70.759148 91.601 -23.7269
71.271896 91.569 -23.7234
71.788361 91.542 -23.7371
72.308571 91.514 -23.7992
72.832550 91.479 -23.8940
73.360321 91.437 -23.9745
73.891922 91.395 -24.0160
74.427376 91.359 -24.0438
74.966705 91.329 -24.1001
75.509949 91.298 -24.1921
76.057121 91.264 -24.2858
76.608261 91.230 -24.3545
77.163399 91.200 -24.4129
77.722557 91.170 -24.4875
78.285767 91.137 -24.5679
78.853058 91.098 -24.6141
79.424461 91.060 -24.6097
80.000000 91.027 -24.5797
80.579712 90.999 -24.5602
81.163628 90.971 -24.5651
81.751770 90.941 -24.5844
82.344177 90.908 -24.6058
82.940880 90.875 -24.6208
83.541901 90.843 -24.6262
84.147285 90.818 -24.6403
84.757050 90.796 -24.7108
85.371231 90.769 -24.8483
85.989868 90.727 -24.9786
86.612984 90.680 -25.0098
87.240616 90.642 -24.9648
87.872803 90.617 -24.9471
88.509560 90.590 -24.9960
89.150940 90.555 -25.0406
89.796967 90.519 -25.0325
90.447670 90.489 -25.0049
91.103088 90.461 -24.9999
91.763260 90.433 -25.0099
92.428215 90.404 -25.0201
93.097992 90.374 -25.0323
93.772614 90.342 -25.0434
94.452133 90.307 -25.0431
95.136566 90.271 -25.0281
95.825966 90.234 -24.9989
96.520363 90.199 -24.9619
97.219788 90.167 -24.9371
97.924286 90.133 -24.9348
98.633881 90.098 -24.9347
99.348625 90.064 -24.9233
100.068542 90.034 -24.9237
100.793686 90.004 -24.9484
101.524078 89.970 -24.9609
102.259766 89.937 -24.9348
103.000778 89.906 -24.8931
103.747162 89.875 -24.8383
104.498962 89.843 -24.7448
105.256203 89.815 -24.6458
106.018929 89.787 -24.5875
106.787186 89.753 -24.5461
107.561012 89.719 -24.5115
108.340446 89.684 -24.5204
109.125526 89.645 -24.5566
109.916290 89.605 -24.5811
110.712791 89.566 -24.6003
111.515060 89.525 -24.5683
112.323143 89.495 -24.4351
113.137085 89.487 -24.3363
113.956924 89.472 -24.3698
114.782700 89.431 -24.3794
115.614464 89.381 -24.2830
116.452255 89.333 -24.1477
117.296112 89.292 -24.0526
118.146095 89.242 -24.1544
119.002228 89.144 -24.1914
119.864563 89.064 -23.7451
120.733154 89.087 -23.3512
121.608040 89.130 -23.5558
122.489258 89.117 -23.9092
123.376869 89.082 -24.0464
124.270905 89.051 -24.0192
125.171425 89.028 -23.9132
126.078468 89.001 -23.8108
126.992081 88.963 -23.6318
127.912323 88.938 -23.3984
128.839233 88.922 -23.2824
129.772842 88.900 -23.2665
130.713242 88.874 -23.2749
131.660431 88.849 -23.3073
132.614502 88.818 -23.3127
133.575485 88.790 -23.2119
134.543427 88.776 -23.0701
135.518387 88.766 -22.9956
136.500412 88.744 -22.9517
137.489548 88.711 -22.8846
138.485855 88.672 -22.8037
139.489380 88.630 -22.7042
140.500168 88.590 -22.5798
141.518295 88.559 -22.4551
142.543793 88.535 -22.3738
143.576721 88.511 -22.3192
144.617142 88.485 -22.2668
145.665100 88.453 -22.2067
146.720642 88.418 -22.0844
147.783844 88.393 -21.9459
148.854752 88.372 -21.8615
149.933411 88.346 -21.8250
151.019897 88.315 -21.7662
152.114243 88.289 -21.6888
153.216522 88.261 -21.6122
154.326797 88.232 -21.4788
155.445114 88.210 -21.3116
156.571533 88.190 -21.1672
157.706116 88.164 -21.0496
158.848923 88.129 -20.9482
160.000000 88.091 -20.8386
161.159424 88.054 -20.7381
162.327255 88.024 -20.6251
163.503540 88.007 -20.5350
164.688354 87.993 -20.4673
165.881760 87.983 -20.3600
167.083801 87.973 -20.2657
168.294571 87.946 -20.1727
169.514099 87.907 -19.9884
170.742462 87.876 -19.7638
171.979736 87.854 -19.6184
173.225967 87.834 -19.5333
174.481232 87.821 -19.4615
175.745605 87.808 -19.4104
177.019119 87.791 -19.3054
178.301880 87.775 -19.1462
179.593933 87.757 -19.0363
180.895340 87.720 -18.9529
182.206177 87.677 -18.8140
183.526520 87.634 -18.6692
184.856430 87.592 -18.4624
186.195984 87.564 -18.2316
187.545227 87.544 -18.0746
188.904266 87.521 -17.9935
190.273132 87.490 -17.9584
191.651932 87.458 -17.8615
193.040726 87.440 -17.7220
194.439575 87.434 -17.6042
195.848572 87.423 -17.5026
197.267761 87.401 -17.3524
198.697250 87.375 -17.1694
200.137085 87.342 -16.9991
201.587372 87.307 -16.7929
203.048157 87.287 -16.6210
204.519531 87.270 -16.5712
206.001556 87.247 -16.5403
207.494324 87.222 -16.4332
208.997925 87.204 -16.2200
210.512405 87.195 -15.9871
212.037857 87.180 -15.8024
213.574371 87.155 -15.6373
215.122025 87.129 -15.5381
216.680893 87.102 -15.5079
218.251053 87.081 -15.4763
219.832581 87.062 -15.3880
221.425583 87.038 -15.1566
223.030121 87.019 -14.8401
224.646286 86.997 -14.6013
226.274170 86.967 -14.4314
227.913849 86.951 -14.2676
229.565399 86.951 -14.1843
231.228928 86.936 -14.1175
232.904510 86.906 -13.9307
234.592224 86.878 -13.7202
236.292191 86.859 -13.5959
238.004456 86.852 -13.5557
239.729126 86.841 -13.5439
241.466309 86.812 -13.3337
243.216080 86.787 -12.9755
244.978516 86.759 -12.6740
246.753738 86.729 -12.4576
248.541809 86.707 -12.3037
250.342850 86.694 -12.1544
252.156937 86.686 -11.9459
253.984161 86.680 -11.7092
255.824646 86.665 -11.5215
257.678467 86.637 -11.3444
259.545685 86.617 -11.1364
261.426483 86.610 -10.9635
263.320862 86.603 -10.8337
265.229004 86.585 -10.7174
267.150970 86.557 -10.6065
269.086853 86.532 -10.4772
271.036774 86.524 -10.3716
273.000824 86.518 -10.2714
274.979095 86.508 -10.0587
276.971710 86.498 -9.8320
278.978760 86.478 -9.6344
281.000336 86.460 -9.4254
283.036591 86.450 -9.2174
285.087585 86.440 -8.9781
287.153442 86.431 -8.7507
289.234283 86.416 -8.5892
291.330200 86.401 -8.3791
293.441284 86.401 -8.0916
295.567688 86.400 -7.7904
297.709503 86.378 -7.5104
299.866821 86.343 -7.2819
302.039795 86.312 -7.1947
304.228485 86.294 -7.1618
306.433044 86.293 -7.0488
308.653595 86.299 -6.8590
310.890228 86.292 -6.6600
313.143066 86.270 -6.4747
315.412231 86.251 -6.3071
317.697845 86.239 -6.1396
320.000000 86.231 -5.9243
322.318848 86.224 -5.6727
324.654510 86.218 -5.4075
327.007080 86.216 -5.1948
329.376709 86.212 -5.0392
331.763519 86.209 -4.8920
334.167603 86.211 -4.7501
336.589142 86.206 -4.5814
339.028198 86.191 -4.3413
341.484924 86.170 -4.0529
343.959473 86.151 -3.8038
346.451935 86.139 -3.6421
348.962463 86.128 -3.5151
351.491211 86.112 -3.3306
354.038239 86.098 -3.1039
356.603760 86.095 -2.9604
359.187866 86.089 -2.8760
361.790680 86.076 -2.6249
364.412354 86.071 -2.2778
367.053040 86.071 -2.0433
369.712860 86.066 -1.9089
372.391968 86.047 -1.7343
375.090454 86.017 -1.4608
377.808533 85.989 -1.1812
380.546265 85.980 -0.9668
383.303864 85.983 -0.7681
386.081451 85.977 -0.5121
388.879150 85.962 -0.2710
391.697144 85.948 -0.0619
394.535522 85.946 0.1942
397.394501 85.951 0.4264
400.274170 85.942 0.5703
403.174744 85.926 0.7233
406.096313 85.914 0.9200
409.039062 85.898 1.1408
412.003113 85.886 1.4207
414.988647 85.894 1.7621
417.995850 85.909 2.0729
421.024811 85.898 2.2208
424.075714 85.864 2.3203
427.148743 85.849 2.5142
430.244049 85.846 2.7806
433.361786 85.834 3.0346
436.502106 85.822 3.3243
439.665161 85.819 3.6157
442.851166 85.814 3.8223
446.060242 85.811 4.0206
449.292572 85.820 4.2789
452.548340 85.826 4.5350
455.827698 85.810 4.7573
459.130798 85.779 4.9758
462.457855 85.754 5.1935
465.809021 85.746 5.4057
469.184448 85.748 5.6467
472.584381 85.746 5.8651
476.008911 85.739 6.0153
479.458252 85.736 6.2013
482.932617 85.739 6.5095
486.432159 85.749 6.8589
489.957031 85.749 7.2319
493.507477 85.738 7.5515
497.083618 85.731 7.7234
500.685699 85.725 7.9481
504.313873 85.713 8.2778
507.968323 85.699 8.5619
511.649292 85.695 8.8313
515.356934 85.708 9.0798
519.091370 85.711 9.2529
522.852966 85.702 9.4773
526.641724 85.700 9.8090
530.458008 85.692 10.1586
534.301941 85.680 10.5082
538.173706 85.674 10.8464
542.073547 85.683 11.0770
546.001648 85.697 11.2516
549.958191 85.709 11.5079
553.943420 85.717 11.7318
557.957520 85.716 11.9368
562.000671 85.707 12.1900
566.073181 85.695 12.5010
570.175171 85.692 12.8022
574.306885 85.704 13.0491
578.468567 85.720 13.3124
582.660400 85.729 13.6050
586.882568 85.731 13.9198
591.135376 85.730 14.2271
595.419006 85.736 14.4728
599.733643 85.751 14.6638
604.079590 85.758 14.9457
608.456970 85.758 15.3110
612.866089 85.765 15.6251
617.307190 85.775 15.8829
621.780457 85.783 16.1453
626.286133 85.799 16.4221
630.824463 85.817 16.6974
635.395691 85.829 16.9604
640.000000 85.837 17.1706
644.637695 85.849 17.3510
649.309021 85.870 17.5983
654.014160 85.896 17.7898
658.753418 85.921 17.7538
663.527039 85.937 17.8037
668.335205 85.945 17.9485
673.178284 85.953 17.8920
678.056396 85.961 17.5017
682.969849 85.942 16.8947
687.918945 85.847 16.2838
692.903870 85.652 15.9089
697.924927 85.379 16.2166
702.982422 85.131 17.4182
708.076477 85.002 19.1724
713.207520 84.988 20.9686
718.375732 85.047 22.4474
723.581360 85.138 23.4640
728.824707 85.227 24.1929
734.106079 85.293 24.8040
739.425720 85.341 25.2863
744.783936 85.382 25.7065
750.180908 85.427 26.1472
755.617065 85.470 26.5769
761.092529 85.514 26.9172
766.607727 85.553 27.2550
772.162903 85.585 27.6941
777.758301 85.620 28.1813
783.394287 85.638 28.6546
789.071045 85.640 29.0791
794.789001 85.652 29.4668
800.548340 85.672 29.8588
806.349487 85.695 30.2743
812.192627 85.727 30.7150
818.078125 85.763 31.1418
824.006226 85.790 31.5470
829.977295 85.817 31.9368
835.991699 85.852 32.3361
842.049622 85.890 32.7622
848.151428 85.916 33.1943
854.297485 85.934 33.5866
860.488098 85.960 33.9983
866.723572 85.996 34.4375
873.004211 86.029 34.8817
879.330322 86.051 35.3474
885.702332 86.075 35.8166
892.120483 86.109 36.2284
898.585144 86.145 36.5883
905.096680 86.183 36.9919
911.655396 86.229 37.3981
918.261597 86.275 37.8005
924.915710 86.313 38.2216
931.618042 86.352 38.6437
938.368896 86.393 39.0591
945.168762 86.427 39.4910
952.017822 86.455 39.9490
958.916504 86.496 40.3503
965.865234 86.548 40.6860
972.864319 86.593 41.0515
979.914062 86.633 41.4586
987.014954 86.679 41.8119
994.167236 86.732 42.1155
1001.371399 86.782 42.4374
1008.627747 86.824 42.7729
1015.936646 86.866 43.1286
1023.298584 86.915 43.5190
1030.713867 86.970 43.9041
1038.182739 87.027 44.2423
1045.705933 87.077 44.5696
1053.283447 87.128 44.8907
1060.916016 87.181 45.1777
1068.603882 87.231 45.4742
1076.347412 87.277 45.7778
1084.147095 87.319 46.0454
1092.003296 87.373 46.3192
1099.916382 87.441 46.6059
1107.886841 87.511 46.8826
1115.915039 87.577 47.1680
1124.001343 87.638 47.4404
1132.146362 87.697 47.6655
1140.350342 87.755 47.8582
1148.613770 87.815 48.1178
1156.937134 87.879 48.3976
1165.320801 87.936 48.6312
1173.765137 87.988 48.8602
1182.270752 88.043 49.0659
1190.838013 88.107 49.2468
1199.467285 88.174 49.4461
1208.159180 88.232 49.6638
1216.913940 88.295 49.8658
1225.732178 88.362 50.0641
1234.614380 88.423 50.2440
1243.560913 88.479 50.3987
1252.572266 88.534 50.5626
1261.648926 88.590 50.7371
1270.791382 88.649 50.9177
1280.000000 88.708 51.0975
1289.275391 88.771 51.2907
1298.618042 88.836 51.4935
1308.028320 88.898 51.6676
1317.506836 88.955 51.8220
1327.054077 89.008 52.0168
1336.670410 89.057 52.2306
1346.356567 89.104 52.4174
1356.112793 89.140 52.5960
1365.939697 89.172 52.7707
1375.837891 89.218 52.9532
1385.807739 89.272 53.1558
1395.849854 89.322 53.3520
1405.964844 89.370 53.4940
1416.152954 89.421 53.6356
1426.415039 89.475 53.8176
1436.751465 89.527 53.9988
1447.162720 89.577 54.1732
1457.649414 89.625 54.3751
1468.212158 89.674 54.6094
1478.851440 89.729 54.8438
1489.567871 89.786 55.0606
1500.361816 89.841 55.2599
1511.234131 89.898 55.4506
1522.185059 89.953 55.6221
1533.215454 90.003 55.8006
1544.325806 90.049 56.0121
1555.516602 90.092 56.2141
1566.788574 90.139 56.4283
1578.142090 90.193 56.6364
1589.578003 90.247 56.8373
1601.096680 90.300 57.0558
1612.698975 90.349 57.2632
1624.385254 90.394 57.4473
1636.156250 90.442 57.6440
1648.012451 90.495 57.8642
1659.954590 90.554 58.0681
1671.983398 90.613 58.2494
1684.099243 90.667 58.4756
1696.302856 90.719 58.7294
1708.594971 90.768 58.9500
1720.976196 90.819 59.1181
1733.447144 90.871 59.3012
1746.008423 90.923 59.5368
1758.660645 90.980 59.7675
1771.404663 91.038 59.9895
1784.240967 91.093 60.2058
1797.170288 91.150 60.3853
1810.193359 91.214 60.5576
1823.310791 91.276 60.7643
1836.523193 91.332 60.9839
1849.831421 91.389 61.2165
1863.236084 91.449 61.4136
1876.737793 91.509 61.5503
1890.337524 91.572 61.7048
1904.035645 91.638 61.9118
1917.833008 91.704 62.1185
1931.730469 91.766 62.2936
1945.728638 91.823 62.4641
1959.828125 91.887 62.6227
1974.029907 91.953 62.7769
1988.334473 92.019 62.8963
2002.742798 92.086 63.0039
2017.255493 92.150 63.1383
2031.873291 92.213 63.2952
2046.597168 92.278 63.4226
2061.427734 92.345 63.5068
2076.365479 92.412 63.5859
2091.411865 92.478 63.6890
2106.566895 92.542 63.8017
2121.832031 92.608 63.9171
2137.207764 92.678 64.0068
2152.694824 92.748 64.0591
2168.294189 92.815 64.1111
2184.006592 92.879 64.1868
2199.832764 92.943 64.2453
2215.773682 93.011 64.2899
2231.830078 93.078 64.3292
2248.002686 93.139 64.3453
2264.292725 93.199 64.3484
2280.700684 93.259 64.3732
2297.227539 93.321 64.3760
2313.874268 93.384 64.3637
2330.641602 93.447 64.3684
2347.530273 93.509 64.3820
2364.541504 93.572 64.3787
2381.676025 93.632 64.3381
2398.934570 93.688 64.2851
2416.318359 93.743 64.2369
2433.827881 93.799 64.1643
2451.464355 93.855 64.0759
2469.228760 93.908 64.0255
2487.121826 93.964 63.9910
2505.144531 94.022 63.9250
2523.297852 94.076 63.8436
2541.582764 94.125 63.7473
2560.000000 94.170 63.6439
2578.550781 94.217 63.5412
2597.236084 94.266 63.4310
2616.056641 94.315 63.3269
2635.013672 94.362 63.2155
2654.108154 94.405 63.0817
2673.340820 94.442 62.9398
2692.713135 94.477 62.7950
2712.225586 94.513 62.6560
2731.879395 94.549 62.5185
2751.675781 94.583 62.3808
2771.615479 94.616 62.2486
2791.699707 94.645 62.1127
2811.929688 94.668 61.9718
2832.305908 94.690 61.8246
2852.830078 94.712 61.6878
2873.502930 94.731 61.5621
2894.325439 94.747 61.4377
2915.298828 94.759 61.3286
2936.424316 94.769 61.2405
2957.702881 94.775 61.1588
2979.135742 94.780 61.0964
3000.723633 94.782 61.0692
3022.468262 94.788 61.0817
3044.370117 94.796 61.1366
3066.430908 94.803 61.2244
3088.651611 94.809 61.3725
3111.033203 94.817 61.5822
3133.577148 94.835 61.8190
3156.284180 94.866 62.0729
3179.156006 94.914 62.3457
3202.193359 94.979 62.6003
3225.397949 95.060 62.7859
3248.770508 95.152 62.8633
3272.312500 95.250 62.8114
3296.024902 95.346 62.6225
3319.909180 95.435 62.3230
3343.966797 95.514 61.9510
3368.198486 95.580 61.5248
3392.605713 95.636 61.0641
3417.189941 95.685 60.5718
3441.952393 95.725 60.0716
3466.894287 95.758 59.5713
3492.016846 95.785 59.0757
3517.321289 95.809 58.5832
3542.809326 95.828 58.0916
3568.481934 95.841 57.5941
3594.340576 95.849 57.0792
3620.386719 95.852 56.5800
3646.621582 95.849 56.1087
3673.046387 95.842 55.6389
3699.662842 95.831 55.1657
3726.472168 95.817 54.6970
3753.475586 95.803 54.2369
3780.675049 95.786 53.7683
3808.071289 95.761 53.2947
3835.666016 95.731 52.8362
3863.460938 95.701 52.3727
3891.457275 95.665 51.8929
3919.656250 95.623 51.4015
3948.059814 95.577 50.9173
