* Measurement data measured by REW V5.20.13
* Source: Microphone (Realtek(R) Audio), MICROPHONE (Master Volume), L, volume: 0.710. Timing signal peak level -37.5 dBFS, measurement signal peak level -37.3 dBFS
* Format: 2M Log Swept Sine, 1 sweep at -12.0 dBFS using an acoustic timing reference
* Dated: Sep 7, 2023 4:10:25 PM
* REW Settings:
*  C-weighting compensation: Off
*  Target level: 75.0 dB
* Note: ; Delay -0.0538 ms (-18 mm, -0.73 in) using estimated IR delay relative to Acoustic reference played from HEADPHONE R with no timing offset Clock adjustment: 120.7 ppm
* Measurement: KZ Krila UUUD R
* Smoothing: 1/48 octave
* Frequency Step: 1/96 octave
* Start Frequency: 20.000 Hz
*
* Freq(Hz) SPL(dB) Phase(degrees)
20.000000 95.396 4.7776
20.144928 95.388 4.5654
20.290907 95.381 4.3489
20.437943 95.375 4.1295
20.586044 95.369 3.9076
20.735220 95.365 3.6838
20.885475 95.360 3.4517
21.036821 95.356 3.2082
21.189262 95.352 2.9559
21.342808 95.347 2.6954
21.497467 95.341 2.4266
21.653246 95.333 2.1557
21.810154 95.324 1.8828
21.968201 95.313 1.6089
22.127390 95.301 1.3327
22.287735 95.287 1.0592
22.449242 95.272 0.7990
22.611917 95.256 0.5498
22.775772 95.240 0.3133
22.940815 95.224 0.0907
23.107054 95.209 -0.1260
23.274498 95.194 -0.3380
23.443153 95.181 -0.5476
23.613033 95.169 -0.7554
23.784142 95.158 -0.9654
23.956491 95.148 -1.1837
24.130091 95.138 -1.4081
24.304947 95.127 -1.6396
24.481071 95.115 -1.8757
24.658470 95.101 -2.1081
24.837156 95.086 -2.3376
25.017136 95.071 -2.5623
25.198421 95.054 -2.7818
25.381020 95.038 -2.9925
25.564941 95.022 -3.1951
25.750195 95.007 -3.3926
25.936790 94.992 -3.5860
26.124741 94.979 -3.7860
26.314051 94.966 -3.9912
26.504732 94.953 -4.2006
26.696796 94.940 -4.4137
26.890253 94.926 -4.6298
27.085112 94.911 -4.8478
27.281382 94.895 -5.0664
27.479073 94.878 -5.2823
27.678198 94.860 -5.4908
27.878765 94.843 -5.6955
28.080786 94.826 -5.8972
28.284271 94.809 -6.0982
28.489231 94.792 -6.2989
28.695675 94.775 -6.4986
28.903616 94.758 -6.6972
29.113064 94.741 -6.8958
29.324028 94.724 -7.0914
29.536524 94.707 -7.2813
29.750557 94.690 -7.4657
29.966141 94.673 -7.6446
30.183289 94.656 -7.8246
30.402010 94.640 -8.0061
30.622314 94.624 -8.1908
30.844217 94.608 -8.3809
31.067726 94.592 -8.5774
31.292856 94.575 -8.7785
31.519617 94.558 -8.9807
31.748020 94.540 -9.1783
31.978081 94.522 -9.3712
32.209808 94.504 -9.5598
32.443211 94.488 -9.7471
32.678310 94.472 -9.9384
32.915108 94.457 -10.1371
33.153625 94.441 -10.3506
33.393871 94.423 -10.5743
33.635857 94.403 -10.8050
33.879597 94.381 -11.0313
34.125103 94.357 -11.2469
34.372387 94.331 -11.4456
34.621464 94.306 -11.6201
34.872345 94.282 -11.7760
35.125042 94.261 -11.9185
35.379574 94.244 -12.0625
35.635948 94.230 -12.2173
35.894180 94.217 -12.3896
36.154285 94.204 -12.5852
36.416275 94.189 -12.7975
36.680161 94.170 -13.0196
36.945961 94.149 -13.2420
37.213688 94.124 -13.4560
37.483353 94.098 -13.6550
37.754974 94.070 -13.8356
38.028561 94.042 -13.9973
38.304131 94.014 -14.1429
38.581699 93.987 -14.2732
38.861279 93.962 -14.3903
39.142883 93.940 -14.4985
39.426529 93.920 -14.6062
39.712231 93.904 -14.7237
40.000000 93.889 -14.8610
40.289856 93.875 -15.0262
40.581814 93.859 -15.2189
40.875885 93.838 -15.4269
41.172089 93.813 -15.6353
41.470440 93.784 -15.8293
41.770950 93.752 -15.9986
42.073643 93.721 -16.1434
42.378525 93.692 -16.2761
42.685616 93.666 -16.4073
42.994934 93.640 -16.5423
43.306492 93.615 -16.6787
43.620308 93.590 -16.8083
43.936401 93.565 -16.9244
44.254780 93.544 -17.0342
44.575470 93.528 -17.1581
44.898483 93.514 -17.3182
45.223835 93.498 -17.5239
45.551544 93.477 -17.7616
45.881630 93.446 -17.9968
46.214108 93.407 -18.1889
46.548996 93.366 -18.3120
46.886307 93.330 -18.3717
47.226067 93.304 -18.4069
47.568283 93.286 -18.4641
47.912983 93.272 -18.5685
48.260181 93.254 -18.7116
48.609894 93.230 -18.8612
48.962143 93.203 -18.9885
49.316940 93.176 -19.0905
49.674313 93.154 -19.1902
50.034271 93.134 -19.3168
50.396843 93.112 -19.4800
50.762039 93.085 -19.6584
51.129883 93.052 -19.8169
51.500389 93.019 -19.9380
51.873581 92.991 -20.0412
52.249481 92.970 -20.1703
52.628101 92.950 -20.3530
53.009464 92.924 -20.5749
53.393593 92.891 -20.7882
53.780506 92.854 -20.9509
54.170223 92.822 -21.0643
54.562763 92.798 -21.1684
54.958145 92.779 -21.2986
55.356396 92.759 -21.4477
55.757530 92.736 -21.5758
56.161572 92.717 -21.6653
56.568542 92.705 -21.7569
56.978462 92.693 -21.9048
57.391350 92.666 -22.0827
57.807232 92.618 -22.1493
58.226128 92.569 -21.9596
58.648056 92.557 -21.5467
59.073048 92.606 -21.1861
59.501114 92.694 -21.2312
59.932281 92.759 -21.8044
60.366577 92.746 -22.6561
60.804020 92.651 -23.3394
61.244629 92.517 -23.5527
61.688435 92.405 -23.3441
62.135452 92.345 -23.0390
62.585712 92.317 -22.9129
63.039234 92.285 -22.9728
63.496040 92.236 -23.0648
63.956161 92.185 -23.0896
64.419617 92.145 -23.0986
64.886421 92.114 -23.1793
65.356621 92.080 -23.3295
65.830215 92.039 -23.4712
66.307251 91.999 -23.5586
66.787743 91.969 -23.6234
67.271713 91.946 -23.7188
67.759193 91.922 -23.8514
68.250206 91.891 -23.9804
68.744774 91.854 -24.0558
69.242928 91.818 -24.0498
69.744690 91.790 -23.9767
70.250084 91.776 -23.9011
70.759148 91.772 -23.9033
71.271896 91.764 -24.0097
71.788361 91.740 -24.1678
72.308571 91.701 -24.3018
72.832550 91.656 -24.3808
73.360321 91.612 -24.4257
73.891922 91.571 -24.4682
74.427376 91.534 -24.5340
74.966705 91.495 -24.6354
75.509949 91.451 -24.7570
76.057121 91.401 -24.8553
76.608261 91.352 -24.8995
77.163399 91.311 -24.9086
77.722557 91.276 -24.9181
78.285767 91.245 -24.9319
78.853058 91.220 -24.9490
79.424461 91.201 -25.0017
80.000000 91.180 -25.1182
80.579712 91.148 -25.2577
81.163628 91.106 -25.3472
81.751770 91.066 -25.3694
82.344177 91.032 -25.3663
82.940880 91.002 -25.3801
83.541901 90.972 -25.4177
84.147285 90.940 -25.4638
84.757050 90.906 -25.4895
85.371231 90.876 -25.4894
85.989868 90.854 -25.5109
86.612984 90.829 -25.5960
87.240616 90.793 -25.6892
87.872803 90.751 -25.7074
88.509560 90.716 -25.6692
89.150940 90.689 -25.6485
89.796967 90.661 -25.6496
90.447670 90.633 -25.6545
91.103088 90.605 -25.6962
91.763260 90.567 -25.7579
92.428215 90.522 -25.7536
93.097992 90.486 -25.6901
93.772614 90.457 -25.6730
94.452133 90.422 -25.7080
95.136566 90.378 -25.6936
95.825966 90.339 -25.6224
96.520363 90.310 -25.5716
97.219788 90.282 -25.5711
97.924286 90.248 -25.5952
98.633881 90.208 -25.5955
99.348625 90.166 -25.5238
100.068542 90.136 -25.4045
100.793686 90.117 -25.3259
101.524078 90.096 -25.3151
102.259766 90.067 -25.3208
103.000778 90.035 -25.3140
103.747162 90.002 -25.3116
104.498962 89.966 -25.3292
105.256203 89.925 -25.3510
106.018929 89.883 -25.3545
106.787186 89.847 -25.3648
107.561012 89.812 -25.4219
108.340446 89.771 -25.4876
109.125526 89.729 -25.4904
109.916290 89.694 -25.4427
110.712791 89.665 -25.3805
111.515060 89.639 -25.2847
112.323143 89.620 -25.1894
113.137085 89.600 -25.1518
113.956924 89.573 -25.1489
114.782700 89.539 -25.2046
115.614464 89.488 -25.3107
116.452255 89.422 -25.3291
117.296112 89.372 -25.2434
118.146095 89.353 -25.2003
119.002228 89.352 -25.4057
119.864563 89.311 -25.7819
120.733154 89.228 -25.7904
121.608040 89.189 -25.3797
122.489258 89.198 -25.0666
123.376869 89.195 -24.8743
124.270905 89.182 -24.6451
125.171425 89.163 -24.4428
126.078468 89.134 -24.2755
126.992081 89.096 -24.1688
127.912323 89.047 -24.1004
128.839233 88.996 -24.0204
129.772842 88.953 -23.9252
130.713242 88.924 -23.8251
131.660431 88.910 -23.7842
132.614502 88.895 -23.7948
133.575485 88.874 -23.7999
134.543427 88.846 -23.7968
135.518387 88.810 -23.7511
136.500412 88.775 -23.6590
137.489548 88.744 -23.5903
138.485855 88.710 -23.5192
139.489380 88.684 -23.4256
140.500168 88.661 -23.3558
141.518295 88.636 -23.2604
142.543793 88.614 -23.1176
143.576721 88.590 -22.9825
144.617142 88.558 -22.8293
145.665100 88.526 -22.6565
146.720642 88.499 -22.5275
147.783844 88.475 -22.4568
148.854752 88.455 -22.4379
149.933411 88.436 -22.4414
151.019897 88.414 -22.4383
152.114243 88.385 -22.3870
153.216522 88.347 -22.2204
154.326797 88.313 -21.9615
155.445114 88.285 -21.7303
156.571533 88.256 -21.5831
157.706116 88.221 -21.5111
158.848923 88.183 -21.4467
160.000000 88.155 -21.3450
161.159424 88.140 -21.2341
162.327255 88.134 -21.1369
163.503540 88.123 -21.0794
164.688354 88.100 -21.0094
165.881760 88.070 -20.9501
167.083801 88.030 -20.9010
168.294571 87.992 -20.8272
169.514099 87.962 -20.7225
170.742462 87.946 -20.6046
171.979736 87.931 -20.4967
173.225967 87.904 -20.3571
174.481232 87.864 -20.1287
175.745605 87.828 -19.8485
177.019119 87.801 -19.6704
178.301880 87.771 -19.6346
179.593933 87.736 -19.6091
180.895340 87.705 -19.5245
182.206177 87.681 -19.3540
183.526520 87.666 -19.1075
184.856430 87.654 -18.9064
186.195984 87.626 -18.7961
187.545227 87.584 -18.6950
188.904266 87.548 -18.6082
190.273132 87.524 -18.6059
191.651932 87.497 -18.6307
193.040726 87.470 -18.5197
194.439575 87.456 -18.3034
195.848572 87.444 -18.0553
197.267761 87.432 -17.7971
198.697250 87.415 -17.5855
200.137085 87.389 -17.4487
201.587372 87.350 -17.3352
203.048157 87.308 -17.1792
204.519531 87.279 -17.0280
206.001556 87.257 -16.9640
207.494324 87.230 -16.9304
208.997925 87.205 -16.8327
210.512405 87.189 -16.6782
212.037857 87.178 -16.4885
213.574371 87.164 -16.2764
215.122025 87.145 -16.0534
216.680893 87.120 -15.8740
218.251053 87.088 -15.7471
219.832581 87.059 -15.6264
221.425583 87.041 -15.5018
223.030121 87.029 -15.3538
224.646286 87.017 -15.1565
226.274170 86.999 -14.9305
227.913849 86.975 -14.7072
229.565399 86.946 -14.5073
231.228928 86.921 -14.3158
232.904510 86.904 -14.1457
234.592224 86.895 -13.9571
236.292191 86.898 -13.7630
238.004456 86.905 -13.6046
239.729126 86.906 -13.4949
241.466309 86.881 -13.4239
243.216080 86.833 -13.2447
244.978516 86.790 -13.0196
246.753738 86.761 -12.8670
248.541809 86.745 -12.7893
250.342850 86.732 -12.7265
252.156937 86.714 -12.5776
253.984161 86.695 -12.3883
255.824646 86.668 -12.2315
257.678467 86.640 -12.0222
259.545685 86.635 -11.7762
261.426483 86.636 -11.5929
263.320862 86.617 -11.3885
265.229004 86.586 -11.1262
267.150970 86.557 -10.9110
269.086853 86.535 -10.7548
271.036774 86.521 -10.5640
273.000824 86.513 -10.3155
274.979095 86.501 -10.0523
276.971710 86.483 -9.8383
278.978760 86.463 -9.6701
281.000336 86.449 -9.5046
283.036591 86.439 -9.3333
285.087585 86.427 -9.1639
287.153442 86.411 -9.0129
289.234283 86.397 -8.8658
291.330200 86.384 -8.7014
293.441284 86.369 -8.5030
295.567688 86.355 -8.3120
297.709503 86.352 -8.1879
299.866821 86.354 -8.1252
302.039795 86.343 -8.0077
304.228485 86.318 -7.7381
306.433044 86.293 -7.4096
308.653595 86.279 -7.1156
310.890228 86.278 -6.8668
313.143066 86.279 -6.6619
315.412231 86.265 -6.4759
317.697845 86.244 -6.2829
320.000000 86.229 -6.1164
322.318848 86.215 -5.9119
324.654510 86.204 -5.6079
327.007080 86.198 -5.2885
329.376709 86.195 -5.0718
331.763519 86.185 -4.9460
334.167603 86.166 -4.7707
336.589142 86.148 -4.5400
339.028198 86.131 -4.3348
341.484924 86.119 -4.1248
343.959473 86.116 -3.8721
346.451935 86.111 -3.6045
348.962463 86.098 -3.3713
351.491211 86.089 -3.2311
354.038239 86.095 -3.1464
356.603760 86.114 -2.9879
359.187866 86.132 -2.7458
361.790680 86.126 -2.5163
364.412354 86.094 -2.2846
367.053040 86.061 -2.0111
369.712860 86.037 -1.7335
372.391968 86.020 -1.5077
375.090454 86.010 -1.3466
377.808533 86.003 -1.1889
380.546265 85.994 -1.0177
383.303864 85.983 -0.8573
386.081451 85.980 -0.6254
388.879150 85.978 -0.2698
391.697144 85.969 0.1203
394.535522 85.954 0.3545
397.394501 85.937 0.4521
400.274170 85.922 0.5480
403.174744 85.910 0.6875
406.096313 85.916 0.8862
409.039062 85.930 1.1594
412.003113 85.925 1.4726
414.988647 85.904 1.7422
417.995850 85.901 1.9665
421.024811 85.913 2.1659
424.075714 85.903 2.3447
427.148743 85.874 2.5376
430.244049 85.852 2.7865
433.361786 85.845 3.0877
436.502106 85.840 3.3636
439.665161 85.835 3.6259
442.851166 85.830 3.9197
446.060242 85.828 4.1978
449.292572 85.827 4.3906
452.548340 85.821 4.5741
455.827698 85.805 4.8338
459.130798 85.786 5.1260
462.457855 85.770 5.3622
465.809021 85.756 5.5529
469.184448 85.742 5.7632
472.584381 85.737 6.0328
476.008911 85.743 6.3257
479.458252 85.745 6.6476
482.932617 85.743 6.9383
486.432159 85.739 7.1809
489.957031 85.741 7.4071
493.507477 85.745 7.6060
497.083618 85.744 7.8371
500.685699 85.735 8.1107
504.313873 85.724 8.3653
507.968323 85.721 8.6150
511.649292 85.718 8.9099
515.356934 85.711 9.1825
519.091370 85.712 9.3950
522.852966 85.711 9.6321
526.641724 85.706 9.9529
530.458008 85.708 10.2840
534.301941 85.713 10.5454
538.173706 85.711 10.7195
542.073547 85.699 10.9434
546.001648 85.700 11.2843
549.958191 85.710 11.6447
553.943420 85.715 11.9838
557.957520 85.724 12.1988
562.000671 85.728 12.3490
566.073181 85.722 12.5861
570.175171 85.714 12.8762
574.306885 85.710 13.1312
578.468567 85.710 13.4204
582.660400 85.718 13.8104
586.882568 85.732 14.2441
591.135376 85.742 14.5825
595.419006 85.753 14.7874
599.733643 85.771 14.9367
604.079590 85.794 15.1510
608.456970 85.802 15.4991
612.866089 85.793 15.8831
617.307190 85.783 16.2023
621.780457 85.783 16.4779
626.286133 85.801 16.7264
630.824463 85.818 16.9372
635.395691 85.824 17.1779
640.000000 85.825 17.4683
644.637695 85.833 17.7137
649.309021 85.849 17.8609
654.014160 85.870 17.9810
658.753418 85.896 18.1544
663.527039 85.927 18.2516
668.335205 85.962 18.1610
673.178284 85.983 17.9592
678.056396 85.985 17.6182
682.969849 85.954 17.0253
687.918945 85.851 16.2860
692.903870 85.654 15.8738
697.924927 85.384 16.2958
702.982422 85.130 17.6474
708.076477 84.995 19.5179
713.207520 84.994 21.3429
718.375732 85.058 22.7223
723.581360 85.138 23.6482
728.824707 85.217 24.4273
734.106079 85.281 25.1292
739.425720 85.332 25.7022
744.783936 85.383 26.1427
750.180908 85.443 26.5580
755.617065 85.495 27.0070
761.092529 85.534 27.4460
766.607727 85.560 27.8243
772.162903 85.573 28.1937
777.758301 85.591 28.6736
783.394287 85.617 29.1825
789.071045 85.644 29.5521
794.789001 85.679 29.8939
800.548340 85.711 30.2883
806.349487 85.732 30.6776
812.192627 85.755 31.0701
818.078125 85.781 31.5129
824.006226 85.807 32.0140
829.977295 85.831 32.4897
835.991699 85.854 32.9077
842.049622 85.886 33.2552
848.151428 85.926 33.5946
854.297485 85.964 34.0050
860.488098 85.995 34.5176
866.723572 86.018 34.9838
873.004211 86.041 35.3952
879.330322 86.070 35.8012
885.702332 86.102 36.1940
892.120483 86.136 36.5752
898.585144 86.167 37.0610
905.096680 86.205 37.5852
911.655396 86.254 37.9903
918.261597 86.296 38.3291
924.915710 86.328 38.7333
931.618042 86.364 39.2196
938.368896 86.410 39.6798
945.168762 86.450 40.0289
952.017822 86.488 40.3507
958.916504 86.533 40.7224
965.865234 86.578 41.1055
972.864319 86.629 41.4805
979.914062 86.686 41.8698
987.014954 86.729 42.3111
994.167236 86.760 42.7518
1001.371399 86.799 43.1411
1008.627747 86.852 43.5051
1015.936646 86.908 43.8398
1023.298584 86.960 44.1506
1030.713867 87.001 44.4864
1038.182739 87.046 44.8565
1045.705933 87.101 45.2189
1053.283447 87.152 45.5166
1060.916016 87.194 45.7966
1068.603882 87.237 46.1153
1076.347412 87.289 46.4652
1084.147095 87.345 46.7636
1092.003296 87.408 47.0021
1099.916382 87.471 47.2338
1107.886841 87.533 47.4885
1115.915039 87.593 47.7456
1124.001343 87.653 48.0083
1132.146362 87.714 48.2530
1140.350342 87.769 48.4472
1148.613770 87.830 48.6509
1156.937134 87.890 48.9051
1165.320801 87.946 49.1373
1173.765137 88.005 49.3260
1182.270752 88.066 49.5656
1190.838013 88.128 49.8729
1199.467285 88.194 50.1742
1208.159180 88.254 50.4019
1216.913940 88.309 50.5455
1225.732178 88.367 50.6947
1234.614380 88.428 50.8845
1243.560913 88.486 51.1110
1252.572266 88.546 51.3385
1261.648926 88.607 51.5456
1270.791382 88.667 51.7177
1280.000000 88.723 51.8583
1289.275391 88.782 52.0043
1298.618042 88.846 52.2015
1308.028320 88.905 52.4184
1317.506836 88.962 52.6395
1327.054077 89.015 52.8687
1336.670410 89.067 53.0634
1346.356567 89.119 53.2104
1356.112793 89.161 53.3387
1365.939697 89.194 53.4956
1375.837891 89.236 53.6820
1385.807739 89.284 53.9046
1395.849854 89.332 54.1157
1405.964844 89.380 54.2981
1416.152954 89.433 54.4966
1426.415039 89.486 54.6979
1436.751465 89.535 54.8756
1447.162720 89.588 55.0543
1457.649414 89.641 55.2753
1468.212158 89.687 55.4860
1478.851440 89.735 55.6844
1489.567871 89.784 55.8880
1500.361816 89.834 56.1031
1511.234131 89.884 56.3334
1522.185059 89.935 56.5440
1533.215454 89.988 56.7310
1544.325806 90.043 56.9372
1555.516602 90.092 57.1433
1566.788574 90.136 57.3321
1578.142090 90.176 57.5218
1589.578003 90.222 57.6991
1601.096680 90.271 57.8790
1612.698975 90.319 58.1300
1624.385254 90.367 58.3991
1636.156250 90.421 58.6593
1648.012451 90.470 58.9210
1659.954590 90.515 59.1452
1671.983398 90.563 59.3594
1684.099243 90.611 59.5853
1696.302856 90.662 59.8173
1708.594971 90.713 60.0496
1720.976196 90.763 60.2671
1733.447144 90.817 60.4816
1746.008423 90.871 60.7210
1758.660645 90.922 60.9812
1771.404663 90.972 61.2267
1784.240967 91.020 61.4781
1797.170288 91.071 61.7450
1810.193359 91.129 62.0413
1823.310791 91.191 62.3409
1836.523193 91.254 62.6228
1849.831421 91.320 62.9206
1863.236084 91.395 63.2182
1876.737793 91.474 63.4912
1890.337524 91.554 63.7356
1904.035645 91.632 63.9193
1917.833008 91.708 64.0433
1931.730469 91.782 64.1437
1945.728638 91.855 64.2553
1959.828125 91.925 64.3644
1974.029907 91.988 64.4449
1988.334473 92.049 64.5181
2002.742798 92.116 64.6307
2017.255493 92.183 64.7527
2031.873291 92.247 64.8546
2046.597168 92.309 64.9423
2061.427734 92.368 65.0426
2076.365479 92.428 65.1469
2091.411865 92.489 65.2660
2106.566895 92.552 65.3938
2121.832031 92.613 65.5041
2137.207764 92.672 65.6101
2152.694824 92.732 65.7268
2168.294189 92.796 65.8556
2184.006592 92.865 65.9748
2199.832764 92.935 66.1110
2215.773682 93.006 66.2524
2231.830078 93.078 66.3457
2248.002686 93.152 66.3763
2264.292725 93.227 66.3892
2280.700684 93.300 66.3942
2297.227539 93.368 66.3910
2313.874268 93.436 66.3654
2330.641602 93.503 66.3075
2347.530273 93.566 66.2616
2364.541504 93.627 66.2156
2381.676025 93.688 66.1457
2398.934570 93.747 66.0846
2416.318359 93.803 66.0378
2433.827881 93.859 65.9801
2451.464355 93.911 65.9180
2469.228760 93.959 65.8513
2487.121826 94.006 65.7819
2505.144531 94.054 65.7185
2523.297852 94.103 65.6626
2541.582764 94.150 65.5943
2560.000000 94.196 65.5063
2578.550781 94.240 65.4379
2597.236084 94.282 65.3794
2616.056641 94.321 65.3090
2635.013672 94.358 65.2462
2654.108154 94.394 65.1870
2673.340820 94.428 65.1179
2692.713135 94.458 65.0693
2712.225586 94.487 65.0505
2731.879395 94.518 65.0646
2751.675781 94.545 65.0887
2771.615479 94.571 65.1139
2791.699707 94.600 65.1735
2811.929688 94.633 65.2783
2832.305908 94.675 65.4087
2852.830078 94.722 65.5467
2873.502930 94.778 65.6681
2894.325439 94.843 65.7389
2915.298828 94.917 65.7558
2936.424316 94.994 65.7072
2957.702881 95.069 65.5636
2979.135742 95.137 65.3432
3000.723633 95.196 65.0792
3022.468262 95.246 64.7830
3044.370117 95.288 64.4856
3066.430908 95.322 64.2056
3088.651611 95.346 63.9393
3111.033203 95.366 63.7001
3133.577148 95.384 63.4913
3156.284180 95.400 63.3112
3179.156006 95.416 63.1585
3202.193359 95.435 63.0434
3225.397949 95.456 62.9546
3248.770508 95.480 62.8621
3272.312500 95.509 62.7617
3296.024902 95.543 62.6469
3319.909180 95.579 62.4999
3343.966797 95.616 62.3111
3368.198486 95.650 62.1089
3392.605713 95.682 61.8831
3417.189941 95.714 61.6148
3441.952393 95.748 61.3375
3466.894287 95.782 61.0588
3492.016846 95.817 60.7565
3517.321289 95.852 60.4206
3542.809326 95.885 60.0457
3568.481934 95.914 59.6365
3594.340576 95.938 59.2108
3620.386719 95.956 58.7641
3646.621582 95.968 58.2921
3673.046387 95.972 57.8015
3699.662842 95.970 57.2994
3726.472168 95.960 56.8008
3753.475586 95.944 56.3128
3780.675049 95.925 55.8179
3808.071289 95.903 55.3275
3835.666016 95.872 54.8543
3863.460938 95.835 54.3900
3891.457275 95.793 53.9267
3919.656250 95.746 53.4681
3948.059814 95.692 53.0251
