* Measurement data measured by REW V5.20.13
* Source: Microphone (Realtek(R) Audio), MICROPHONE (Master Volume), L, volume: 0.710. Timing signal peak level -37.3 dBFS, measurement signal peak level -37.4 dBFS
* Format: 2M Log Swept Sine, 1 sweep at -12.0 dBFS using an acoustic timing reference
* Dated: Sep 7, 2023 4:09:19 PM
* REW Settings:
*  C-weighting compensation: Off
*  Target level: 75.0 dB
* Note: ; Delay -0.0541 ms (-19 mm, -0.73 in) using estimated IR delay relative to Acoustic reference played from HEADPHONE R with no timing offset Clock adjustment: 120.7 ppm
* Measurement: KZ Krila UUUU R
* Smoothing: 1/48 octave
* Frequency Step: 1/96 octave
* Start Frequency: 20.000 Hz
*
* Freq(Hz) SPL(dB) Phase(degrees)
20.000000 95.406 4.7267
20.144928 95.396 4.4744
20.290907 95.385 4.2217
20.437943 95.373 3.9719
20.586044 95.361 3.7335
20.735220 95.347 3.5056
20.885475 95.334 3.2852
21.036821 95.322 3.0723
21.189262 95.309 2.8661
21.342808 95.298 2.6650
21.497467 95.288 2.4695
21.653246 95.279 2.2728
21.810154 95.273 2.0772
21.968201 95.267 1.8725
22.127390 95.262 1.6503
22.287735 95.258 1.4155
22.449242 95.254 1.1700
22.611917 95.248 0.9134
22.775772 95.241 0.6512
22.940815 95.232 0.3823
23.107054 95.221 0.1129
23.274498 95.208 -0.1579
23.443153 95.193 -0.4218
23.613033 95.178 -0.6723
23.784142 95.161 -0.9128
23.956491 95.146 -1.1435
24.130091 95.131 -1.3665
24.304947 95.117 -1.5870
24.481071 95.104 -1.8048
24.658470 95.091 -2.0237
24.837156 95.079 -2.2442
25.017136 95.067 -2.4734
25.198421 95.054 -2.7095
25.381020 95.040 -2.9470
25.564941 95.024 -3.1855
25.750195 95.008 -3.4162
25.936790 94.990 -3.6398
26.124741 94.971 -3.8550
26.314051 94.953 -4.0612
26.504732 94.935 -4.2535
26.696796 94.917 -4.4346
26.890253 94.902 -4.6095
27.085112 94.888 -4.7815
27.281382 94.876 -4.9592
27.479073 94.865 -5.1429
27.678198 94.855 -5.3343
27.878765 94.845 -5.5369
28.080786 94.835 -5.7532
28.284271 94.824 -5.9802
28.489231 94.812 -6.2176
28.695675 94.798 -6.4574
28.903616 94.782 -6.6985
29.113064 94.764 -6.9367
29.324028 94.744 -7.1679
29.536524 94.724 -7.3872
29.750557 94.703 -7.5935
29.966141 94.682 -7.7860
30.183289 94.660 -7.9707
30.402010 94.640 -8.1490
30.622314 94.621 -8.3235
30.844217 94.603 -8.5005
31.067726 94.586 -8.6828
31.292856 94.570 -8.8745
31.519617 94.553 -9.0727
31.748020 94.536 -9.2745
31.978081 94.517 -9.4757
32.209808 94.498 -9.6743
32.443211 94.478 -9.8656
32.678310 94.458 -10.0491
32.915108 94.438 -10.2244
33.153625 94.419 -10.3970
33.393871 94.400 -10.5676
33.635857 94.382 -10.7374
33.879597 94.365 -10.9091
34.125103 94.349 -11.0845
34.372387 94.333 -11.2652
34.621464 94.316 -11.4487
34.872345 94.299 -11.6354
35.125042 94.282 -11.8256
35.379574 94.263 -12.0189
35.635948 94.243 -12.2130
35.894180 94.222 -12.4061
36.154285 94.199 -12.5965
36.416275 94.175 -12.7814
36.680161 94.150 -12.9600
36.945961 94.125 -13.1323
37.213688 94.099 -13.3028
37.483353 94.074 -13.4720
37.754974 94.049 -13.6404
38.028561 94.023 -13.8083
38.304131 93.996 -13.9736
38.581699 93.969 -14.1322
38.861279 93.942 -14.2816
39.142883 93.916 -14.4215
39.426529 93.893 -14.5569
39.712231 93.872 -14.6957
40.000000 93.854 -14.8467
40.289856 93.837 -15.0187
40.581814 93.819 -15.2148
40.875885 93.799 -15.4289
41.172089 93.775 -15.6492
41.470440 93.746 -15.8596
41.770950 93.713 -16.0423
42.073643 93.679 -16.1837
42.378525 93.648 -16.2833
42.685616 93.623 -16.3552
42.994934 93.605 -16.4247
43.306492 93.594 -16.5199
43.620308 93.586 -16.6626
43.936401 93.574 -16.8582
44.254780 93.556 -17.0881
44.575470 93.527 -17.3142
44.898483 93.491 -17.5002
45.223835 93.453 -17.6266
45.551544 93.418 -17.6976
45.881630 93.391 -17.7394
46.214108 93.372 -17.7889
46.548996 93.359 -17.8746
46.886307 93.347 -18.0034
47.226067 93.334 -18.1636
47.568283 93.319 -18.3373
47.912983 93.304 -18.5175
48.260181 93.290 -18.7130
48.609894 93.274 -18.9369
48.962143 93.255 -19.1918
49.316940 93.228 -19.4592
49.674313 93.192 -19.7013
50.034271 93.150 -19.8810
50.396843 93.109 -19.9841
50.762039 93.075 -20.0311
51.129883 93.050 -20.0667
51.500389 93.030 -20.1325
51.873581 93.010 -20.2387
52.249481 92.983 -20.3603
52.628101 92.951 -20.4582
53.009464 92.919 -20.5181
53.393593 92.891 -20.5701
53.780506 92.867 -20.6632
54.170223 92.839 -20.8176
54.562763 92.800 -20.9977
54.958145 92.751 -21.1405
55.356396 92.705 -21.2214
55.757530 92.670 -21.2910
56.161572 92.643 -21.4353
56.568542 92.612 -21.6774
56.978462 92.565 -21.9271
57.391350 92.514 -22.0624
57.807232 92.486 -22.0875
58.226128 92.494 -22.1982
58.648056 92.519 -22.6254
59.073048 92.508 -23.3860
59.501114 92.422 -24.1661
59.932281 92.274 -24.5015
60.366577 92.135 -24.1664
60.804020 92.081 -23.4236
61.244629 92.125 -22.8181
61.688435 92.205 -22.7214
62.135452 92.248 -23.0371
62.585712 92.233 -23.3725
63.039234 92.191 -23.4577
63.496040 92.164 -23.3469
63.956161 92.161 -23.2779
64.419617 92.155 -23.3733
64.886421 92.125 -23.5331
65.356621 92.075 -23.6033
65.830215 92.028 -23.5520
66.307251 91.997 -23.4901
66.787743 91.975 -23.5249
67.271713 91.949 -23.6665
67.759193 91.910 -23.8434
68.250206 91.862 -23.9881
68.744774 91.813 -24.0786
69.242928 91.770 -24.1306
69.744690 91.734 -24.1661
70.250084 91.705 -24.1998
70.759148 91.683 -24.2432
71.271896 91.666 -24.3117
71.788361 91.647 -24.4149
72.308571 91.623 -24.5359
72.832550 91.592 -24.6398
73.360321 91.560 -24.7067
73.891922 91.531 -24.7534
74.427376 91.506 -24.8239
74.966705 91.482 -24.9614
75.509949 91.446 -25.1731
76.057121 91.387 -25.3811
76.608261 91.311 -25.4279
77.163399 91.246 -25.2430
77.722557 91.220 -24.9812
78.285767 91.225 -24.8804
78.853058 91.225 -24.9927
79.424461 91.202 -25.1423
80.000000 91.172 -25.1886
80.579712 91.152 -25.2086
81.163628 91.135 -25.3156
81.751770 91.101 -25.4626
82.344177 91.052 -25.5409
82.940880 91.002 -25.5372
83.541901 90.956 -25.5091
84.147285 90.912 -25.4776
84.757050 90.870 -25.4310
85.371231 90.834 -25.3812
85.989868 90.805 -25.3575
86.612984 90.779 -25.3778
87.240616 90.752 -25.4320
87.872803 90.723 -25.4859
88.509560 90.697 -25.5213
89.150940 90.678 -25.5765
89.796967 90.658 -25.6900
90.447670 90.624 -25.8259
91.103088 90.578 -25.8878
91.763260 90.532 -25.8324
92.428215 90.499 -25.7262
93.097992 90.477 -25.6661
93.772614 90.451 -25.6637
94.452133 90.421 -25.6609
95.136566 90.393 -25.6583
95.825966 90.366 -25.7112
96.520363 90.328 -25.7974
97.219788 90.282 -25.8307
97.924286 90.240 -25.7966
98.633881 90.204 -25.7480
99.348625 90.170 -25.6984
100.068542 90.140 -25.6405
100.793686 90.113 -25.6146
101.524078 90.080 -25.6330
102.259766 90.039 -25.6226
103.000778 90.005 -25.5798
103.747162 89.974 -25.6010
104.498962 89.933 -25.6498
105.256203 89.891 -25.6015
106.018929 89.870 -25.5418
106.787186 89.852 -25.6070
107.561012 89.815 -25.6708
108.340446 89.775 -25.6001
109.125526 89.744 -25.4727
109.916290 89.713 -25.3319
110.712791 89.683 -25.1601
111.515060 89.659 -25.0256
112.323143 89.633 -24.9986
113.137085 89.595 -25.0908
113.956924 89.540 -25.2429
114.782700 89.477 -25.3745
115.614464 89.415 -25.4949
116.452255 89.352 -25.5619
117.296112 89.299 -25.4146
118.146095 89.298 -25.0411
119.002228 89.370 -24.8364
119.864563 89.436 -25.2108
120.733154 89.393 -25.6805
121.608040 89.300 -25.5045
122.489258 89.255 -25.0230
123.376869 89.226 -24.7391
124.270905 89.179 -24.5505
125.171425 89.124 -24.4044
126.078468 89.068 -24.2591
126.992081 89.036 -24.1761
127.912323 89.009 -24.2960
128.839233 88.967 -24.4333
129.772842 88.927 -24.4283
130.713242 88.904 -24.3363
131.660431 88.893 -24.2421
132.614502 88.879 -24.1802
133.575485 88.852 -24.0813
134.543427 88.820 -23.9426
135.518387 88.785 -23.8118
136.500412 88.746 -23.6595
137.489548 88.714 -23.5170
138.485855 88.687 -23.4367
139.489380 88.658 -23.4059
140.500168 88.629 -23.4081
141.518295 88.596 -23.4111
142.543793 88.563 -23.3879
143.576721 88.529 -23.2921
144.617142 88.509 -23.1285
145.665100 88.501 -23.0235
146.720642 88.484 -22.9759
147.783844 88.456 -22.8720
148.854752 88.432 -22.7067
149.933411 88.411 -22.5740
151.019897 88.381 -22.4620
152.114243 88.349 -22.3046
153.216522 88.322 -22.1572
154.326797 88.296 -22.0513
155.445114 88.270 -21.9762
156.571533 88.244 -21.9062
157.706116 88.227 -21.8523
158.848923 88.213 -21.8976
160.000000 88.178 -21.9924
161.159424 88.124 -21.8781
162.327255 88.092 -21.5895
163.503540 88.080 -21.3445
164.688354 88.066 -21.2224
165.881760 88.033 -21.1417
167.083801 87.997 -20.9901
168.294571 87.974 -20.8721
169.514099 87.951 -20.8482
170.742462 87.916 -20.8209
171.979736 87.877 -20.6930
173.225967 87.843 -20.4945
174.481232 87.813 -20.2701
175.745605 87.788 -20.0876
177.019119 87.764 -20.0062
178.301880 87.732 -20.0089
179.593933 87.689 -19.9926
180.895340 87.649 -19.8583
182.206177 87.628 -19.6687
183.526520 87.617 -19.5057
184.856430 87.606 -19.3909
186.195984 87.585 -19.3117
187.545227 87.557 -19.2187
188.904266 87.531 -19.1470
190.273132 87.503 -19.0856
191.651932 87.477 -18.9636
193.040726 87.458 -18.7604
194.439575 87.448 -18.5402
195.848572 87.429 -18.3686
197.267761 87.392 -18.1585
198.697250 87.361 -17.9159
200.137085 87.338 -17.8156
201.587372 87.304 -17.7641
203.048157 87.279 -17.6285
204.519531 87.267 -17.4509
206.001556 87.257 -17.2566
207.494324 87.242 -17.0508
208.997925 87.217 -16.8489
210.512405 87.187 -16.6623
212.037857 87.158 -16.5073
213.574371 87.135 -16.3594
215.122025 87.116 -16.2222
216.680893 87.097 -16.0582
218.251053 87.080 -15.8976
219.832581 87.056 -15.7959
221.425583 87.022 -15.6460
223.030121 87.000 -15.4081
224.646286 86.993 -15.2175
226.274170 86.974 -15.0887
227.913849 86.941 -14.9203
229.565399 86.904 -14.6991
231.228928 86.882 -14.4625
232.904510 86.878 -14.2990
234.592224 86.874 -14.1885
236.292191 86.857 -14.0837
238.004456 86.809 -13.9322
239.729126 86.751 -13.6276
241.466309 86.729 -13.3594
243.216080 86.726 -13.3794
244.978516 86.708 -13.4227
246.753738 86.691 -13.2658
248.541809 86.685 -13.0231
250.342850 86.677 -12.8210
252.156937 86.663 -12.6858
253.984161 86.644 -12.5522
255.824646 86.628 -12.3725
257.678467 86.611 -12.1652
259.545685 86.592 -11.9283
261.426483 86.575 -11.7281
263.320862 86.559 -11.5807
265.229004 86.541 -11.4459
267.150970 86.519 -11.3003
269.086853 86.499 -11.1201
271.036774 86.492 -10.9570
273.000824 86.489 -10.8406
274.979095 86.479 -10.6713
276.971710 86.472 -10.4221
278.978760 86.464 -10.1935
281.000336 86.451 -9.9867
283.036591 86.432 -9.8061
285.087585 86.407 -9.6266
287.153442 86.385 -9.4681
289.234283 86.363 -9.3069
291.330200 86.344 -9.0441
293.441284 86.337 -8.7202
295.567688 86.331 -8.4935
297.709503 86.320 -8.3618
299.866821 86.312 -8.2493
302.039795 86.304 -8.0632
304.228485 86.297 -7.7493
306.433044 86.284 -7.4968
308.653595 86.255 -7.3213
310.890228 86.233 -7.1421
313.143066 86.228 -6.9836
315.412231 86.224 -6.8129
317.697845 86.220 -6.6045
320.000000 86.214 -6.4401
322.318848 86.197 -6.2856
324.654510 86.174 -6.0503
327.007080 86.157 -5.7623
329.376709 86.147 -5.4909
331.763519 86.136 -5.2742
334.167603 86.112 -5.0869
336.589142 86.087 -4.8917
339.028198 86.079 -4.7228
341.484924 86.086 -4.5837
343.959473 86.091 -4.4113
346.451935 86.080 -4.2008
348.962463 86.057 -3.9508
351.491211 86.038 -3.6735
354.038239 86.018 -3.3927
356.603760 85.989 -3.1647
359.187866 85.955 -3.0052
361.790680 85.941 -2.7846
364.412354 85.956 -2.5292
367.053040 85.968 -2.2933
369.712860 85.966 -2.0501
372.391968 85.956 -1.7940
375.090454 85.940 -1.5458
377.808533 85.929 -1.3521
380.546265 85.927 -1.2574
383.303864 85.923 -1.1616
386.081451 85.911 -0.9587
388.879150 85.894 -0.6627
391.697144 85.880 -0.3778
394.535522 85.874 -0.1413
397.394501 85.879 0.1388
400.274170 85.889 0.4071
403.174744 85.884 0.5331
406.096313 85.860 0.6478
409.039062 85.840 0.9367
412.003113 85.833 1.2802
414.988647 85.831 1.5242
417.995850 85.842 1.7703
421.024811 85.854 2.0157
424.075714 85.833 2.2138
427.148743 85.806 2.4491
430.244049 85.799 2.7016
433.361786 85.798 2.9388
436.502106 85.791 3.1721
439.665161 85.782 3.4236
442.851166 85.772 3.6395
446.060242 85.763 3.8319
449.292572 85.757 4.0615
452.548340 85.753 4.3458
455.827698 85.753 4.6129
459.130798 85.744 4.8664
462.457855 85.725 5.1657
465.809021 85.716 5.4241
469.184448 85.721 5.5842
472.584381 85.727 5.7551
476.008911 85.723 5.9866
479.458252 85.712 6.2039
482.932617 85.698 6.4535
486.432159 85.682 6.8108
489.957031 85.667 7.1138
493.507477 85.654 7.3736
497.083618 85.653 7.6625
500.685699 85.656 7.9087
504.313873 85.658 8.1208
507.968323 85.662 8.3939
511.649292 85.667 8.6659
515.356934 85.667 8.8998
519.091370 85.666 9.1524
522.852966 85.662 9.4005
526.641724 85.656 9.6200
530.458008 85.653 9.8810
534.301941 85.657 10.1898
538.173706 85.657 10.4460
542.073547 85.655 10.6640
546.001648 85.660 10.9439
549.958191 85.662 11.2672
553.943420 85.654 11.6141
557.957520 85.649 11.9337
562.000671 85.653 12.2045
566.073181 85.659 12.4378
570.175171 85.664 12.6474
574.306885 85.665 12.8793
578.468567 85.670 13.1835
582.660400 85.685 13.5474
586.882568 85.697 13.8960
591.135376 85.700 14.2599
595.419006 85.696 14.6160
599.733643 85.691 14.8861
604.079590 85.695 15.0659
608.456970 85.704 15.2565
612.866089 85.712 15.5208
617.307190 85.725 15.8115
621.780457 85.739 16.0940
626.286133 85.742 16.4135
630.824463 85.743 16.7453
635.395691 85.756 17.0248
640.000000 85.776 17.2767
644.637695 85.793 17.5307
649.309021 85.815 17.7495
654.014160 85.836 17.9003
658.753418 85.851 17.9537
663.527039 85.873 17.9755
668.335205 85.897 17.9867
673.178284 85.913 17.8534
678.056396 85.913 17.4903
682.969849 85.870 16.8772
687.918945 85.755 16.2184
692.903870 85.545 15.9055
697.924927 85.273 16.3104
702.982422 85.040 17.5329
708.076477 84.925 19.2435
713.207520 84.922 20.9381
718.375732 84.978 22.4310
723.581360 85.063 23.6456
728.824707 85.156 24.4477
734.106079 85.229 24.9984
739.425720 85.288 25.5169
744.783936 85.345 25.9442
750.180908 85.396 26.2746
755.617065 85.432 26.6455
761.092529 85.464 27.1068
766.607727 85.500 27.5575
772.162903 85.521 27.9971
777.758301 85.522 28.4835
783.394287 85.534 28.8874
789.071045 85.570 29.1418
794.789001 85.603 29.4202
800.548340 85.630 29.8733
806.349487 85.662 30.3963
812.192627 85.687 30.8531
818.078125 85.710 31.2910
824.006226 85.742 31.7238
829.977295 85.771 32.1500
835.991699 85.793 32.5990
842.049622 85.813 33.0475
848.151428 85.840 33.4870
854.297485 85.873 33.9113
860.488098 85.907 34.2968
866.723572 85.940 34.7231
873.004211 85.972 35.1884
879.330322 86.011 35.6068
885.702332 86.047 35.9928
892.120483 86.071 36.3955
898.585144 86.095 36.7962
905.096680 86.131 37.2080
911.655396 86.179 37.6633
918.261597 86.225 38.1209
924.915710 86.264 38.5716
931.618042 86.299 38.9890
938.368896 86.335 39.3954
945.168762 86.377 39.7993
952.017822 86.423 40.1444
958.916504 86.465 40.4697
965.865234 86.503 40.8832
972.864319 86.540 41.3330
979.914062 86.586 41.7216
987.014954 86.638 42.0793
994.167236 86.685 42.4359
1001.371399 86.730 42.7934
1008.627747 86.776 43.1660
1015.936646 86.820 43.6012
1023.298584 86.866 44.0384
1030.713867 86.920 44.3704
1038.182739 86.973 44.6603
1045.705933 87.024 44.9521
1053.283447 87.076 45.2555
1060.916016 87.130 45.5707
1068.603882 87.186 45.8797
1076.347412 87.239 46.2181
1084.147095 87.289 46.5473
1092.003296 87.340 46.7877
1099.916382 87.397 46.9866
1107.886841 87.455 47.2369
1115.915039 87.514 47.5241
1124.001343 87.576 47.8222
1132.146362 87.642 48.1026
1140.350342 87.709 48.3319
1148.613770 87.773 48.5471
1156.937134 87.833 48.7869
1165.320801 87.892 49.0493
1173.765137 87.951 49.2632
1182.270752 88.011 49.4511
1190.838013 88.064 49.7043
1199.467285 88.115 49.9735
1208.159180 88.174 50.1981
1216.913940 88.236 50.3722
1225.732178 88.296 50.5176
1234.614380 88.355 50.6919
1243.560913 88.412 50.9065
1252.572266 88.472 51.1067
1261.648926 88.536 51.2624
1270.791382 88.601 51.4175
1280.000000 88.661 51.6181
1289.275391 88.717 51.8442
1298.618042 88.773 52.0541
1308.028320 88.832 52.2088
1317.506836 88.894 52.3403
1327.054077 88.955 52.5067
1336.670410 89.008 52.7061
1346.356567 89.055 52.9170
1356.112793 89.089 53.1363
1365.939697 89.116 53.3415
1375.837891 89.155 53.5277
1385.807739 89.205 53.7244
1395.849854 89.258 53.9043
1405.964844 89.309 54.0692
1416.152954 89.358 54.2013
1426.415039 89.411 54.3637
1436.751465 89.463 54.5734
1447.162720 89.517 54.8006
1457.649414 89.571 55.0420
1468.212158 89.620 55.2498
1478.851440 89.669 55.4226
1489.567871 89.720 55.5927
1500.361816 89.771 55.7786
1511.234131 89.817 55.9797
1522.185059 89.864 56.2112
1533.215454 89.913 56.4630
1544.325806 89.962 56.7017
1555.516602 90.008 56.9217
1566.788574 90.056 57.1086
1578.142090 90.107 57.2712
1589.578003 90.155 57.4558
1601.096680 90.202 57.6792
1612.698975 90.251 57.9239
1624.385254 90.302 58.1405
1636.156250 90.357 58.3406
1648.012451 90.405 58.5783
1659.954590 90.450 58.8323
1671.983398 90.498 59.0617
1684.099243 90.547 59.2766
1696.302856 90.598 59.5058
1708.594971 90.646 59.7306
1720.976196 90.693 59.9532
1733.447144 90.748 60.2240
1746.008423 90.803 60.5044
1758.660645 90.852 60.7566
1771.404663 90.902 61.0026
1784.240967 90.955 61.2455
1797.170288 91.007 61.5073
1810.193359 91.057 61.8214
1823.310791 91.113 62.1485
1836.523193 91.176 62.4497
1849.831421 91.248 62.7501
1863.236084 91.327 63.0522
1876.737793 91.408 63.2904
1890.337524 91.491 63.4752
1904.035645 91.571 63.6291
1917.833008 91.649 63.7662
1931.730469 91.724 63.9053
1945.728638 91.798 64.0299
1959.828125 91.870 64.1117
1974.029907 91.941 64.1707
1988.334473 92.004 64.2625
2002.742798 92.061 64.3699
2017.255493 92.123 64.4688
2031.873291 92.189 64.5542
2046.597168 92.252 64.6407
2061.427734 92.309 64.7507
2076.365479 92.368 64.8497
2091.411865 92.429 64.9216
2106.566895 92.489 64.9910
2121.832031 92.549 65.0971
2137.207764 92.609 65.2249
2152.694824 92.670 65.3610
2168.294189 92.736 65.4963
2184.006592 92.801 65.6307
2199.832764 92.866 65.7647
2215.773682 92.934 65.8845
2231.830078 93.006 65.9980
2248.002686 93.079 66.1047
2264.292725 93.154 66.1580
2280.700684 93.225 66.1714
2297.227539 93.294 66.1640
2313.874268 93.364 66.1313
2330.641602 93.433 66.0799
2347.530273 93.500 66.0353
2364.541504 93.563 65.9851
2381.676025 93.621 65.9262
2398.934570 93.679 65.8654
2416.318359 93.736 65.7769
2433.827881 93.791 65.6993
2451.464355 93.843 65.6456
2469.228760 93.892 65.5893
2487.121826 93.941 65.5250
2505.144531 93.990 65.4508
2523.297852 94.039 65.3762
2541.582764 94.085 65.3087
2560.000000 94.130 65.2532
2578.550781 94.175 65.2150
2597.236084 94.218 65.1698
2616.056641 94.261 65.0977
2635.013672 94.299 65.0172
2654.108154 94.332 64.9362
2673.340820 94.363 64.8644
2692.713135 94.395 64.8185
2712.225586 94.426 64.8002
2731.879395 94.457 64.7942
2751.675781 94.486 64.8148
2771.615479 94.515 64.8703
2791.699707 94.547 64.9507
2811.929688 94.583 65.0462
2832.305908 94.627 65.1417
2852.830078 94.677 65.2445
2873.502930 94.735 65.3335
2894.325439 94.802 65.3847
2915.298828 94.872 65.3793
2936.424316 94.944 65.2880
2957.702881 95.014 65.1175
2979.135742 95.079 64.8936
3000.723633 95.136 64.6220
3022.468262 95.180 64.3211
3044.370117 95.215 64.0249
3066.430908 95.242 63.7569
3088.651611 95.262 63.5206
3111.033203 95.279 63.2982
3133.577148 95.296 63.0862
3156.284180 95.310 62.9166
3179.156006 95.323 62.7964
3202.193359 95.337 62.7016
3225.397949 95.354 62.6133
3248.770508 95.375 62.5382
3272.312500 95.401 62.4573
3296.024902 95.432 62.3535
3319.909180 95.466 62.2276
3343.966797 95.504 62.0712
3368.198486 95.541 61.8857
3392.605713 95.575 61.6674
3417.189941 95.610 61.4342
3441.952393 95.647 61.1889
3466.894287 95.684 60.9209
3492.016846 95.721 60.6130
3517.321289 95.756 60.2597
3542.809326 95.791 59.8638
3568.481934 95.822 59.4372
3594.340576 95.844 59.0000
3620.386719 95.859 58.5463
3646.621582 95.868 58.0740
3673.046387 95.872 57.5932
3699.662842 95.869 57.1083
3726.472168 95.858 56.6265
3753.475586 95.842 56.1314
3780.675049 95.822 55.6399
3808.071289 95.794 55.1624
3835.666016 95.763 54.6863
3863.460938 95.727 54.2156
3891.457275 95.685 53.7552
3919.656250 95.637 53.2993
3948.059814 95.586 52.8509
