* Measurement data measured by REW V5.20.13
* Source: Microphone (Realtek(R) Audio), MICROPHONE (Master Volume), L, volume: 0.710. Timing signal peak level -37.6 dBFS, measurement signal peak level -37.4 dBFS
* Format: 2M Log Swept Sine, 1 sweep at -12.0 dBFS using an acoustic timing reference
* Dated: Sep 7, 2023 3:59:27 PM
* REW Settings:
*  C-weighting compensation: Off
*  Target level: 75.0 dB
* Note: ; Delay -0.0561 ms (-19 mm, -0.76 in) using estimated IR delay relative to Acoustic reference played from HEADPHONE L with no timing offset Clock adjustment: 120.7 ppm
* Measurement: KZ Krila DDUU L
* Smoothing: 1/48 octave
* Frequency Step: 1/96 octave
* Start Frequency: 20.000 Hz
*
* Freq(Hz) SPL(dB) Phase(degrees)
20.000000 93.991 3.7106
20.144928 93.984 3.4870
20.290907 93.978 3.2526
20.437943 93.971 3.0118
20.586044 93.963 2.7699
20.735220 93.953 2.5256
20.885475 93.942 2.2815
21.036821 93.928 2.0362
21.189262 93.913 1.7941
21.342808 93.896 1.5621
21.497467 93.878 1.3387
21.653246 93.860 1.1281
21.810154 93.841 0.9331
21.968201 93.822 0.7455
22.127390 93.805 0.5611
22.287735 93.789 0.3813
22.449242 93.774 0.2052
22.611917 93.760 0.0326
22.775772 93.747 -0.1425
22.940815 93.735 -0.3194
23.107054 93.723 -0.5032
23.274498 93.712 -0.6962
23.443153 93.701 -0.8942
23.613033 93.690 -1.0947
23.784142 93.679 -1.2993
23.956491 93.668 -1.5090
24.130091 93.658 -1.7234
24.304947 93.646 -1.9425
24.481071 93.634 -2.1655
24.658470 93.622 -2.3883
24.837156 93.608 -2.6117
25.017136 93.594 -2.8364
25.198421 93.578 -3.0615
25.381020 93.562 -3.2799
25.564941 93.544 -3.4917
25.750195 93.527 -3.6919
25.936790 93.509 -3.8815
26.124741 93.492 -4.0659
26.314051 93.477 -4.2447
26.504732 93.462 -4.4191
26.696796 93.449 -4.5912
26.890253 93.437 -4.7679
27.085112 93.426 -4.9498
27.281382 93.414 -5.1422
27.479073 93.401 -5.3396
27.678198 93.388 -5.5385
27.878765 93.372 -5.7355
28.080786 93.356 -5.9290
28.284271 93.339 -6.1151
28.489231 93.322 -6.2926
28.695675 93.305 -6.4621
28.903616 93.289 -6.6261
29.113064 93.274 -6.7936
29.324028 93.260 -6.9658
29.536524 93.246 -7.1461
29.750557 93.231 -7.3324
29.966141 93.214 -7.5241
30.183289 93.194 -7.7152
30.402010 93.172 -7.9013
30.622314 93.149 -8.0727
30.844217 93.126 -8.2325
31.067726 93.105 -8.3811
31.292856 93.087 -8.5323
31.519617 93.071 -8.6920
31.748020 93.056 -8.8698
31.978081 93.042 -9.0711
32.209808 93.025 -9.2946
32.443211 93.004 -9.5299
32.678310 92.979 -9.7575
32.915108 92.949 -9.9656
33.153625 92.918 -10.1362
33.393871 92.887 -10.2708
33.635857 92.861 -10.3689
33.879597 92.843 -10.4572
34.125103 92.831 -10.5564
34.372387 92.824 -10.6874
34.621464 92.818 -10.8609
34.872345 92.809 -11.0653
35.125042 92.795 -11.2893
35.379574 92.775 -11.4995
35.635948 92.751 -11.6780
35.894180 92.727 -11.8171
36.154285 92.706 -11.9236
36.416275 92.689 -12.0265
36.680161 92.677 -12.1438
36.945961 92.665 -12.2933
37.213688 92.648 -12.4712
37.483353 92.625 -12.6485
37.754974 92.597 -12.8017
38.028561 92.566 -12.9060
38.304131 92.540 -12.9719
38.581699 92.521 -13.0363
38.861279 92.507 -13.1369
39.142883 92.495 -13.3153
39.426529 92.472 -13.5694
39.712231 92.432 -13.8404
40.000000 92.375 -14.0562
40.289856 92.305 -14.1402
40.581814 92.238 -14.0398
40.875885 92.194 -13.8008
41.172089 92.182 -13.5334
41.470440 92.202 -13.3609
41.770950 92.240 -13.3913
42.073643 92.277 -13.6682
42.378525 92.292 -14.1248
42.685616 92.277 -14.6392
42.994934 92.235 -15.0941
43.306492 92.178 -15.4095
43.620308 92.121 -15.5661
43.936401 92.078 -15.6121
44.254780 92.052 -15.6362
44.575470 92.039 -15.7050
44.898483 92.030 -15.8388
45.223835 92.017 -16.0201
45.551544 91.998 -16.2111
45.881630 91.973 -16.3769
46.214108 91.946 -16.5009
46.548996 91.921 -16.5874
46.886307 91.901 -16.6541
47.226067 91.885 -16.7248
47.568283 91.874 -16.8206
47.912983 91.861 -16.9542
48.260181 91.844 -17.1245
48.609894 91.820 -17.3125
48.962143 91.787 -17.4889
49.316940 91.749 -17.6297
49.674313 91.711 -17.7300
50.034271 91.675 -17.8080
50.396843 91.643 -17.8890
50.762039 91.612 -17.9825
51.129883 91.579 -18.0737
51.500389 91.548 -18.1420
51.873581 91.523 -18.1923
52.249481 91.508 -18.2672
52.628101 91.498 -18.4152
53.009464 91.481 -18.6416
53.393593 91.450 -18.8823
53.780506 91.405 -19.0388
54.170223 91.361 -19.0587
54.562763 91.333 -18.9923
54.958145 91.325 -18.9588
55.356396 91.321 -19.0390
55.757530 91.301 -19.1897
56.161572 91.262 -19.2766
56.568542 91.220 -19.2135
56.978462 91.195 -19.0749
57.391350 91.187 -19.0380
57.807232 91.166 -19.1778
58.226128 91.104 -19.3284
58.648056 91.009 -19.1943
59.073048 90.933 -18.6394
59.501114 90.935 -17.9113
59.932281 91.017 -17.5159
60.366577 91.115 -17.7803
60.804020 91.152 -18.5616
61.244629 91.103 -19.4074
61.688435 90.998 -19.9212
62.135452 90.897 -20.0493
62.585712 90.835 -20.0344
63.039234 90.800 -20.1007
63.496040 90.767 -20.2629
63.956161 90.730 -20.4150
64.419617 90.698 -20.5181
64.886421 90.677 -20.6350
65.356621 90.657 -20.8033
65.830215 90.628 -20.9638
66.307251 90.596 -21.0441
66.787743 90.571 -21.0643
67.271713 90.555 -21.1069
67.759193 90.535 -21.2005
68.250206 90.503 -21.2903
68.744774 90.464 -21.3241
69.242928 90.426 -21.3138
69.744690 90.389 -21.2935
70.250084 90.351 -21.2628
70.759148 90.317 -21.2080
71.271896 90.290 -21.1550
71.788361 90.268 -21.1551
72.308571 90.245 -21.2177
72.832550 90.215 -21.2983
73.360321 90.183 -21.3550
73.891922 90.155 -21.3911
74.427376 90.131 -21.4348
74.966705 90.109 -21.4969
75.509949 90.084 -21.5635
76.057121 90.057 -21.6176
76.608261 90.028 -21.6512
77.163399 89.999 -21.6615
77.722557 89.970 -21.6482
78.285767 89.944 -21.6240
78.853058 89.920 -21.6212
79.424461 89.893 -21.6551
80.000000 89.858 -21.6893
80.579712 89.819 -21.6727
81.163628 89.788 -21.6146
81.751770 89.767 -21.5938
82.344177 89.747 -21.6586
82.940880 89.716 -21.7667
83.541901 89.674 -21.8365
84.147285 89.633 -21.8249
84.757050 89.602 -21.7652
85.371231 89.583 -21.7328
85.989868 89.564 -21.7700
86.612984 89.535 -21.8196
87.240616 89.501 -21.8035
87.872803 89.474 -21.7432
88.509560 89.454 -21.7294
89.150940 89.426 -21.7597
89.796967 89.391 -21.7673
90.447670 89.356 -21.7527
91.103088 89.318 -21.7462
91.763260 89.275 -21.6959
92.428215 89.239 -21.5767
93.097992 89.220 -21.4806
93.772614 89.206 -21.4858
94.452133 89.185 -21.5513
95.136566 89.158 -21.6185
95.825966 89.128 -21.6729
96.520363 89.095 -21.6994
97.219788 89.064 -21.6962
97.924286 89.032 -21.6680
98.633881 88.999 -21.5823
99.348625 88.975 -21.4478
100.068542 88.961 -21.3699
100.793686 88.938 -21.3835
101.524078 88.898 -21.3758
102.259766 88.858 -21.2914
103.000778 88.827 -21.2176
103.747162 88.797 -21.1950
104.498962 88.763 -21.1703
105.256203 88.733 -21.1260
106.018929 88.707 -21.0734
106.787186 88.682 -20.9943
107.561012 88.661 -20.8799
108.340446 88.645 -20.7592
109.125526 88.628 -20.6848
109.916290 88.596 -20.6541
110.712791 88.545 -20.5516
111.515060 88.503 -20.3626
112.323143 88.478 -20.2898
113.137085 88.445 -20.3836
113.956924 88.402 -20.4859
114.782700 88.364 -20.5603
115.614464 88.335 -20.5685
116.452255 88.331 -20.5094
117.296112 88.338 -20.5363
118.146095 88.326 -20.4198
119.002228 88.353 -20.0621
119.864563 88.413 -20.1147
120.733154 88.380 -20.5122
121.608040 88.271 -20.4415
122.489258 88.191 -20.0054
123.376869 88.146 -19.6903
124.270905 88.106 -19.5454
125.171425 88.064 -19.5355
126.078468 88.015 -19.5076
126.992081 87.985 -19.3994
127.912323 87.976 -19.3626
128.839233 87.961 -19.3735
129.772842 87.941 -19.3269
130.713242 87.920 -19.2570
131.660431 87.891 -19.1813
132.614502 87.860 -19.0886
133.575485 87.829 -19.0197
134.543427 87.795 -18.9672
135.518387 87.765 -18.8670
136.500412 87.751 -18.7413
137.489548 87.745 -18.6579
138.485855 87.735 -18.5700
139.489380 87.723 -18.4387
140.500168 87.709 -18.2889
141.518295 87.695 -18.1468
142.543793 87.679 -18.0525
143.576721 87.655 -18.0107
144.617142 87.624 -17.9763
145.665100 87.590 -17.9091
146.720642 87.560 -17.8163
147.783844 87.531 -17.6812
148.854752 87.507 -17.4914
149.933411 87.491 -17.2990
151.019897 87.476 -17.1611
152.114243 87.454 -17.1038
153.216522 87.417 -17.0727
154.326797 87.380 -16.9663
155.445114 87.362 -16.8764
156.571533 87.348 -16.8835
157.706116 87.325 -16.8382
158.848923 87.307 -16.6597
160.000000 87.304 -16.4104
161.159424 87.307 -16.2166
162.327255 87.291 -16.0828
163.503540 87.262 -15.9017
164.688354 87.235 -15.7157
165.881760 87.215 -15.5966
167.083801 87.199 -15.5415
168.294571 87.183 -15.5164
169.514099 87.168 -15.4731
170.742462 87.149 -15.3991
171.979736 87.123 -15.2806
173.225967 87.093 -15.1115
174.481232 87.065 -14.9171
175.745605 87.046 -14.7619
177.019119 87.031 -14.6660
178.301880 87.019 -14.5884
179.593933 87.007 -14.5284
180.895340 86.978 -14.4576
182.206177 86.935 -14.2418
183.526520 86.901 -13.9417
184.856430 86.878 -13.6833
186.195984 86.860 -13.5313
187.545227 86.835 -13.4367
188.904266 86.807 -13.3139
190.273132 86.783 -13.1540
191.651932 86.759 -12.9812
193.040726 86.741 -12.8020
194.439575 86.730 -12.6985
195.848572 86.714 -12.6471
197.267761 86.697 -12.5309
198.697250 86.687 -12.3539
200.137085 86.680 -12.1842
201.587372 86.662 -12.0291
203.048157 86.638 -11.8450
204.519531 86.622 -11.7130
206.001556 86.600 -11.6344
207.494324 86.580 -11.4635
208.997925 86.574 -11.2816
210.512405 86.563 -11.1899
212.037857 86.533 -11.1055
213.574371 86.500 -10.9487
215.122025 86.483 -10.7354
216.680893 86.482 -10.5645
218.251053 86.476 -10.4528
219.832581 86.455 -10.3379
221.425583 86.427 -10.1703
223.030121 86.410 -9.9921
224.646286 86.400 -9.8674
226.274170 86.381 -9.6844
227.913849 86.360 -9.4399
229.565399 86.332 -9.2770
231.228928 86.300 -9.1964
232.904510 86.285 -9.1757
234.592224 86.283 -9.1983
236.292191 86.262 -9.0592
238.004456 86.231 -8.5792
239.729126 86.217 -7.9849
241.466309 86.230 -7.6690
243.216080 86.240 -7.6955
244.978516 86.238 -7.7992
246.753738 86.224 -7.7970
248.541809 86.201 -7.6542
250.342850 86.184 -7.5002
252.156937 86.175 -7.4442
253.984161 86.160 -7.3498
255.824646 86.147 -7.0284
257.678467 86.143 -6.6518
259.545685 86.129 -6.4595
261.426483 86.100 -6.3820
263.320862 86.082 -6.2765
265.229004 86.079 -6.1216
267.150970 86.073 -5.9162
269.086853 86.066 -5.7340
271.036774 86.054 -5.6539
273.000824 86.035 -5.5540
274.979095 86.018 -5.3290
276.971710 86.003 -5.0574
278.978760 85.984 -4.8616
281.000336 85.963 -4.7315
283.036591 85.954 -4.5854
285.087585 85.960 -4.4061
287.153442 85.967 -4.2035
289.234283 85.970 -3.9933
291.330200 85.971 -3.8360
293.441284 85.966 -3.7063
295.567688 85.955 -3.5319
297.709503 85.939 -3.2417
299.866821 85.930 -2.9077
302.039795 85.919 -2.6839
304.228485 85.901 -2.5022
306.433044 85.898 -2.3160
308.653595 85.907 -2.1792
310.890228 85.904 -2.0394
313.143066 85.889 -1.8340
315.412231 85.869 -1.5976
317.697845 85.856 -1.3865
320.000000 85.843 -1.2458
322.318848 85.832 -1.1230
324.654510 85.828 -1.0147
327.007080 85.831 -0.8730
329.376709 85.834 -0.6494
331.763519 85.828 -0.3623
334.167603 85.820 -0.1204
336.589142 85.817 0.0489
339.028198 85.822 0.2341
341.484924 85.822 0.4862
343.959473 85.806 0.7640
346.451935 85.782 1.0102
348.962463 85.767 1.2300
351.491211 85.763 1.4077
354.038239 85.760 1.5923
356.603760 85.762 1.8602
359.187866 85.773 2.1950
361.790680 85.777 2.4092
364.412354 85.751 2.4748
367.053040 85.715 2.5735
369.712860 85.698 2.7348
372.391968 85.702 2.9056
375.090454 85.712 3.0778
377.808533 85.719 3.2277
380.546265 85.713 3.3406
383.303864 85.699 3.4891
386.081451 85.683 3.7174
388.879150 85.666 4.0137
391.697144 85.664 4.3222
394.535522 85.678 4.5575
397.394501 85.688 4.7137
400.274170 85.680 4.8552
403.174744 85.663 5.0653
406.096313 85.650 5.3576
409.039062 85.646 5.6588
412.003113 85.647 5.8959
414.988647 85.645 6.0875
417.995850 85.642 6.3378
421.024811 85.642 6.6093
424.075714 85.631 6.8086
427.148743 85.615 6.9515
430.244049 85.599 7.1364
433.361786 85.583 7.4015
436.502106 85.571 7.6607
439.665161 85.567 7.8691
442.851166 85.568 8.0641
446.060242 85.569 8.2649
449.292572 85.561 8.4848
452.548340 85.547 8.7545
455.827698 85.541 9.0587
459.130798 85.544 9.3774
462.457855 85.545 9.6585
465.809021 85.542 9.8718
469.184448 85.542 10.0604
472.584381 85.542 10.2776
476.008911 85.533 10.5238
479.458252 85.517 10.8306
482.932617 85.523 11.1057
486.432159 85.543 11.2799
489.957031 85.550 11.5147
493.507477 85.542 11.8029
497.083618 85.540 12.0883
500.685699 85.548 12.3612
504.313873 85.544 12.6148
507.968323 85.530 12.8771
511.649292 85.524 13.1517
515.356934 85.529 13.3867
519.091370 85.542 13.6242
522.852966 85.554 13.8912
526.641724 85.553 14.1292
530.458008 85.547 14.3353
534.301941 85.532 14.5765
538.173706 85.516 14.7909
542.073547 85.528 15.0310
546.001648 85.566 15.4028
549.958191 85.589 15.7735
553.943420 85.589 16.1029
557.957520 85.584 16.4024
562.000671 85.580 16.6657
566.073181 85.582 16.9141
570.175171 85.592 17.1563
574.306885 85.607 17.3906
578.468567 85.614 17.6164
582.660400 85.624 17.8893
586.882568 85.638 18.2063
591.135376 85.648 18.4613
595.419006 85.651 18.6464
599.733643 85.649 18.8201
604.079590 85.659 19.0727
608.456970 85.678 19.4283
612.866089 85.692 19.7141
617.307190 85.705 19.8861
621.780457 85.728 20.0922
626.286133 85.758 20.3612
630.824463 85.785 20.5870
635.395691 85.817 20.7492
640.000000 85.855 20.7994
644.637695 85.888 20.6858
649.309021 85.905 20.4305
654.014160 85.888 20.0507
658.753418 85.825 19.6782
663.527039 85.706 19.3194
668.335205 85.542 19.2438
673.178284 85.372 19.8272
678.056396 85.240 20.8795
682.969849 85.171 22.0637
687.918945 85.163 23.1939
692.903870 85.192 24.1459
697.924927 85.239 24.8605
702.982422 85.291 25.4390
708.076477 85.328 25.9870
713.207520 85.353 26.5318
718.375732 85.369 27.0180
723.581360 85.384 27.4087
728.824707 85.404 27.7580
734.106079 85.423 28.1023
739.425720 85.434 28.4461
744.783936 85.432 28.8858
750.180908 85.424 29.3721
755.617065 85.419 29.8603
761.092529 85.417 30.3983
766.607727 85.423 30.9613
772.162903 85.438 31.5529
777.758301 85.461 32.0489
783.394287 85.497 32.5594
789.071045 85.546 33.2172
794.789001 85.596 33.7894
800.548340 85.639 34.1921
806.349487 85.673 34.6061
812.192627 85.712 35.1288
818.078125 85.746 35.5757
824.006226 85.771 35.9416
829.977295 85.803 36.3291
835.991699 85.852 36.7765
842.049622 85.906 37.2759
848.151428 85.946 37.6952
854.297485 85.977 38.1033
860.488098 86.006 38.5128
866.723572 86.032 38.9043
873.004211 86.060 39.3430
879.330322 86.093 39.7684
885.702332 86.128 40.1575
892.120483 86.165 40.5191
898.585144 86.205 40.8886
905.096680 86.252 41.3398
911.655396 86.301 41.8241
918.261597 86.347 42.2711
924.915710 86.387 42.6986
931.618042 86.427 43.1129
938.368896 86.473 43.5000
945.168762 86.518 43.8634
952.017822 86.563 44.2643
958.916504 86.613 44.7014
965.865234 86.662 45.0985
972.864319 86.707 45.4404
979.914062 86.755 45.7789
987.014954 86.805 46.1350
994.167236 86.854 46.4972
1001.371399 86.903 46.8547
1008.627747 86.957 47.1695
1015.936646 87.018 47.4688
1023.298584 87.078 47.8178
1030.713867 87.126 48.1631
1038.182739 87.178 48.4530
1045.705933 87.224 48.7343
1053.283447 87.270 49.0156
1060.916016 87.327 49.3163
1068.603882 87.386 49.6379
1076.347412 87.439 49.9603
1084.147095 87.495 50.2853
1092.003296 87.557 50.5862
1099.916382 87.620 50.8760
1107.886841 87.685 51.1606
1115.915039 87.756 51.4318
1124.001343 87.826 51.6660
1132.146362 87.888 51.8962
1140.350342 87.954 52.1552
1148.613770 88.024 52.3836
1156.937134 88.081 52.5619
1165.320801 88.139 52.7178
1173.765137 88.206 52.9129
1182.270752 88.268 53.1039
1190.838013 88.332 53.2923
1199.467285 88.399 53.5104
1208.159180 88.462 53.7440
1216.913940 88.525 53.9672
1225.732178 88.592 54.1574
1234.614380 88.653 54.3170
1243.560913 88.711 54.4839
1252.572266 88.773 54.6555
1261.648926 88.842 54.8158
1270.791382 88.909 54.9784
1280.000000 88.972 55.1564
1289.275391 89.036 55.3327
1298.618042 89.096 55.4744
1308.028320 89.156 55.6189
1317.506836 89.222 55.8036
1327.054077 89.284 55.9826
1336.670410 89.340 56.1265
1346.356567 89.394 56.2628
1356.112793 89.436 56.4123
1365.939697 89.470 56.6117
1375.837891 89.514 56.8167
1385.807739 89.570 56.9784
1395.849854 89.622 57.1175
1405.964844 89.672 57.2507
1416.152954 89.726 57.3850
1426.415039 89.787 57.5677
1436.751465 89.851 57.7585
1447.162720 89.905 57.9265
1457.649414 89.949 58.1048
1468.212158 89.999 58.2802
1478.851440 90.060 58.4581
1489.567871 90.125 58.6504
1500.361816 90.185 58.8088
1511.234131 90.242 58.9595
1522.185059 90.293 59.1601
1533.215454 90.339 59.3895
1544.325806 90.389 59.5882
1555.516602 90.443 59.7607
1566.788574 90.498 59.9148
1578.142090 90.554 60.0792
1589.578003 90.608 60.2636
1601.096680 90.659 60.4253
1612.698975 90.711 60.5853
1624.385254 90.765 60.7679
1636.156250 90.821 60.9819
1648.012451 90.877 61.1978
1659.954590 90.933 61.3839
1671.983398 90.988 61.5411
1684.099243 91.042 61.7072
1696.302856 91.100 61.8968
1708.594971 91.159 62.0832
1720.976196 91.217 62.2504
1733.447144 91.273 62.4119
1746.008423 91.333 62.5813
1758.660645 91.389 62.7492
1771.404663 91.448 62.9177
1784.240967 91.509 63.0952
1797.170288 91.567 63.2885
1810.193359 91.626 63.4725
1823.310791 91.687 63.6365
1836.523193 91.749 63.8103
1849.831421 91.814 63.9755
1863.236084 91.882 64.1314
1876.737793 91.944 64.2656
1890.337524 92.003 64.3858
1904.035645 92.065 64.5117
1917.833008 92.129 64.6337
1931.730469 92.196 64.7537
1945.728638 92.266 64.8721
1959.828125 92.333 64.9681
1974.029907 92.395 65.0412
1988.334473 92.456 65.1383
2002.742798 92.520 65.2571
2017.255493 92.587 65.3342
2031.873291 92.652 65.4089
2046.597168 92.717 65.4920
2061.427734 92.780 65.5449
2076.365479 92.844 65.5950
2091.411865 92.907 65.6467
2106.566895 92.972 65.6850
2121.832031 93.037 65.7299
2137.207764 93.104 65.7806
2152.694824 93.172 65.8177
2168.294189 93.236 65.8379
2184.006592 93.296 65.8532
2199.832764 93.361 65.8421
2215.773682 93.425 65.8273
2231.830078 93.486 65.8138
2248.002686 93.550 65.7907
2264.292725 93.612 65.7780
2280.700684 93.670 65.7598
2297.227539 93.728 65.7179
2313.874268 93.785 65.6670
2330.641602 93.839 65.6273
2347.530273 93.897 65.5877
2364.541504 93.955 65.5157
2381.676025 94.010 65.4264
2398.934570 94.065 65.3314
2416.318359 94.120 65.2325
2433.827881 94.174 65.1313
2451.464355 94.227 65.0238
2469.228760 94.275 64.9241
2487.121826 94.320 64.8299
2505.144531 94.365 64.7095
2523.297852 94.411 64.5638
2541.582764 94.457 64.4256
2560.000000 94.499 64.3039
2578.550781 94.536 64.1712
2597.236084 94.571 64.0326
2616.056641 94.606 63.8891
2635.013672 94.640 63.7403
2654.108154 94.673 63.5959
2673.340820 94.707 63.4548
2692.713135 94.739 63.3041
2712.225586 94.767 63.1490
2731.879395 94.789 63.0010
2751.675781 94.805 62.8403
2771.615479 94.823 62.6781
2791.699707 94.842 62.5413
2811.929688 94.858 62.4181
2832.305908 94.870 62.2976
2852.830078 94.878 62.1770
2873.502930 94.885 62.0552
2894.325439 94.889 61.9686
2915.298828 94.888 61.9128
2936.424316 94.884 61.8647
2957.702881 94.881 61.8480
2979.135742 94.877 61.8683
3000.723633 94.872 61.9421
3022.468262 94.868 62.0704
3044.370117 94.866 62.2318
3066.430908 94.870 62.4296
3088.651611 94.879 62.6701
3111.033203 94.901 62.9497
3133.577148 94.938 63.2351
3156.284180 94.990 63.4938
3179.156006 95.056 63.7031
3202.193359 95.133 63.8274
3225.397949 95.218 63.8476
3248.770508 95.303 63.7473
3272.312500 95.383 63.5488
3296.024902 95.456 63.3012
3319.909180 95.518 62.9933
3343.966797 95.570 62.6303
3368.198486 95.613 62.2288
3392.605713 95.645 61.8165
3417.189941 95.671 61.4172
3441.952393 95.694 61.0041
3466.894287 95.713 60.5842
3492.016846 95.726 60.1898
3517.321289 95.732 59.8118
3542.809326 95.735 59.4442
3568.481934 95.736 59.0998
3594.340576 95.735 58.7610
3620.386719 95.735 58.4272
3646.621582 95.735 58.0990
3673.046387 95.732 57.7549
3699.662842 95.726 57.4067
3726.472168 95.717 57.0661
3753.475586 95.705 56.7082
3780.675049 95.690 56.3309
3808.071289 95.671 55.9409
3835.666016 95.647 55.5326
3863.460938 95.618 55.1207
3891.457275 95.581 54.7122
3919.656250 95.537 54.3162
3948.059814 95.487 53.9412
3976.668945 95.434 53.5755
