* Measurement data measured by REW V5.20.13
* Source: Microphone (Realtek(R) Audio), MICROPHONE (Master Volume), L, volume: 0.710. Timing signal peak level -37.5 dBFS, measurement signal peak level -37.4 dBFS
* Format: 4M Log Swept Sine, 1 sweep at -12.0 dBFS using an acoustic timing reference
* Dated: Sep 7, 2023 3:48:54 PM
* REW Settings:
*  C-weighting compensation: Off
*  Target level: 75.0 dB
* Note: ; Delay -0.0568 ms (-19 mm, -0.77 in) using estimated IR delay relative to Acoustic reference played from HEADPHONE L with no timing offset Clock adjustment: 120.7 ppm
* Measurement: KZ Krila UDDU L
* Smoothing: 1/24 octave
* Frequency Step: 1/48 octave
* Start Frequency: 20.000 Hz
*
* Freq(Hz) SPL(dB) Phase(degrees)
20.000000 91.058 9.5166
20.299999 91.049 9.1646
20.600000 91.041 8.8034
20.900000 91.032 8.4329
21.200001 91.020 8.0621
21.400000 91.011 7.8215
21.799999 90.989 7.3600
22.000000 90.978 7.1387
22.400000 90.957 6.7062
22.700001 90.941 6.3843
23.000000 90.923 6.0638
23.299999 90.903 5.7516
23.600000 90.882 5.4566
24.000000 90.854 5.0989
24.299999 90.836 4.8525
24.700001 90.817 4.5298
25.000000 90.806 4.2720
25.400000 90.791 3.8958
25.799999 90.770 3.5029
26.200001 90.742 3.1389
26.500000 90.720 2.9072
26.900000 90.694 2.6531
27.200001 90.681 2.4813
27.600000 90.672 2.2346
28.000000 90.665 1.9343
28.500000 90.648 1.4998
29.000000 90.617 1.0865
29.500000 90.578 0.7631
30.000000 90.543 0.5173
30.400000 90.518 0.3345
30.700001 90.501 0.1893
31.100000 90.478 -0.0177
31.500000 90.455 -0.2317
32.000000 90.425 -0.4974
32.500000 90.396 -0.7677
33.000000 90.369 -1.0605
33.500000 90.340 -1.3796
34.000000 90.309 -1.7092
34.500000 90.276 -2.0265
35.000000 90.241 -2.3114
35.500000 90.209 -2.5507
36.000000 90.182 -2.7480
36.500000 90.161 -2.9257
37.000000 90.145 -3.1047
37.500000 90.128 -3.2803
38.200001 90.104 -3.4799
38.700001 90.093 -3.6050
39.500000 90.078 -3.9263
40.000000 90.051 -4.2095
40.599998 89.991 -4.4867
41.200001 89.923 -4.5586
41.799999 89.878 -4.5079
42.500000 89.859 -4.5695
43.099998 89.844 -4.8064
43.700001 89.814 -5.0779
44.400002 89.778 -5.2770
45.000000 89.770 -5.3672
45.500000 89.783 -5.4910
46.200001 89.811 -5.8378
46.799999 89.817 -6.2034
47.500000 89.815 -6.5021
48.200001 89.830 -6.7784
48.700001 89.834 -7.1144
49.400002 89.781 -7.6499
50.000000 89.686 -7.7921
50.799999 89.582 -7.4008
51.500000 89.559 -7.0344
52.200001 89.554 -6.9828
53.000000 89.524 -7.1267
53.799999 89.480 -7.2604
54.500000 89.447 -7.3702
55.200001 89.418 -7.4801
56.000000 89.392 -7.5522
57.000000 89.379 -7.6028
58.000000 89.360 -7.5660
59.000000 89.378 -7.2820
60.000000 89.435 -7.5269
60.799999 89.396 -8.0721
61.500000 89.306 -8.2761
62.200001 89.227 -8.2144
63.000000 89.168 -8.1713
64.000000 89.104 -8.2762
65.000000 89.048 -8.3998
66.000000 89.012 -8.5405
67.000000 88.985 -8.6912
68.000000 88.962 -8.7722
69.000000 88.946 -8.7928
70.000000 88.930 -8.8234
71.000000 88.906 -8.8405
72.000000 88.879 -8.8651
73.000000 88.847 -8.9360
74.000000 88.809 -9.0201
75.000000 88.772 -9.0796
76.199997 88.734 -9.1296
77.500000 88.696 -9.1763
78.800003 88.657 -9.1648
80.000000 88.632 -9.1793
81.199997 88.598 -9.2955
82.500000 88.553 -9.3563
83.800003 88.523 -9.3687
85.000000 88.505 -9.3480
86.199997 88.496 -9.3263
87.500000 88.477 -9.3027
88.500000 88.457 -9.2546
90.000000 88.425 -9.2086
91.199997 88.398 -9.2764
92.500000 88.360 -9.4175
93.800003 88.317 -9.5089
95.000000 88.286 -9.4875
96.199997 88.271 -9.4352
97.500000 88.256 -9.4152
98.800003 88.234 -9.4094
100.000000 88.206 -9.4163
101.500000 88.165 -9.3904
103.000000 88.135 -9.2914
104.400002 88.125 -9.2241
106.000000 88.108 -9.2274
107.500000 88.076 -9.2465
109.000000 88.029 -9.2402
110.599998 87.983 -9.1398
112.000000 87.959 -9.0547
113.800003 87.936 -8.9796
115.000000 87.920 -8.9510
117.199997 87.870 -9.0719
118.000000 87.835 -9.1642
120.599998 87.725 -8.9668
122.000000 87.736 -8.7896
124.099998 87.768 -8.7790
125.000000 87.771 -8.8117
126.500000 87.750 -8.8383
128.000000 87.715 -8.7994
131.500000 87.647 -8.6860
132.000000 87.641 -8.6703
134.000000 87.617 -8.6208
136.000000 87.580 -8.5090
138.000000 87.552 -8.3690
140.000000 87.535 -8.3303
143.000000 87.519 -8.2820
145.000000 87.505 -8.2039
147.500000 87.472 -8.0725
150.000000 87.442 -7.9001
152.500000 87.424 -7.8618
155.000000 87.391 -7.8621
157.500000 87.358 -7.8107
160.000000 87.321 -7.7062
162.500000 87.286 -7.4954
165.000000 87.261 -7.3384
167.500000 87.236 -7.2443
170.000000 87.212 -7.1294
172.500000 87.184 -7.0198
175.000000 87.149 -6.9321
177.500000 87.121 -6.8847
180.000000 87.096 -6.8066
182.500000 87.068 -6.6288
185.000000 87.036 -6.4205
187.500000 87.006 -6.2706
190.000000 86.983 -6.1671
192.500000 86.963 -6.0341
195.000000 86.943 -5.8708
197.500000 86.919 -5.7346
200.000000 86.895 -5.5830
203.000000 86.872 -5.3625
206.000000 86.842 -5.1777
209.000000 86.805 -5.0082
212.000000 86.774 -4.8444
214.000000 86.757 -4.7274
218.000000 86.719 -4.4645
220.000000 86.700 -4.3353
224.000000 86.678 -4.1961
227.000000 86.666 -4.1046
230.000000 86.652 -3.9415
233.000000 86.636 -3.7518
236.000000 86.623 -3.5262
240.000000 86.605 -3.2049
243.000000 86.564 -3.0297
247.000000 86.501 -2.8027
250.000000 86.476 -2.6266
254.000000 86.456 -2.3917
258.000000 86.442 -2.1669
262.000000 86.428 -1.9195
265.000000 86.408 -1.7554
269.000000 86.377 -1.5494
272.000000 86.357 -1.3448
276.000000 86.331 -0.9924
280.000000 86.313 -0.6549
285.000000 86.295 -0.3845
290.000000 86.273 -0.1546
295.000000 86.257 0.1017
300.000000 86.242 0.4329
304.000000 86.223 0.7556
307.000000 86.209 0.9650
311.000000 86.193 1.1700
315.000000 86.174 1.4203
320.000000 86.147 1.8007
325.000000 86.127 2.0758
330.000000 86.113 2.3828
335.000000 86.103 2.7317
340.000000 86.098 3.0695
345.000000 86.086 3.4264
350.000000 86.063 3.7339
355.000000 86.029 3.9673
360.000000 86.003 4.2920
365.000000 85.999 4.6939
370.000000 85.998 5.0540
375.000000 85.986 5.3564
382.000000 85.962 5.8130
387.000000 85.942 6.1354
395.000000 85.922 6.6984
400.000000 85.913 7.0365
406.000000 85.900 7.4102
412.000000 85.885 7.8002
418.000000 85.870 8.2307
425.000000 85.849 8.7223
431.000000 85.829 9.0938
437.000000 85.811 9.4629
444.000000 85.799 9.9270
450.000000 85.795 10.2909
455.000000 85.790 10.5761
462.000000 85.776 11.0497
468.000000 85.761 11.4772
475.000000 85.749 11.9684
482.000000 85.744 12.4736
487.000000 85.740 12.7853
494.000000 85.734 13.1953
500.000000 85.732 13.5553
508.000000 85.735 14.0513
515.000000 85.735 14.5311
522.000000 85.734 15.0132
530.000000 85.734 15.4953
538.000000 85.731 16.0154
545.000000 85.731 16.5011
552.000000 85.738 16.9509
560.000000 85.748 17.4686
570.000000 85.759 18.1371
580.000000 85.774 18.7424
590.000000 85.795 19.3545
600.000000 85.817 19.9465
608.000000 85.837 20.4158
615.000000 85.861 20.7963
622.000000 85.890 21.1292
630.000000 85.923 21.4288
640.000000 85.962 21.5565
650.000000 85.980 21.2288
660.000000 85.886 20.6376
670.000000 85.641 20.6548
680.000000 85.398 22.0797
690.000000 85.325 24.1136
700.000000 85.361 25.7634
710.000000 85.417 26.9457
720.000000 85.470 27.8678
730.000000 85.511 28.6199
740.000000 85.536 29.3144
750.000000 85.539 30.0676
762.000000 85.538 31.1580
775.000000 85.562 32.5064
788.000000 85.628 33.8449
800.000000 85.710 34.8751
812.000000 85.792 35.7608
825.000000 85.871 36.6924
838.000000 85.946 37.6220
850.000000 86.013 38.4468
862.000000 86.081 39.2259
875.000000 86.155 40.0450
885.000000 86.213 40.6702
900.000000 86.300 41.6198
912.000000 86.373 42.3906
925.000000 86.459 43.2204
938.000000 86.545 44.0103
950.000000 86.622 44.6916
962.000000 86.699 45.3472
975.000000 86.784 46.0673
988.000000 86.870 46.7666
1000.000000 86.951 47.3770
1015.000000 87.056 48.0927
1030.000000 87.171 48.7812
1044.000000 87.277 49.3897
1060.000000 87.385 50.0118
1075.000000 87.485 50.5529
1090.000000 87.595 51.0503
1106.000000 87.720 51.5595
1120.000000 87.830 51.9897
1138.000000 87.974 52.5517
1150.000000 88.070 52.8915
1172.000000 88.243 53.4134
1180.000000 88.302 53.5980
1206.000000 88.482 54.1805
1220.000000 88.583 54.4754
1241.000000 88.736 54.8724
1250.000000 88.799 55.0520
1265.000000 88.902 55.3652
1280.000000 89.005 55.6646
1315.000000 89.238 56.2833
1320.000000 89.269 56.3653
1340.000000 89.385 56.6934
1360.000000 89.479 57.0371
1380.000000 89.569 57.3779
1400.000000 89.671 57.6955
1430.000000 89.838 58.1678
1450.000000 89.943 58.4960
1475.000000 90.070 58.8918
1500.000000 90.194 59.3006
1525.000000 90.314 59.7498
1550.000000 90.436 60.1794
1575.000000 90.556 60.5628
1600.000000 90.670 60.9520
1625.000000 90.781 61.3500
1650.000000 90.893 61.7283
1675.000000 91.008 62.0974
1700.000000 91.122 62.4752
1725.000000 91.230 62.8569
1750.000000 91.338 63.2182
1775.000000 91.451 63.5900
1800.000000 91.570 63.9626
1825.000000 91.694 64.3296
1850.000000 91.818 64.6859
1875.000000 91.945 64.9762
1900.000000 92.072 65.1885
1925.000000 92.197 65.3731
1950.000000 92.316 65.5319
1975.000000 92.429 65.6570
2000.000000 92.539 65.7794
2030.000000 92.671 65.9333
2060.000000 92.802 66.0688
2090.000000 92.931 66.1617
2120.000000 93.060 66.2269
2140.000000 93.145 66.2610
2180.000000 93.308 66.2948
2200.000000 93.387 66.2936
2240.000000 93.539 66.2646
2270.000000 93.649 66.2187
2300.000000 93.754 66.1425
2330.000000 93.857 66.0405
2360.000000 93.957 65.9145
2400.000000 94.085 65.7223
2430.000000 94.175 65.5585
2470.000000 94.287 65.3015
2500.000000 94.365 65.1019
2540.000000 94.461 64.8415
2580.000000 94.548 64.5637
2620.000000 94.625 64.2882
2650.000000 94.676 64.0764
2690.000000 94.736 63.7865
2720.000000 94.774 63.5730
2760.000000 94.815 63.3215
2800.000000 94.846 63.1156
2850.000000 94.871 62.9184
2900.000000 94.885 62.8457
2950.000000 94.898 62.9603
3000.000000 94.923 63.2715
3040.000000 94.970 63.6169
3070.000000 95.028 63.8679
3110.000000 95.135 64.0869
3150.000000 95.260 64.0659
3200.000000 95.407 63.6729
3250.000000 95.514 63.0220
3300.000000 95.582 62.3067
3350.000000 95.622 61.6248
3400.000000 95.647 61.0037
3450.000000 95.668 60.4427
3500.000000 95.686 59.8963
3550.000000 95.701 59.3405
3600.000000 95.713 58.7780
3650.000000 95.716 58.1968
3700.000000 95.708 57.5842
3750.000000 95.690 56.9440
3820.000000 95.643 56.0203
3870.000000 95.593 55.3586
3950.000000 95.484 54.3043
4000.000000 95.398 53.6416
4060.000000 95.274 52.8606
4120.000000 95.123 52.1314
4180.000000 94.946 51.5133
4250.000000 94.716 50.9890
4310.000000 94.504 50.7085
4370.000000 94.283 50.5647
4440.000000 94.019 50.5687
4500.000000 93.796 50.7065
4550.000000 93.614 50.8914
4620.000000 93.372 51.2161
4680.000000 93.176 51.5026
4750.000000 92.952 51.7766
4820.000000 92.718 51.9488
4870.000000 92.534 52.0338
4940.000000 92.248 52.2046
5000.000000 91.978 52.4875
5080.000000 91.594 53.1147
5150.000000 91.250 53.9366
5220.000000 90.910 55.0253
5300.000000 90.533 56.5523
5380.000000 90.171 58.3110
5450.000000 89.874 60.0235
5520.000000 89.598 61.8949
5600.000000 89.305 64.1833
5700.000000 88.976 67.2438
5800.000000 88.686 70.5079
5900.000000 88.438 73.9394
6000.000000 88.234 77.5138
6080.000000 88.105 80.4383
6150.000000 88.019 83.0412
6220.000000 87.958 85.6787
6300.000000 87.917 88.7143
6400.000000 87.911 92.5335
6500.000000 87.955 96.4004
6600.000000 88.056 100.2703
6700.000000 88.223 104.0863
6800.000000 88.462 107.8440
6900.000000 88.792 111.4930
7000.000000 89.219 114.9567
7100.000000 89.733 118.1620
7200.000000 90.336 121.0174
7300.000000 91.033 123.3806
7400.000000 91.828 125.0744
7500.000000 92.720 125.8425
7620.000000 93.903 125.0117
7750.000000 95.188 121.1362
7880.000000 96.150 113.5722
8000.000000 96.517 103.8936
8120.000000 96.262 93.6407
8250.000000 95.353 84.5811
8380.000000 94.040 79.1037
8500.000000 92.714 77.1016
8620.000000 91.427 77.3627
8750.000000 90.145 79.4692
8850.000000 89.252 82.0144
9000.000000 88.083 86.9426
9120.000000 87.314 91.5559
9250.000000 86.642 96.8704
9380.000000 86.118 102.3755
9500.000000 85.762 107.3935
9620.000000 85.500 112.2247
9750.000000 85.305 117.3412
9880.000000 85.203 122.2660
10000.000000 85.189 126.5529
10150.000000 85.268 131.4862
10300.000000 85.439 135.8282
10440.000000 85.658 139.2526
10600.000000 85.945 142.3185
10750.000000 86.214 144.3616
10900.000000 86.453 145.7161
11060.000000 86.655 146.6908
11200.000000 86.790 147.4290
11380.000000 86.957 148.4024
11500.000000 87.090 148.9422
11720.000000 87.375 149.4359
11800.000000 87.488 149.4188
12060.000000 87.901 148.2256
12200.000000 88.115 146.4999
12410.000000 88.272 142.1022
12500.000000 88.229 139.6402
12650.000000 87.957 135.2017
12800.000000 87.411 131.0733
13150.000000 85.317 126.6614
13200.000000 84.971 126.7820
13400.000000 83.600 128.9597
13600.000000 82.355 133.3043
13800.000000 81.324 138.9943
14000.000000 80.519 145.3503
14300.000000 79.666 155.0112
14500.000000 79.248 160.9791
14750.000000 78.769 167.8658
15000.000000 78.310 174.8598
15250.000000 77.982 -178.3157
15500.000000 77.787 -172.2485
15750.000000 77.774 -167.0453
16000.000000 77.878 -163.7272
16250.000000 77.960 -162.8995
16500.000000 77.867 -164.1626
16750.000000 77.540 -166.4131
17000.000000 77.100 -168.5614
17250.000000 76.800 -170.6591
17500.000000 76.852 -178.3687
17750.000000 77.330 130.5764
18000.000000 77.902 -60.4789
18250.000000 78.040 11.8262
18500.000000 77.576 -157.1785
18750.000000 76.470 157.9290
19000.000000 74.956 150.9907
19250.000000 73.360 150.7196
19500.000000 71.933 137.4990
19750.000000 70.842 66.2218
20000.000000 70.063 -62.7086
