* Measurement data measured by REW V5.20.13
* Source: Microphone (Realtek(R) Audio), MICROPHONE (Master Volume), L, volume: 0.710. Timing signal peak level -37.6 dBFS, measurement signal peak level -37.4 dBFS
* Format: 2M Log Swept Sine, 1 sweep at -12.0 dBFS using an acoustic timing reference
* Dated: Sep 7, 2023 4:12:17 PM
* REW Settings:
*  C-weighting compensation: Off
*  Target level: 75.0 dB
* Note: ; Delay -0.0532 ms (-18 mm, -0.72 in) using estimated IR delay relative to Acoustic reference played from HEADPHONE R with no timing offset Clock adjustment: 120.7 ppm
* Measurement: KZ Krila UUDD R
* Smoothing: 1/48 octave
* Frequency Step: 1/96 octave
* Start Frequency: 20.000 Hz
*
* Freq(Hz) SPL(dB) Phase(degrees)
20.000000 93.575 7.3354
20.144928 93.566 7.0913
20.290907 93.556 6.8508
20.437943 93.545 6.6168
20.586044 93.533 6.3997
20.735220 93.521 6.1990
20.885475 93.509 6.0078
21.036821 93.498 5.8263
21.189262 93.488 5.6509
21.342808 93.481 5.4750
21.497467 93.474 5.3000
21.653246 93.469 5.1174
21.810154 93.464 4.9277
21.968201 93.460 4.7258
22.127390 93.455 4.5046
22.287735 93.450 4.2717
22.449242 93.442 4.0369
22.611917 93.432 3.7986
22.775772 93.420 3.5674
22.940815 93.407 3.3430
23.107054 93.392 3.1260
23.274498 93.378 2.9175
23.443153 93.363 2.7159
23.613033 93.350 2.5236
23.784142 93.338 2.3331
23.956491 93.327 2.1365
24.130091 93.317 1.9343
24.304947 93.306 1.7203
24.481071 93.295 1.4982
24.658470 93.281 1.2745
24.837156 93.266 1.0500
25.017136 93.249 0.8319
25.198421 93.230 0.6207
25.381020 93.210 0.4279
25.564941 93.191 0.2521
25.750195 93.173 0.0927
25.936790 93.156 -0.0523
26.124741 93.144 -0.2001
26.314051 93.134 -0.3505
26.504732 93.126 -0.5129
26.696796 93.119 -0.6875
26.890253 93.112 -0.8798
27.085112 93.105 -1.0862
27.281382 93.095 -1.3041
27.479073 93.083 -1.5243
27.678198 93.070 -1.7366
27.878765 93.055 -1.9393
28.080786 93.040 -2.1292
28.284271 93.026 -2.3107
28.489231 93.013 -2.4845
28.695675 93.002 -2.6602
28.903616 92.993 -2.8402
29.113064 92.985 -3.0360
29.324028 92.976 -3.2438
29.536524 92.966 -3.4636
29.750557 92.953 -3.6853
29.966141 92.937 -3.9059
30.183289 92.919 -4.1156
30.402010 92.898 -4.3115
30.622314 92.876 -4.4857
30.844217 92.855 -4.6447
31.067726 92.836 -4.7903
31.292856 92.820 -4.9347
31.519617 92.805 -5.0809
31.748020 92.792 -5.2339
31.978081 92.779 -5.3966
32.209808 92.766 -5.5690
32.443211 92.752 -5.7473
32.678310 92.736 -5.9268
32.915108 92.719 -6.1048
33.153625 92.701 -6.2805
33.393871 92.681 -6.4529
33.635857 92.661 -6.6207
33.879597 92.642 -6.7862
34.125103 92.623 -6.9500
34.372387 92.603 -7.1132
34.621464 92.583 -7.2698
34.872345 92.562 -7.4177
35.125042 92.540 -7.5552
35.379574 92.520 -7.6819
35.635948 92.502 -7.8013
35.894180 92.486 -7.9178
36.154285 92.471 -8.0413
36.416275 92.459 -8.1790
36.680161 92.446 -8.3333
36.945961 92.433 -8.5049
37.213688 92.418 -8.6890
37.483353 92.400 -8.8743
37.754974 92.379 -9.0522
38.028561 92.357 -9.2147
38.304131 92.336 -9.3618
38.581699 92.315 -9.4978
38.861279 92.297 -9.6292
39.142883 92.280 -9.7649
39.426529 92.264 -9.9108
39.712231 92.247 -10.0646
40.000000 92.229 -10.2214
40.289856 92.208 -10.3740
40.581814 92.186 -10.5128
40.875885 92.163 -10.6339
41.172089 92.141 -10.7394
41.470440 92.121 -10.8341
41.770950 92.102 -10.9241
42.073643 92.085 -11.0167
42.378525 92.069 -11.1177
42.685616 92.054 -11.2288
42.994934 92.038 -11.3510
43.306492 92.021 -11.4823
43.620308 92.001 -11.6175
43.936401 91.979 -11.7482
44.254780 91.954 -11.8663
44.575470 91.930 -11.9681
44.898483 91.908 -12.0604
45.223835 91.890 -12.1588
45.551544 91.874 -12.2805
45.881630 91.857 -12.4360
46.214108 91.837 -12.6217
46.548996 91.812 -12.8193
46.886307 91.781 -13.0021
47.226067 91.747 -13.1502
47.568283 91.713 -13.2571
47.912983 91.682 -13.3277
48.260181 91.655 -13.3715
48.609894 91.633 -13.3950
48.962143 91.616 -13.4064
49.316940 91.607 -13.4225
49.674313 91.605 -13.4683
50.034271 91.604 -13.5668
50.396843 91.600 -13.7214
50.762039 91.586 -13.9050
51.129883 91.560 -14.0696
51.500389 91.527 -14.1722
51.873581 91.493 -14.2003
52.249481 91.465 -14.1791
52.628101 91.446 -14.1547
53.009464 91.435 -14.1744
53.393593 91.425 -14.2709
53.780506 91.409 -14.4509
54.170223 91.380 -14.6876
54.562763 91.336 -14.9213
54.958145 91.282 -15.0844
55.356396 91.230 -15.1506
55.757530 91.194 -15.1720
56.161572 91.176 -15.2548
56.568542 91.161 -15.4637
56.978462 91.134 -15.7402
57.391350 91.097 -15.9403
57.807232 91.075 -15.9987
58.226128 91.092 -16.0632
58.648056 91.140 -16.4098
59.073048 91.168 -17.1747
59.501114 91.119 -18.1339
59.932281 90.982 -18.7738
60.366577 90.814 -18.6752
60.804020 90.709 -17.9086
61.244629 90.718 -17.0114
61.688435 90.800 -16.5430
62.135452 90.872 -16.6118
62.585712 90.884 -16.8729
63.039234 90.853 -16.9570
63.496040 90.824 -16.8032
63.956161 90.819 -16.6177
64.419617 90.819 -16.5798
64.886421 90.803 -16.6532
65.356621 90.768 -16.7020
65.830215 90.729 -16.6728
66.307251 90.700 -16.6351
66.787743 90.676 -16.6580
67.271713 90.650 -16.7371
67.759193 90.623 -16.8380
68.250206 90.598 -16.9628
68.744774 90.572 -17.1307
69.242928 90.538 -17.3163
69.744690 90.496 -17.4526
70.250084 90.455 -17.4899
70.759148 90.425 -17.4450
71.271896 90.409 -17.3790
71.788361 90.400 -17.3485
72.308571 90.393 -17.3677
72.832550 90.379 -17.4182
73.360321 90.357 -17.4703
73.891922 90.329 -17.4994
74.427376 90.298 -17.4929
74.966705 90.270 -17.4675
75.509949 90.248 -17.4728
76.057121 90.225 -17.5464
76.608261 90.192 -17.6623
77.163399 90.149 -17.7458
77.722557 90.108 -17.7511
78.285767 90.079 -17.7109
78.853058 90.062 -17.6915
79.424461 90.052 -17.7234
80.000000 90.043 -17.8109
80.579712 90.029 -17.9482
81.163628 90.003 -18.0964
81.751770 89.964 -18.1738
82.344177 89.924 -18.1356
82.940880 89.896 -18.0372
83.541901 89.878 -17.9733
84.147285 89.860 -17.9738
84.757050 89.835 -17.9889
85.371231 89.808 -17.9871
85.989868 89.783 -17.9910
86.612984 89.755 -18.0096
87.240616 89.721 -17.9921
87.872803 89.693 -17.9124
88.509560 89.677 -17.8386
89.150940 89.662 -17.8211
89.796967 89.641 -17.8011
90.447670 89.623 -17.7327
91.103088 89.615 -17.7038
91.763260 89.604 -17.7877
92.428215 89.574 -17.8953
93.097992 89.536 -17.9203
93.772614 89.507 -17.9014
94.452133 89.482 -17.9225
95.136566 89.453 -17.9574
95.825966 89.423 -17.9512
96.520363 89.401 -17.9255
97.219788 89.382 -17.9146
97.924286 89.361 -17.8986
98.633881 89.339 -17.8468
99.348625 89.318 -17.7600
100.068542 89.303 -17.6665
100.793686 89.288 -17.6157
101.524078 89.265 -17.6134
102.259766 89.232 -17.5748
103.000778 89.205 -17.4758
103.747162 89.193 -17.4366
104.498962 89.177 -17.5013
105.256203 89.150 -17.5560
106.018929 89.125 -17.5583
106.787186 89.103 -17.5562
107.561012 89.079 -17.5352
108.340446 89.055 -17.4929
109.125526 89.025 -17.4610
109.916290 88.985 -17.3850
110.712791 88.947 -17.2409
111.515060 88.920 -17.1301
112.323143 88.894 -17.1005
113.137085 88.868 -17.0980
113.956924 88.849 -17.1055
114.782700 88.837 -17.1449
115.614464 88.827 -17.1761
116.452255 88.821 -17.1671
117.296112 88.811 -17.1377
118.146095 88.790 -16.9218
119.002228 88.807 -16.5008
119.864563 88.868 -16.4590
120.733154 88.863 -16.9248
121.608040 88.767 -17.1721
122.489258 88.674 -17.0278
123.376869 88.612 -16.8626
124.270905 88.566 -16.7181
125.171425 88.545 -16.6243
126.078468 88.534 -16.6394
126.992081 88.520 -16.6388
127.912323 88.514 -16.5824
128.839233 88.510 -16.5322
129.772842 88.497 -16.4775
130.713242 88.474 -16.3911
131.660431 88.445 -16.2930
132.614502 88.413 -16.1852
133.575485 88.388 -16.1207
134.543427 88.358 -16.1301
135.518387 88.326 -16.0887
136.500412 88.311 -15.9976
137.489548 88.307 -15.9777
138.485855 88.295 -15.9882
139.489380 88.272 -15.9611
140.500168 88.243 -15.8861
141.518295 88.213 -15.7604
142.543793 88.190 -15.6370
143.576721 88.173 -15.5677
144.617142 88.156 -15.5552
145.665100 88.135 -15.5687
146.720642 88.110 -15.5291
147.783844 88.090 -15.4373
148.854752 88.074 -15.3066
149.933411 88.063 -15.1855
151.019897 88.047 -15.1161
152.114243 88.027 -15.0496
153.216522 88.006 -15.0088
154.326797 87.986 -14.9666
155.445114 87.974 -14.9248
156.571533 87.965 -14.8972
157.706116 87.957 -14.8601
158.848923 87.943 -14.8110
160.000000 87.921 -14.7122
161.159424 87.900 -14.5897
162.327255 87.876 -14.5065
163.503540 87.845 -14.4332
164.688354 87.820 -14.3350
165.881760 87.805 -14.2679
167.083801 87.787 -14.2061
168.294571 87.769 -14.0570
169.514099 87.759 -13.8612
170.742462 87.751 -13.6874
171.979736 87.738 -13.5683
173.225967 87.714 -13.4905
174.481232 87.686 -13.4148
175.745605 87.663 -13.3460
177.019119 87.646 -13.3575
178.301880 87.614 -13.4152
179.593933 87.569 -13.3480
180.895340 87.538 -13.1384
182.206177 87.527 -12.9642
183.526520 87.523 -12.9005
184.856430 87.505 -12.9059
186.195984 87.474 -12.8103
187.545227 87.452 -12.5959
188.904266 87.445 -12.3644
190.273132 87.450 -12.1850
191.651932 87.457 -12.0966
193.040726 87.453 -12.0690
194.439575 87.434 -12.0032
195.848572 87.411 -11.8716
197.267761 87.386 -11.7306
198.697250 87.355 -11.5967
200.137085 87.324 -11.4650
201.587372 87.301 -11.3448
203.048157 87.290 -11.2344
204.519531 87.292 -11.1816
206.001556 87.288 -11.2150
207.494324 87.264 -11.1988
208.997925 87.238 -11.0743
210.512405 87.217 -10.9675
212.037857 87.191 -10.8509
213.574371 87.169 -10.6951
215.122025 87.155 -10.5150
216.680893 87.150 -10.3373
218.251053 87.149 -10.2168
219.832581 87.138 -10.1501
221.425583 87.114 -10.0282
223.030121 87.089 -9.8491
224.646286 87.067 -9.6937
226.274170 87.042 -9.6017
227.913849 87.016 -9.5321
229.565399 87.002 -9.4288
231.228928 87.005 -9.2944
232.904510 87.014 -9.1519
234.592224 87.013 -9.0098
236.292191 86.989 -8.9000
238.004456 86.937 -8.8154
239.729126 86.872 -8.6750
241.466309 86.840 -8.4794
243.216080 86.845 -8.4240
244.978516 86.856 -8.4160
246.753738 86.858 -8.3077
248.541809 86.849 -8.0751
250.342850 86.832 -7.8483
252.156937 86.802 -7.7213
253.984161 86.769 -7.6544
255.824646 86.748 -7.5961
257.678467 86.740 -7.4894
259.545685 86.739 -7.3241
261.426483 86.734 -7.1240
263.320862 86.719 -6.9340
265.229004 86.700 -6.7404
267.150970 86.692 -6.6002
269.086853 86.685 -6.5718
271.036774 86.670 -6.4960
273.000824 86.662 -6.3223
274.979095 86.656 -6.1129
276.971710 86.649 -5.8863
278.978760 86.642 -5.7045
281.000336 86.629 -5.5951
283.036591 86.608 -5.5132
285.087585 86.585 -5.4062
287.153442 86.567 -5.2943
289.234283 86.553 -5.2123
291.330200 86.541 -5.1166
293.441284 86.535 -4.9749
295.567688 86.533 -4.7783
297.709503 86.531 -4.5709
299.866821 86.528 -4.4164
302.039795 86.515 -4.3129
304.228485 86.497 -4.1710
306.433044 86.478 -3.9711
308.653595 86.461 -3.7516
310.890228 86.446 -3.5437
313.143066 86.438 -3.3555
315.412231 86.437 -3.1888
317.697845 86.437 -3.0544
320.000000 86.435 -2.9648
322.318848 86.427 -2.8757
324.654510 86.411 -2.6818
327.007080 86.399 -2.3717
329.376709 86.393 -2.1223
331.763519 86.385 -1.9736
334.167603 86.383 -1.8447
336.589142 86.387 -1.7025
339.028198 86.387 -1.5612
341.484924 86.375 -1.4042
343.959473 86.357 -1.2323
346.451935 86.332 -1.0479
348.962463 86.305 -0.8430
351.491211 86.286 -0.6546
354.038239 86.271 -0.5278
356.603760 86.249 -0.4537
359.187866 86.224 -0.3532
361.790680 86.214 -0.1512
364.412354 86.224 0.1027
367.053040 86.229 0.3522
369.712860 86.222 0.5782
372.391968 86.212 0.7539
375.090454 86.209 0.9105
377.808533 86.212 1.0818
380.546265 86.211 1.2462
383.303864 86.194 1.4202
386.081451 86.173 1.6525
388.879150 86.161 1.9065
391.697144 86.150 2.1429
394.535522 86.127 2.3543
397.394501 86.099 2.5775
400.274170 86.091 2.8196
403.174744 86.102 2.9945
406.096313 86.104 3.1302
409.039062 86.094 3.2937
412.003113 86.084 3.4659
414.988647 86.082 3.6735
417.995850 86.090 3.9801
421.024811 86.099 4.3019
424.075714 86.093 4.4847
427.148743 86.077 4.5985
430.244049 86.065 4.7501
433.361786 86.056 4.8726
436.502106 86.040 4.9712
439.665161 86.027 5.2001
442.851166 86.021 5.5062
446.060242 86.015 5.7289
449.292572 86.005 5.9194
452.548340 85.991 6.1883
455.827698 85.975 6.4578
459.130798 85.957 6.6762
462.457855 85.944 6.8687
465.809021 85.939 7.0463
469.184448 85.940 7.2540
472.584381 85.940 7.4957
476.008911 85.941 7.7062
479.458252 85.946 7.8668
482.932617 85.942 8.0464
486.432159 85.929 8.3245
489.957031 85.913 8.6506
493.507477 85.898 8.9751
497.083618 85.891 9.2441
500.685699 85.895 9.4738
504.313873 85.899 9.7119
507.968323 85.890 10.0032
511.649292 85.878 10.3295
515.356934 85.876 10.5908
519.091370 85.883 10.7594
522.852966 85.887 10.9413
526.641724 85.884 11.1747
530.458008 85.880 11.3888
534.301941 85.874 11.5945
538.173706 85.865 11.7920
542.073547 85.853 12.0471
546.001648 85.850 12.4122
549.958191 85.856 12.7118
553.943420 85.857 12.9147
557.957520 85.856 13.1465
562.000671 85.867 13.4517
566.073181 85.880 13.7748
570.175171 85.875 14.0328
574.306885 85.867 14.2689
578.468567 85.872 14.5294
582.660400 85.881 14.7638
586.882568 85.887 14.9893
591.135376 85.890 15.2625
595.419006 85.888 15.5389
599.733643 85.881 15.8116
604.079590 85.889 16.1117
608.456970 85.909 16.4113
612.866089 85.918 16.7061
617.307190 85.913 16.9823
621.780457 85.911 17.2577
626.286133 85.919 17.5662
630.824463 85.937 17.8546
635.395691 85.955 18.0282
640.000000 85.968 18.1351
644.637695 85.985 18.2750
649.309021 86.000 18.5040
654.014160 86.014 18.6825
658.753418 86.030 18.7246
663.527039 86.051 18.7755
668.335205 86.079 18.7699
673.178284 86.095 18.5613
678.056396 86.092 18.1572
682.969849 86.061 17.5873
687.918945 85.959 16.9978
692.903870 85.759 16.6935
697.924927 85.488 17.0527
702.982422 85.235 18.2469
708.076477 85.101 19.9920
713.207520 85.085 21.7780
718.375732 85.133 23.2462
723.581360 85.212 24.3175
728.824707 85.299 25.0377
734.106079 85.377 25.5922
739.425720 85.444 26.0776
744.783936 85.501 26.5039
750.180908 85.550 26.9409
755.617065 85.599 27.3735
761.092529 85.635 27.7429
766.607727 85.649 28.0923
772.162903 85.652 28.5074
777.758301 85.659 29.0352
783.394287 85.680 29.5504
789.071045 85.718 29.8780
794.789001 85.754 30.2013
800.548340 85.784 30.5952
806.349487 85.812 30.9786
812.192627 85.836 31.3681
818.078125 85.861 31.7946
824.006226 85.889 32.2194
829.977295 85.920 32.6208
835.991699 85.956 33.0578
842.049622 85.980 33.5293
848.151428 85.996 33.9536
854.297485 86.026 34.3444
860.488098 86.062 34.7690
866.723572 86.091 35.1942
873.004211 86.110 35.5955
879.330322 86.139 36.0264
885.702332 86.175 36.4497
892.120483 86.209 36.8018
898.585144 86.248 37.1628
905.096680 86.289 37.5773
911.655396 86.326 38.0216
918.261597 86.365 38.4750
924.915710 86.411 38.9186
931.618042 86.451 39.3243
938.368896 86.482 39.6750
945.168762 86.517 40.0309
952.017822 86.556 40.4310
958.916504 86.597 40.8346
965.865234 86.642 41.2354
972.864319 86.692 41.6354
979.914062 86.738 42.0414
987.014954 86.779 42.4311
994.167236 86.817 42.7933
1001.371399 86.861 43.1686
1008.627747 86.907 43.5434
1015.936646 86.961 43.9137
1023.298584 87.016 44.2808
1030.713867 87.063 44.6143
1038.182739 87.108 44.9324
1045.705933 87.149 45.2374
1053.283447 87.194 45.5313
1060.916016 87.243 45.8490
1068.603882 87.292 46.1708
1076.347412 87.345 46.4491
1084.147095 87.406 46.7318
1092.003296 87.463 47.0352
1099.916382 87.521 47.2831
1107.886841 87.581 47.5323
1115.915039 87.638 47.7900
1124.001343 87.690 48.0343
1132.146362 87.746 48.2580
1140.350342 87.810 48.4791
1148.613770 87.872 48.7077
1156.937134 87.930 48.9578
1165.320801 87.989 49.1916
1173.765137 88.044 49.4158
1182.270752 88.098 49.6557
1190.838013 88.159 49.8595
1199.467285 88.221 50.0550
1208.159180 88.284 50.2630
1216.913940 88.347 50.4538
1225.732178 88.407 50.6344
1234.614380 88.462 50.8185
1243.560913 88.520 51.0082
1252.572266 88.583 51.2034
1261.648926 88.646 51.4036
1270.791382 88.703 51.6025
1280.000000 88.759 51.8061
1289.275391 88.817 52.0198
1298.618042 88.874 52.1983
1308.028320 88.929 52.3640
1317.506836 88.981 52.5186
1327.054077 89.034 52.6630
1336.670410 89.091 52.8093
1346.356567 89.141 52.9912
1356.112793 89.178 53.1986
1365.939697 89.206 53.3929
1375.837891 89.245 53.5535
1385.807739 89.292 53.7138
1395.849854 89.340 53.8840
1405.964844 89.387 54.0694
1416.152954 89.432 54.2709
1426.415039 89.482 54.4937
1436.751465 89.535 54.7384
1447.162720 89.586 54.9814
1457.649414 89.637 55.1982
1468.212158 89.692 55.3902
1478.851440 89.741 55.5550
1489.567871 89.788 55.7195
1500.361816 89.841 55.9032
1511.234131 89.888 56.1043
1522.185059 89.932 56.3335
1533.215454 89.978 56.5619
1544.325806 90.027 56.7810
1555.516602 90.079 57.0034
1566.788574 90.131 57.2148
1578.142090 90.179 57.4265
1589.578003 90.225 57.6406
1601.096680 90.269 57.8571
1612.698975 90.314 58.0588
1624.385254 90.360 58.2789
1636.156250 90.406 58.5085
1648.012451 90.450 58.7548
1659.954590 90.496 58.9938
1671.983398 90.543 59.2167
1684.099243 90.588 59.4418
1696.302856 90.634 59.6894
1708.594971 90.681 59.9384
1720.976196 90.726 60.2180
1733.447144 90.770 60.5172
1746.008423 90.815 60.7822
1758.660645 90.864 61.0583
1771.404663 90.917 61.3700
1784.240967 90.977 61.7133
1797.170288 91.041 62.0948
1810.193359 91.108 62.4842
1823.310791 91.182 62.8355
1836.523193 91.261 63.1253
1849.831421 91.348 63.3755
1863.236084 91.435 63.5988
1876.737793 91.525 63.7494
1890.337524 91.612 63.8452
1904.035645 91.691 63.9309
1917.833008 91.764 64.0140
1931.730469 91.834 64.0861
1945.728638 91.902 64.1510
1959.828125 91.965 64.2026
1974.029907 92.023 64.2513
1988.334473 92.081 64.3452
2002.742798 92.139 64.4526
2017.255493 92.197 64.5365
2031.873291 92.255 64.6157
2046.597168 92.313 64.7008
2061.427734 92.371 64.7885
2076.365479 92.430 64.8732
2091.411865 92.488 64.9640
2106.566895 92.543 65.0713
2121.832031 92.598 65.1826
2137.207764 92.653 65.2757
2152.694824 92.712 65.3504
2168.294189 92.770 65.4558
2184.006592 92.827 65.5922
2199.832764 92.883 65.7278
2215.773682 92.933 65.8696
2231.830078 92.983 66.0089
2248.002686 93.040 66.1530
2264.292725 93.107 66.3193
2280.700684 93.177 66.4947
2297.227539 93.251 66.6552
2313.874268 93.329 66.7930
2330.641602 93.413 66.8909
2347.530273 93.498 66.9397
2364.541504 93.580 66.9464
2381.676025 93.656 66.9119
2398.934570 93.728 66.8525
2416.318359 93.798 66.7756
2433.827881 93.861 66.6866
2451.464355 93.916 66.5900
2469.228760 93.970 66.5016
2487.121826 94.028 66.4351
2505.144531 94.089 66.3855
2523.297852 94.150 66.3286
2541.582764 94.208 66.2621
2560.000000 94.266 66.1795
2578.550781 94.322 66.0693
2597.236084 94.373 65.9509
2616.056641 94.422 65.8530
2635.013672 94.470 65.7482
2654.108154 94.514 65.6383
2673.340820 94.555 65.5412
2692.713135 94.596 65.4438
2712.225586 94.633 65.3656
2731.879395 94.667 65.3229
2751.675781 94.704 65.3063
2771.615479 94.744 65.3004
2791.699707 94.790 65.2943
2811.929688 94.842 65.2824
2832.305908 94.900 65.2579
2852.830078 94.962 65.1767
2873.502930 95.020 65.0443
2894.325439 95.074 64.8590
2915.298828 95.127 64.6334
2936.424316 95.175 64.3906
2957.702881 95.214 64.1273
2979.135742 95.245 63.8503
3000.723633 95.271 63.5923
3022.468262 95.291 63.3507
3044.370117 95.307 63.1296
3066.430908 95.318 62.9273
3088.651611 95.329 62.7606
3111.033203 95.339 62.6296
3133.577148 95.350 62.5368
3156.284180 95.362 62.5095
3179.156006 95.379 62.5115
3202.193359 95.401 62.5015
3225.397949 95.429 62.4965
3248.770508 95.465 62.5017
3272.312500 95.512 62.4778
3296.024902 95.567 62.4162
3319.909180 95.622 62.3036
3343.966797 95.677 62.1157
3368.198486 95.733 61.8477
3392.605713 95.788 61.5051
3417.189941 95.835 61.1182
3441.952393 95.874 60.7005
3466.894287 95.905 60.2628
3492.016846 95.931 59.8191
3517.321289 95.951 59.3596
3542.809326 95.964 58.9000
3568.481934 95.969 58.4635
3594.340576 95.970 58.0416
3620.386719 95.970 57.6260
3646.621582 95.966 57.2111
3673.046387 95.958 56.7928
3699.662842 95.950 56.3854
3726.472168 95.939 55.9937
3753.475586 95.924 55.6089
3780.675049 95.904 55.2069
3808.071289 95.883 54.7890
3835.666016 95.860 54.3692
3863.460938 95.832 53.9544
3891.457275 95.799 53.5431
3919.656250 95.759 53.1275
3948.059814 95.714 52.6941
3976.668945 95.663 52.2558
4005.485596 95.610 51.8307
4034.510986 95.552 51.4074
