* Measurement data measured by REW V5.20.13
* Source: Microphone (Realtek(R) Audio), MICROPHONE (Master Volume), L, volume: 0.710. Timing signal peak level -37.4 dBFS, measurement signal peak level -37.4 dBFS
* Format: 2M Log Swept Sine, 1 sweep at -12.0 dBFS using an acoustic timing reference
* Dated: Sep 7, 2023 3:38:48 PM
* REW Settings:
*  C-weighting compensation: Off
*  Target level: 75.0 dB
* Note: ; Delay -0.0558 ms (-19 mm, -0.75 in) using estimated IR delay relative to Acoustic reference played from HEADPHONE L with no timing offset Clock adjustment: 120.2 ppm
* Measurement: KZ Krila UUDU L
* Smoothing: 1/48 octave
* Frequency Step: 1/96 octave
* Start Frequency: 20.000 Hz
*
* Freq(Hz) SPL(dB) Phase(degrees)
20.000000 92.903 5.6989
20.144928 92.900 5.4695
20.290907 92.896 5.2267
20.437943 92.891 4.9753
20.586044 92.884 4.7244
20.735220 92.875 4.4720
20.885475 92.864 4.2217
21.036821 92.851 3.9732
21.189262 92.837 3.7300
21.342808 92.821 3.4988
21.497467 92.803 3.2781
21.653246 92.786 3.0709
21.810154 92.768 2.8797
21.968201 92.751 2.6965
22.127390 92.735 2.5166
22.287735 92.721 2.3419
22.449242 92.707 2.1717
22.611917 92.694 2.0060
22.775772 92.682 1.8394
22.940815 92.671 1.6727
23.107054 92.661 1.5010
23.274498 92.650 1.3216
23.443153 92.640 1.1388
23.613033 92.630 0.9548
23.784142 92.619 0.7681
23.956491 92.609 0.5778
24.130091 92.598 0.3848
24.304947 92.587 0.1896
24.481071 92.575 -0.0065
24.658470 92.562 -0.1984
24.837156 92.548 -0.3870
25.017136 92.533 -0.5734
25.198421 92.518 -0.7566
25.381020 92.503 -0.9320
25.564941 92.488 -1.0997
25.750195 92.473 -1.2581
25.936790 92.459 -1.4081
26.124741 92.447 -1.5586
26.314051 92.437 -1.7094
26.504732 92.428 -1.8639
26.696796 92.421 -2.0248
26.890253 92.415 -2.2010
27.085112 92.410 -2.3936
27.281382 92.404 -2.6096
27.479073 92.396 -2.8427
27.678198 92.385 -3.0902
27.878765 92.370 -3.3434
28.080786 92.351 -3.5996
28.284271 92.328 -3.8423
28.489231 92.302 -4.0679
28.695675 92.273 -4.2613
28.903616 92.244 -4.4231
29.113064 92.216 -4.5533
29.324028 92.192 -4.6593
29.536524 92.172 -4.7452
29.750557 92.157 -4.8306
29.966141 92.146 -4.9210
30.183289 92.137 -5.0371
30.402010 92.130 -5.1783
30.622314 92.122 -5.3477
30.844217 92.111 -5.5359
31.067726 92.098 -5.7398
31.292856 92.081 -5.9421
31.519617 92.061 -6.1360
31.748020 92.040 -6.3091
31.978081 92.019 -6.4636
32.209808 91.999 -6.6016
32.443211 91.982 -6.7332
32.678310 91.967 -6.8685
32.915108 91.955 -7.0149
33.153625 91.942 -7.1827
33.393871 91.928 -7.3669
33.635857 91.911 -7.5641
33.879597 91.892 -7.7622
34.125103 91.871 -7.9553
34.372387 91.848 -8.1376
34.621464 91.823 -8.3015
34.872345 91.798 -8.4486
35.125042 91.773 -8.5798
35.379574 91.749 -8.6986
35.635948 91.727 -8.8062
35.894180 91.706 -8.9042
36.154285 91.688 -8.9973
36.416275 91.672 -9.0923
36.680161 91.658 -9.1960
36.945961 91.646 -9.3161
37.213688 91.634 -9.4610
37.483353 91.621 -9.6241
37.754974 91.605 -9.7966
38.028561 91.585 -9.9650
38.304131 91.564 -10.1158
38.581699 91.544 -10.2501
38.861279 91.528 -10.3772
39.142883 91.515 -10.5182
39.426529 91.505 -10.7008
39.712231 91.492 -10.9308
40.000000 91.471 -11.1953
40.289856 91.439 -11.4652
40.581814 91.396 -11.6886
40.875885 91.348 -11.8230
41.172089 91.303 -11.8635
41.470440 91.267 -11.8322
41.770950 91.245 -11.7748
42.073643 91.237 -11.7505
42.378525 91.234 -11.7939
42.685616 91.230 -11.8956
42.994934 91.222 -12.0248
43.306492 91.208 -12.1478
43.620308 91.193 -12.2440
43.936401 91.180 -12.3214
44.254780 91.171 -12.4116
44.575470 91.162 -12.5346
44.898483 91.147 -12.6802
45.223835 91.125 -12.8139
45.551544 91.098 -12.8986
45.881630 91.072 -12.9212
46.214108 91.056 -12.9113
46.548996 91.051 -12.9221
46.886307 91.051 -13.0144
47.226067 91.046 -13.2002
47.568283 91.029 -13.4386
47.912983 90.995 -13.6614
48.260181 90.952 -13.8149
48.609894 90.908 -13.8883
48.962143 90.871 -13.9136
49.316940 90.842 -13.9408
49.674313 90.817 -14.0038
50.034271 90.792 -14.1057
50.396843 90.764 -14.2243
50.762039 90.733 -14.3320
51.129883 90.702 -14.4138
51.500389 90.676 -14.4763
51.873581 90.657 -14.5461
52.249481 90.644 -14.6567
52.628101 90.632 -14.8248
53.009464 90.613 -15.0328
53.393593 90.583 -15.2268
53.780506 90.546 -15.3434
54.170223 90.513 -15.3584
54.562763 90.494 -15.3144
54.958145 90.488 -15.2919
55.356396 90.485 -15.3384
55.757530 90.474 -15.4195
56.161572 90.454 -15.4536
56.568542 90.434 -15.4086
56.978462 90.424 -15.3552
57.391350 90.416 -15.3920
57.807232 90.385 -15.4955
58.226128 90.323 -15.4756
58.648056 90.255 -15.1345
59.073048 90.230 -14.5071
59.501114 90.282 -13.9509
59.932281 90.380 -13.8986
60.366577 90.453 -14.4678
60.804020 90.440 -15.3390
61.244629 90.343 -16.0262
61.688435 90.214 -16.2354
62.135452 90.117 -16.0718
62.585712 90.075 -15.8846
63.039234 90.060 -15.9097
63.496040 90.037 -16.1171
63.956161 89.996 -16.3394
64.419617 89.951 -16.4742
64.886421 89.914 -16.5455
65.356621 89.888 -16.6110
65.830215 89.866 -16.6849
66.307251 89.846 -16.7446
66.787743 89.829 -16.7812
67.271713 89.817 -16.8164
67.759193 89.807 -16.8784
68.250206 89.791 -16.9667
68.744774 89.762 -17.0328
69.242928 89.727 -17.0072
69.744690 89.700 -16.8842
70.250084 89.693 -16.7749
70.759148 89.694 -16.8186
71.271896 89.677 -17.0118
71.788361 89.629 -17.1794
72.308571 89.571 -17.1708
72.832550 89.530 -17.0363
73.360321 89.512 -16.9507
73.891922 89.497 -16.9793
74.427376 89.474 -17.0327
74.966705 89.451 -17.0420
75.509949 89.438 -17.0630
76.057121 89.426 -17.1637
76.608261 89.402 -17.2959
77.163399 89.366 -17.3607
77.722557 89.333 -17.3431
78.285767 89.308 -17.3126
78.853058 89.282 -17.3080
79.424461 89.250 -17.2924
80.000000 89.218 -17.2299
80.579712 89.191 -17.1471
81.163628 89.170 -17.0901
81.751770 89.150 -17.0669
82.344177 89.127 -17.0632
82.940880 89.104 -17.0748
83.541901 89.079 -17.0991
84.147285 89.053 -17.1237
84.757050 89.028 -17.1497
85.371231 89.001 -17.1879
85.989868 88.969 -17.2150
86.612984 88.935 -17.1818
87.240616 88.909 -17.0988
87.872803 88.892 -17.0366
88.509560 88.876 -17.0343
89.150940 88.854 -17.0490
89.796967 88.828 -17.0326
90.447670 88.808 -16.9908
91.103088 88.794 -16.9758
91.763260 88.779 -17.0261
92.428215 88.753 -17.1010
93.097992 88.719 -17.1067
93.772614 88.692 -17.0275
94.452133 88.676 -16.9570
95.136566 88.661 -16.9298
95.825966 88.642 -16.8855
96.520363 88.627 -16.8350
97.219788 88.612 -16.8365
97.924286 88.585 -16.8431
98.633881 88.553 -16.7951
99.348625 88.524 -16.7435
100.068542 88.489 -16.6979
100.793686 88.453 -16.5992
101.524078 88.427 -16.5116
102.259766 88.400 -16.5016
103.000778 88.365 -16.4695
103.747162 88.340 -16.3807
104.498962 88.328 -16.3298
105.256203 88.318 -16.3000
106.018929 88.320 -16.2737
106.787186 88.325 -16.3445
107.561012 88.314 -16.4517
108.340446 88.291 -16.4708
109.125526 88.264 -16.4601
109.916290 88.221 -16.4054
110.712791 88.172 -16.2027
111.515060 88.140 -15.9708
112.323143 88.112 -15.8531
113.137085 88.076 -15.7827
113.956924 88.043 -15.7046
114.782700 88.021 -15.6544
115.614464 88.010 -15.6351
116.452255 88.014 -15.6470
117.296112 88.025 -15.7008
118.146095 88.040 -15.7208
119.002228 88.075 -15.7729
119.864563 88.095 -16.1122
120.733154 88.032 -16.4526
121.608040 87.928 -16.2354
122.489258 87.871 -15.7073
123.376869 87.843 -15.3197
124.270905 87.818 -15.0251
125.171425 87.806 -14.8161
126.078468 87.802 -14.7974
126.992081 87.782 -14.9098
127.912323 87.748 -14.9655
128.839233 87.720 -14.9115
129.772842 87.703 -14.8589
130.713242 87.682 -14.8134
131.660431 87.656 -14.7251
132.614502 87.630 -14.5805
133.575485 87.615 -14.4332
134.543427 87.605 -14.3871
135.518387 87.586 -14.4068
136.500412 87.561 -14.4042
137.489548 87.537 -14.3533
138.485855 87.519 -14.2741
139.489380 87.503 -14.1929
140.500168 87.488 -14.0972
141.518295 87.474 -14.0040
142.543793 87.463 -13.9010
143.576721 87.457 -13.8342
144.617142 87.442 -13.8246
145.665100 87.417 -13.7400
146.720642 87.402 -13.5896
147.783844 87.391 -13.4877
148.854752 87.369 -13.4124
149.933411 87.339 -13.2758
151.019897 87.315 -13.0988
152.114243 87.300 -12.9481
153.216522 87.291 -12.8739
154.326797 87.277 -12.8403
155.445114 87.261 -12.7632
156.571533 87.249 -12.6445
157.706116 87.238 -12.5027
158.848923 87.228 -12.3702
160.000000 87.210 -12.2728
161.159424 87.184 -12.1639
162.327255 87.158 -12.0848
163.503540 87.127 -12.0202
164.688354 87.102 -11.9076
165.881760 87.093 -11.8116
167.083801 87.084 -11.7436
168.294571 87.076 -11.6301
169.514099 87.072 -11.5211
170.742462 87.063 -11.4447
171.979736 87.047 -11.4001
173.225967 87.021 -11.3835
174.481232 86.991 -11.3086
175.745605 86.976 -11.1746
177.019119 86.976 -11.0554
178.301880 86.981 -10.9698
179.593933 86.978 -10.9072
180.895340 86.955 -10.8193
182.206177 86.921 -10.6160
183.526520 86.891 -10.4125
184.856430 86.863 -10.2509
186.195984 86.844 -10.1397
187.545227 86.832 -10.0798
188.904266 86.826 -10.0214
190.273132 86.818 -9.9586
191.651932 86.801 -9.8152
193.040726 86.782 -9.6169
194.439575 86.757 -9.4060
195.848572 86.735 -9.1970
197.267761 86.722 -9.0545
198.697250 86.710 -9.0141
200.137085 86.689 -8.9766
201.587372 86.669 -8.8486
203.048157 86.663 -8.6811
204.519531 86.659 -8.5663
206.001556 86.648 -8.4399
207.494324 86.638 -8.2693
208.997925 86.631 -8.1132
210.512405 86.620 -7.9973
212.037857 86.600 -7.9033
213.574371 86.574 -7.7571
215.122025 86.558 -7.5740
216.680893 86.547 -7.4430
218.251053 86.534 -7.3682
219.832581 86.514 -7.3273
221.425583 86.494 -7.2890
223.030121 86.479 -7.2266
224.646286 86.475 -7.1104
226.274170 86.478 -6.9882
227.913849 86.468 -6.8855
229.565399 86.441 -6.7522
231.228928 86.412 -6.5849
232.904510 86.397 -6.4286
234.592224 86.392 -6.2703
236.292191 86.390 -6.0397
238.004456 86.383 -5.7308
239.729126 86.374 -5.3999
241.466309 86.371 -5.2693
243.216080 86.348 -5.3759
244.978516 86.311 -5.4473
246.753738 86.288 -5.3763
248.541809 86.282 -5.2346
250.342850 86.279 -5.0476
252.156937 86.272 -4.8502
253.984161 86.253 -4.6423
255.824646 86.230 -4.4256
257.678467 86.213 -4.2640
259.545685 86.200 -4.1454
261.426483 86.191 -4.0366
263.320862 86.176 -3.8962
265.229004 86.161 -3.7147
267.150970 86.152 -3.5865
269.086853 86.147 -3.5197
271.036774 86.148 -3.3989
273.000824 86.157 -3.2158
274.979095 86.154 -3.0480
276.971710 86.132 -2.9017
278.978760 86.105 -2.7880
281.000336 86.087 -2.7032
283.036591 86.084 -2.5739
285.087585 86.093 -2.3945
287.153442 86.092 -2.1813
289.234283 86.076 -1.9311
291.330200 86.058 -1.6989
293.441284 86.048 -1.5237
295.567688 86.047 -1.3622
297.709503 86.045 -1.2137
299.866821 86.032 -1.0283
302.039795 86.028 -0.8826
304.228485 86.024 -0.8302
306.433044 86.018 -0.7100
308.653595 86.013 -0.5081
310.890228 86.005 -0.3026
313.143066 85.994 -0.1466
315.412231 85.985 0.0131
317.697845 85.986 0.1932
320.000000 85.987 0.3916
322.318848 85.987 0.5715
324.654510 85.976 0.7021
327.007080 85.959 0.8575
329.376709 85.949 1.0531
331.763519 85.946 1.2600
334.167603 85.943 1.4568
336.589142 85.937 1.6042
339.028198 85.922 1.6968
341.484924 85.909 1.8525
343.959473 85.910 2.0853
346.451935 85.909 2.3817
348.962463 85.902 2.6827
351.491211 85.895 2.8819
354.038239 85.891 3.0215
356.603760 85.879 3.2049
359.187866 85.855 3.4622
361.790680 85.836 3.6604
364.412354 85.827 3.7123
367.053040 85.829 3.7819
369.712860 85.841 3.9161
372.391968 85.846 4.0865
375.090454 85.837 4.2915
377.808533 85.823 4.5284
380.546265 85.820 4.7408
383.303864 85.821 4.9338
386.081451 85.819 5.1644
388.879150 85.806 5.4285
391.697144 85.785 5.6595
394.535522 85.766 5.8254
397.394501 85.755 5.9690
400.274170 85.755 6.1291
403.174744 85.757 6.2909
406.096313 85.753 6.4630
409.039062 85.737 6.6503
412.003113 85.716 6.8647
414.988647 85.705 7.1360
417.995850 85.699 7.4774
421.024811 85.691 7.8265
424.075714 85.691 8.0702
427.148743 85.693 8.2108
430.244049 85.690 8.3782
433.361786 85.689 8.5492
436.502106 85.691 8.6876
439.665161 85.695 8.8467
442.851166 85.695 9.0422
446.060242 85.685 9.3285
449.292572 85.673 9.6266
452.548340 85.657 9.8001
455.827698 85.644 9.9186
459.130798 85.642 10.0709
462.457855 85.641 10.2653
465.809021 85.633 10.5483
469.184448 85.626 10.9216
472.584381 85.622 11.2417
476.008911 85.622 11.3618
479.458252 85.630 11.3582
482.932617 85.640 11.5024
486.432159 85.647 11.8297
489.957031 85.642 12.1772
493.507477 85.638 12.4725
497.083618 85.640 12.7589
500.685699 85.641 13.0854
504.313873 85.637 13.3812
507.968323 85.637 13.5846
511.649292 85.645 13.7951
515.356934 85.652 14.0936
519.091370 85.653 14.3805
522.852966 85.649 14.6226
526.641724 85.647 14.8678
530.458008 85.648 15.1161
534.301941 85.648 15.3530
538.173706 85.657 15.6285
542.073547 85.670 15.9086
546.001648 85.666 16.1368
549.958191 85.658 16.3770
553.943420 85.661 16.6699
557.957520 85.670 16.9636
562.000671 85.676 17.2430
566.073181 85.677 17.5261
570.175171 85.680 17.7993
574.306885 85.689 18.0642
578.468567 85.695 18.3087
582.660400 85.690 18.5208
586.882568 85.686 18.7660
591.135376 85.694 19.0831
595.419006 85.706 19.3771
599.733643 85.717 19.6185
604.079590 85.733 19.8644
608.456970 85.754 20.1086
612.866089 85.767 20.3850
617.307190 85.785 20.6177
621.780457 85.807 20.7798
626.286133 85.826 21.0194
630.824463 85.845 21.2986
635.395691 85.871 21.4731
640.000000 85.903 21.4718
644.637695 85.932 21.3417
649.309021 85.953 21.1831
654.014160 85.962 20.8651
658.753418 85.944 20.4039
663.527039 85.860 20.0120
668.335205 85.709 19.8597
673.178284 85.527 20.1371
678.056396 85.355 20.8950
682.969849 85.247 21.9946
687.918945 85.223 23.1934
692.903870 85.249 24.2835
697.924927 85.282 25.1157
702.982422 85.314 25.8241
708.076477 85.360 26.4861
713.207520 85.404 27.0467
718.375732 85.430 27.5109
723.581360 85.454 27.8807
728.824707 85.478 28.1566
734.106079 85.496 28.4666
739.425720 85.509 28.8419
744.783936 85.515 29.2553
750.180908 85.519 29.7099
755.617065 85.511 30.1597
761.092529 85.499 30.6656
766.607727 85.497 31.2588
772.162903 85.506 31.8595
777.758301 85.530 32.4237
783.394287 85.564 32.9578
789.071045 85.596 33.5293
794.789001 85.630 34.1005
800.548340 85.679 34.6335
806.349487 85.730 35.1300
812.192627 85.768 35.5989
818.078125 85.803 35.9644
824.006226 85.838 36.3075
829.977295 85.869 36.6987
835.991699 85.901 37.1523
842.049622 85.937 37.6569
848.151428 85.980 38.1262
854.297485 86.018 38.5582
860.488098 86.041 38.9586
866.723572 86.060 39.3134
873.004211 86.086 39.7018
879.330322 86.128 40.1382
885.702332 86.174 40.5588
892.120483 86.221 40.9489
898.585144 86.265 41.3267
905.096680 86.297 41.7038
911.655396 86.324 42.0931
918.261597 86.369 42.5278
924.915710 86.418 42.9570
931.618042 86.465 43.3291
938.368896 86.510 43.7278
945.168762 86.556 44.1548
952.017822 86.602 44.5239
958.916504 86.643 44.8792
965.865234 86.682 45.2761
972.864319 86.723 45.6617
979.914062 86.775 46.0452
987.014954 86.833 46.4633
994.167236 86.882 46.8707
1001.371399 86.927 47.1910
1008.627747 86.972 47.4969
1015.936646 87.024 47.8204
1023.298584 87.082 48.1611
1030.713867 87.140 48.5523
1038.182739 87.195 48.9066
1045.705933 87.246 49.2056
1053.283447 87.296 49.4874
1060.916016 87.351 49.7487
1068.603882 87.411 50.0156
1076.347412 87.471 50.3320
1084.147095 87.532 50.6475
1092.003296 87.590 50.9139
1099.916382 87.651 51.1509
1107.886841 87.713 51.3815
1115.915039 87.776 51.6173
1124.001343 87.843 51.8870
1132.146362 87.914 52.1742
1140.350342 87.980 52.4309
1148.613770 88.044 52.6614
1156.937134 88.110 52.8904
1165.320801 88.177 53.0889
1173.765137 88.244 53.2784
1182.270752 88.305 53.4595
1190.838013 88.364 53.6288
1199.467285 88.427 53.8249
1208.159180 88.489 54.0237
1216.913940 88.547 54.2094
1225.732178 88.607 54.4345
1234.614380 88.672 54.6655
1243.560913 88.734 54.8734
1252.572266 88.796 54.9932
1261.648926 88.864 55.1055
1270.791382 88.931 55.2813
1280.000000 88.995 55.4478
1289.275391 89.057 55.5900
1298.618042 89.118 55.7560
1308.028320 89.175 55.9098
1317.506836 89.225 56.0561
1327.054077 89.277 56.2386
1336.670410 89.340 56.4534
1346.356567 89.404 56.6528
1356.112793 89.447 56.8272
1365.939697 89.479 56.9680
1375.837891 89.527 57.0693
1385.807739 89.586 57.1955
1395.849854 89.644 57.3672
1405.964844 89.699 57.5642
1416.152954 89.754 57.7683
1426.415039 89.809 57.9745
1436.751465 89.861 58.1730
1447.162720 89.916 58.3609
1457.649414 89.972 58.5364
1468.212158 90.024 58.6708
1478.851440 90.073 58.8020
1489.567871 90.126 58.9647
1500.361816 90.180 59.1334
1511.234131 90.237 59.3112
1522.185059 90.297 59.5340
1533.215454 90.354 59.7352
1544.325806 90.412 59.8886
1555.516602 90.464 60.0644
1566.788574 90.511 60.2711
1578.142090 90.562 60.4726
1589.578003 90.613 60.6234
1601.096680 90.665 60.7680
1612.698975 90.722 60.9561
1624.385254 90.773 61.1622
1636.156250 90.830 61.3526
1648.012451 90.891 61.5274
1659.954590 90.948 61.6867
1671.983398 91.004 61.8472
1684.099243 91.061 62.0197
1696.302856 91.117 62.2177
1708.594971 91.171 62.4164
1720.976196 91.226 62.5991
1733.447144 91.282 62.7870
1746.008423 91.336 62.9901
1758.660645 91.392 63.1627
1771.404663 91.453 63.3226
1784.240967 91.512 63.4998
1797.170288 91.570 63.6582
1810.193359 91.629 63.8120
1823.310791 91.690 63.9701
1836.523193 91.752 64.1183
1849.831421 91.818 64.2752
1863.236084 91.885 64.4164
1876.737793 91.949 64.5702
1890.337524 92.009 64.7332
1904.035645 92.070 64.8683
1917.833008 92.135 65.0050
1931.730469 92.198 65.1414
1945.728638 92.261 65.2729
1959.828125 92.326 65.3817
1974.029907 92.389 65.4677
1988.334473 92.451 65.5455
2002.742798 92.515 65.6208
2017.255493 92.582 65.6955
2031.873291 92.650 65.7931
2046.597168 92.715 65.9120
2061.427734 92.780 65.9951
2076.365479 92.845 66.0302
2091.411865 92.909 66.0901
2106.566895 92.974 66.1658
2121.832031 93.039 66.2109
2137.207764 93.104 66.2265
2152.694824 93.169 66.2587
2168.294189 93.234 66.2965
2184.006592 93.301 66.3064
2199.832764 93.367 66.3036
2215.773682 93.430 66.2927
2231.830078 93.494 66.2803
2248.002686 93.556 66.2637
2264.292725 93.614 66.2315
2280.700684 93.672 66.1954
2297.227539 93.733 66.1637
2313.874268 93.791 66.1421
2330.641602 93.849 66.0981
2347.530273 93.907 66.0288
2364.541504 93.965 65.9666
2381.676025 94.022 65.8981
2398.934570 94.076 65.8038
2416.318359 94.131 65.7049
2433.827881 94.184 65.6105
2451.464355 94.232 65.5081
2469.228760 94.283 65.3974
2487.121826 94.334 65.2761
2505.144531 94.380 65.1594
2523.297852 94.427 65.0558
2541.582764 94.472 64.9305
2560.000000 94.515 64.7845
2578.550781 94.558 64.6428
2597.236084 94.598 64.4944
2616.056641 94.634 64.3392
2635.013672 94.669 64.1859
2654.108154 94.705 64.0263
2673.340820 94.739 63.8759
2692.713135 94.770 63.7322
2712.225586 94.799 63.5796
2731.879395 94.825 63.4240
2751.675781 94.847 63.2542
2771.615479 94.868 63.0801
2791.699707 94.888 62.9255
2811.929688 94.904 62.7831
2832.305908 94.919 62.6353
2852.830078 94.932 62.4860
2873.502930 94.941 62.3500
2894.325439 94.947 62.2398
2915.298828 94.950 62.1399
2936.424316 94.954 62.0523
2957.702881 94.958 61.9747
2979.135742 94.958 61.9003
3000.723633 94.953 61.8454
3022.468262 94.943 61.8466
3044.370117 94.937 61.8864
3066.430908 94.935 61.9730
3088.651611 94.934 62.1063
3111.033203 94.935 62.2830
3133.577148 94.944 62.5016
3156.284180 94.966 62.7489
3179.156006 94.999 63.0244
3202.193359 95.048 63.2843
3225.397949 95.114 63.4957
3248.770508 95.188 63.6225
3272.312500 95.268 63.6212
3296.024902 95.351 63.5047
3319.909180 95.430 63.2943
3343.966797 95.500 62.9944
3368.198486 95.558 62.6152
3392.605713 95.605 62.1988
3417.189941 95.641 61.7845
3441.952393 95.668 61.3699
3466.894287 95.689 60.9479
3492.016846 95.706 60.5457
3517.321289 95.719 60.1584
3542.809326 95.729 59.7789
3568.481934 95.734 59.4196
3594.340576 95.738 59.0773
3620.386719 95.741 58.7216
3646.621582 95.742 58.3621
3673.046387 95.743 58.0055
3699.662842 95.742 57.6410
3726.472168 95.735 57.2662
3753.475586 95.725 56.8797
3780.675049 95.711 56.4780
3808.071289 95.691 56.0550
3835.666016 95.667 55.6205
3863.460938 95.635 55.1820
3891.457275 95.597 54.7457
3919.656250 95.553 54.3359
3948.059814 95.504 53.9388
3976.668945 95.447 53.5364
4005.485596 95.385 53.1429
4034.510986 95.319 52.7603
