* Measurement data measured by REW V5.20.13
* Source: Microphone (Realtek(R) Audio), MICROPHONE (Master Volume), L, volume: 0.710. Timing signal peak level -37.5 dBFS, measurement signal peak level -37.4 dBFS
* Format: 4M Log Swept Sine, 1 sweep at -12.0 dBFS using an acoustic timing reference
* Dated: Sep 7, 2023 3:48:54 PM
* REW Settings:
*  C-weighting compensation: Off
*  Target level: 75.0 dB
* Note: ; Delay -0.0568 ms (-19 mm, -0.77 in) using estimated IR delay relative to Acoustic reference played from HEADPHONE L with no timing offset Clock adjustment: 120.7 ppm
* Measurement: KZ Krila UDDU L
* Smoothing: 1/48 octave
* Frequency Step: 1/96 octave
* Start Frequency: 20.000 Hz
*
* Freq(Hz) SPL(dB) Phase(degrees)
20.000000 91.056 9.5161
20.144928 91.051 9.3511
20.290907 91.048 9.1777
20.437943 91.045 8.9995
20.586044 91.042 8.8188
20.735220 91.038 8.6353
20.885475 91.034 8.4486
21.036821 91.028 8.2570
21.189262 91.022 8.0642
21.342808 91.015 7.8754
21.497467 91.006 7.6893
21.653246 90.998 7.5094
21.810154 90.988 7.3381
21.968201 90.979 7.1683
22.127390 90.971 6.9951
22.287735 90.963 6.8213
22.449242 90.954 6.6478
22.611917 90.946 6.4742
22.775772 90.937 6.2992
22.940815 90.928 6.1226
23.107054 90.917 5.9451
23.274498 90.906 5.7647
23.443153 90.894 5.5892
23.613033 90.880 5.4240
23.784142 90.867 5.2668
23.956491 90.854 5.1190
24.130091 90.843 4.9784
24.304947 90.833 4.8414
24.481071 90.824 4.7072
24.658470 90.817 4.5701
24.837156 90.811 4.4291
25.017136 90.805 4.2725
25.198421 90.800 4.1020
25.381020 90.794 3.9205
25.564941 90.786 3.7290
25.750195 90.776 3.5391
25.936790 90.763 3.3511
26.124741 90.749 3.1743
26.314051 90.733 3.0096
26.504732 90.717 2.8691
26.696796 90.702 2.7488
26.890253 90.690 2.6442
27.085112 90.681 2.5483
27.281382 90.675 2.4473
27.479073 90.671 2.3365
27.678198 90.670 2.2083
27.878765 90.669 2.0594
28.080786 90.667 1.8855
28.284271 90.662 1.6979
28.489231 90.654 1.4985
28.695675 90.642 1.3074
28.903616 90.626 1.1268
29.113064 90.609 0.9676
29.324028 90.590 0.8293
29.536524 90.573 0.7159
29.750557 90.557 0.6170
29.966141 90.542 0.5302
30.183289 90.529 0.4390
30.402010 90.517 0.3425
30.622314 90.506 0.2369
30.844217 90.494 0.1232
31.067726 90.481 0.0013
31.292856 90.468 -0.1235
31.519617 90.453 -0.2488
31.748020 90.439 -0.3692
31.978081 90.425 -0.4880
32.209808 90.411 -0.6067
32.443211 90.398 -0.7297
32.678310 90.386 -0.8596
32.915108 90.374 -0.9981
33.153625 90.361 -1.1486
33.393871 90.347 -1.3070
33.635857 90.332 -1.4704
33.879597 90.317 -1.6346
34.125103 90.301 -1.7985
34.372387 90.285 -1.9608
34.621464 90.267 -2.1160
34.872345 90.250 -2.2622
35.125042 90.232 -2.3976
35.379574 90.214 -2.5194
35.635948 90.198 -2.6270
35.894180 90.184 -2.7213
36.154285 90.172 -2.8078
36.416275 90.162 -2.8937
36.680161 90.154 -2.9834
36.945961 90.147 -3.0811
37.213688 90.139 -3.1869
37.483353 90.130 -3.2909
37.754974 90.119 -3.3846
38.028561 90.107 -3.4588
38.304131 90.097 -3.5135
38.581699 90.091 -3.5602
38.861279 90.088 -3.6148
39.142883 90.088 -3.7006
39.426529 90.088 -3.8372
39.712231 90.081 -4.0195
40.000000 90.065 -4.2285
40.289856 90.037 -4.4316
40.581814 89.998 -4.5815
40.875885 89.954 -4.6465
41.172089 89.913 -4.6282
41.470440 89.882 -4.5516
41.770950 89.864 -4.4615
42.073643 89.859 -4.4142
42.378525 89.860 -4.4471
42.685616 89.860 -4.5604
42.994934 89.856 -4.7311
43.306492 89.843 -4.9232
43.620308 89.822 -5.0983
43.936401 89.798 -5.2283
44.254780 89.775 -5.3037
44.575470 89.759 -5.3312
44.898483 89.754 -5.3336
45.223835 89.762 -5.3479
45.551544 89.781 -5.4156
45.881630 89.805 -5.5682
46.214108 89.824 -5.8076
46.548996 89.831 -6.0927
46.886307 89.823 -6.3483
47.226067 89.808 -6.5048
47.568283 89.800 -6.5511
47.912983 89.809 -6.5593
48.260181 89.835 -6.6496
48.609894 89.861 -6.9098
48.962143 89.864 -7.3265
49.316940 89.829 -7.7735
49.674313 89.755 -8.0692
50.034271 89.665 -8.0811
50.396843 89.588 -7.8103
50.762039 89.546 -7.3955
51.129883 89.541 -7.0283
51.500389 89.557 -6.8384
51.873581 89.570 -6.8362
52.249481 89.568 -6.9443
52.628101 89.551 -7.0692
53.009464 89.526 -7.1594
53.393593 89.500 -7.2140
53.780506 89.477 -7.2544
54.170223 89.458 -7.3020
54.562763 89.443 -7.3691
54.958145 89.428 -7.4550
55.356396 89.410 -7.5383
55.757530 89.392 -7.5826
56.161572 89.379 -7.5707
56.568542 89.378 -7.5402
56.978462 89.385 -7.5638
57.391350 89.386 -7.6652
57.807232 89.369 -7.7515
58.226128 89.339 -7.6714
58.648056 89.325 -7.3757
59.073048 89.354 -7.0288
59.501114 89.422 -6.9285
59.932281 89.484 -7.2455
60.366577 89.492 -7.8417
60.804020 89.431 -8.3666
61.244629 89.334 -8.5479
61.688435 89.250 -8.3914
62.135452 89.207 -8.1461
62.585712 89.190 -8.0436
63.039234 89.172 -8.1066
63.496040 89.140 -8.2194
63.956161 89.103 -8.2906
64.419617 89.071 -8.3285
64.886421 89.047 -8.3753
65.356621 89.027 -8.4376
65.830215 89.012 -8.5031
66.307251 89.002 -8.5796
66.787743 88.992 -8.6776
67.271713 88.978 -8.7697
67.759193 88.962 -8.8080
68.250206 88.951 -8.7892
68.744774 88.948 -8.7653
69.242928 88.947 -8.7813
69.744690 88.940 -8.8242
70.250084 88.927 -8.8513
70.759148 88.912 -8.8467
71.271896 88.898 -8.8310
71.788361 88.886 -8.8309
72.308571 88.872 -8.8580
72.832550 88.856 -8.9111
73.360321 88.836 -8.9756
73.891922 88.812 -9.0291
74.427376 88.790 -9.0610
74.966705 88.770 -9.0831
75.509949 88.752 -9.1056
76.057121 88.736 -9.1238
76.608261 88.722 -9.1392
77.163399 88.709 -9.1697
77.722557 88.691 -9.2114
78.285767 88.668 -9.2183
78.853058 88.647 -9.1603
79.424461 88.638 -9.0913
80.000000 88.637 -9.1073
80.579712 88.629 -9.2223
81.163628 88.605 -9.3467
81.751770 88.573 -9.3878
82.344177 88.550 -9.3563
82.940880 88.538 -9.3414
83.541901 88.528 -9.3771
84.147285 88.513 -9.4039
84.757050 88.500 -9.3661
85.371231 88.499 -9.3092
85.989868 88.503 -9.3071
86.612984 88.498 -9.3424
87.240616 88.485 -9.3428
87.872803 88.470 -9.2968
88.509560 88.457 -9.2512
89.150940 88.442 -9.2109
89.796967 88.427 -9.1652
90.447670 88.418 -9.1583
91.103088 88.407 -9.2335
91.763260 88.386 -9.3405
92.428215 88.363 -9.4238
93.097992 88.341 -9.5013
93.772614 88.316 -9.5736
94.452133 88.288 -9.5673
95.136566 88.272 -9.4753
95.825966 88.272 -9.4062
96.520363 88.272 -9.4111
97.219788 88.264 -9.4264
97.924286 88.252 -9.4113
98.633881 88.240 -9.3947
99.348625 88.226 -9.4011
100.068542 88.208 -9.4260
100.793686 88.185 -9.4464
101.524078 88.159 -9.4277
102.259766 88.138 -9.3627
103.000778 88.126 -9.2788
103.747162 88.124 -9.2032
104.498962 88.128 -9.1780
105.256203 88.126 -9.2185
106.018929 88.111 -9.2449
106.787186 88.096 -9.2194
107.561012 88.083 -9.2328
108.340446 88.058 -9.2983
109.125526 88.020 -9.2996
109.916290 87.988 -9.2043
110.712791 87.972 -9.1013
111.515060 87.964 -9.0576
112.323143 87.954 -9.0421
113.137085 87.944 -9.0026
113.956924 87.936 -8.9650
114.782700 87.925 -8.9381
115.614464 87.912 -8.9008
116.452255 87.900 -8.9067
117.296112 87.885 -9.0154
118.146095 87.853 -9.2720
119.002228 87.775 -9.4869
119.864563 87.689 -9.2506
120.733154 87.682 -8.7726
121.608040 87.730 -8.6562
122.489258 87.751 -8.7745
123.376869 87.758 -8.7468
124.270905 87.783 -8.7186
125.171425 87.794 -8.8497
126.078468 87.768 -8.9244
126.992081 87.738 -8.8416
127.912323 87.718 -8.7832
128.839233 87.693 -8.7739
129.772842 87.670 -8.7494
130.713242 87.651 -8.7241
131.660431 87.638 -8.6699
132.614502 87.637 -8.6256
133.575485 87.633 -8.6429
134.543427 87.614 -8.6522
135.518387 87.587 -8.5886
136.500412 87.564 -8.4641
137.489548 87.550 -8.3412
138.485855 87.546 -8.2952
139.489380 87.540 -8.3258
140.500168 87.529 -8.3474
141.518295 87.523 -8.3298
142.543793 87.522 -8.3113
143.576721 87.518 -8.2785
144.617142 87.513 -8.2147
145.665100 87.505 -8.1744
146.720642 87.488 -8.1510
147.783844 87.464 -8.0791
148.854752 87.445 -7.9704
149.933411 87.435 -7.8548
151.019897 87.437 -7.7872
152.114243 87.437 -7.8380
153.216522 87.420 -7.9052
154.326797 87.399 -7.9001
155.445114 87.381 -7.8595
156.571533 87.370 -7.8213
157.706116 87.359 -7.8120
158.848923 87.343 -7.8059
160.000000 87.321 -7.7635
161.159424 87.297 -7.6389
162.327255 87.283 -7.4791
163.503540 87.275 -7.3702
164.688354 87.266 -7.3240
165.881760 87.254 -7.3041
167.083801 87.239 -7.2784
168.294571 87.225 -7.2252
169.514099 87.216 -7.1470
170.742462 87.208 -7.0861
171.979736 87.195 -7.0353
173.225967 87.175 -6.9937
174.481232 87.152 -6.9305
175.745605 87.137 -6.8842
177.019119 87.125 -6.8916
178.301880 87.112 -6.8983
179.593933 87.101 -6.8741
180.895340 87.088 -6.7916
182.206177 87.074 -6.6716
183.526520 87.055 -6.5345
184.856430 87.037 -6.3958
186.195984 87.018 -6.3132
187.545227 87.000 -6.2479
188.904266 86.990 -6.2018
190.273132 86.982 -6.1808
191.651932 86.970 -6.1256
193.040726 86.958 -6.0056
194.439575 86.949 -5.8793
195.848572 86.938 -5.7993
197.267761 86.924 -5.7530
198.697250 86.905 -5.6995
200.137085 86.890 -5.5979
201.587372 86.880 -5.4636
203.048157 86.875 -5.3298
204.519531 86.867 -5.2460
206.001556 86.846 -5.1901
207.494324 86.820 -5.0930
208.997925 86.802 -4.9926
210.512405 86.787 -4.9342
212.037857 86.771 -4.8547
213.574371 86.761 -4.7492
215.122025 86.752 -4.6692
216.680893 86.734 -4.5792
218.251053 86.712 -4.4441
219.832581 86.696 -4.3002
221.425583 86.687 -4.2168
223.030121 86.681 -4.2009
224.646286 86.675 -4.2017
226.274170 86.669 -4.1738
227.913849 86.663 -4.0966
229.565399 86.655 -3.9734
231.228928 86.647 -3.8533
232.904510 86.636 -3.7684
234.592224 86.624 -3.6831
236.292191 86.616 -3.5295
238.004456 86.620 -3.3150
239.729126 86.626 -3.1698
241.466309 86.605 -3.1143
243.216080 86.561 -3.0293
244.978516 86.519 -2.9182
246.753738 86.491 -2.8198
248.541809 86.477 -2.7164
250.342850 86.473 -2.6061
252.156937 86.465 -2.5006
253.984161 86.454 -2.3832
255.824646 86.447 -2.2817
257.678467 86.443 -2.2033
259.545685 86.438 -2.0974
261.426483 86.434 -1.9379
263.320862 86.427 -1.8101
265.229004 86.410 -1.7371
267.150970 86.387 -1.6671
269.086853 86.373 -1.5727
271.036774 86.364 -1.4544
273.000824 86.353 -1.2947
274.979095 86.337 -1.1042
276.971710 86.319 -0.8882
278.978760 86.312 -0.6749
281.000336 86.312 -0.5422
283.036591 86.306 -0.4672
285.087585 86.295 -0.3820
287.153442 86.284 -0.2891
289.234283 86.275 -0.1965
291.330200 86.267 -0.0956
293.441284 86.259 0.0057
295.567688 86.253 0.1130
297.709503 86.251 0.2458
299.866821 86.249 0.3922
302.039795 86.235 0.5724
304.228485 86.219 0.8132
306.433044 86.210 0.9952
308.653595 86.201 1.0818
310.890228 86.194 1.1360
313.143066 86.187 1.2223
315.412231 86.173 1.4106
317.697845 86.157 1.6631
320.000000 86.144 1.8683
322.318848 86.135 1.9677
324.654510 86.128 2.0270
327.007080 86.120 2.1472
329.376709 86.113 2.3260
331.763519 86.107 2.5088
334.167603 86.102 2.6815
336.589142 86.100 2.8466
339.028198 86.101 3.0007
341.484924 86.100 3.1466
343.959473 86.093 3.3387
346.451935 86.084 3.5707
348.962463 86.073 3.7435
351.491211 86.057 3.8164
354.038239 86.036 3.8759
356.603760 86.015 4.0037
359.187866 85.994 4.1877
361.790680 85.988 4.4249
364.412354 85.998 4.6594
367.053040 86.006 4.8855
369.712860 86.003 5.0762
372.391968 85.995 5.1996
375.090454 85.986 5.3280
377.808533 85.978 5.5246
380.546265 85.969 5.7305
383.303864 85.957 5.9062
386.081451 85.945 6.0685
388.879150 85.932 6.2356
391.697144 85.924 6.4403
394.535522 85.923 6.6741
397.394501 85.920 6.8978
400.274170 85.914 7.0713
403.174744 85.908 7.2144
406.096313 85.900 7.4038
409.039062 85.890 7.6176
412.003113 85.884 7.7805
414.988647 85.881 7.9678
417.995850 85.873 8.2386
421.024811 85.861 8.4863
424.075714 85.850 8.6638
427.148743 85.844 8.8738
430.244049 85.834 9.0682
433.361786 85.819 9.2107
436.502106 85.808 9.3976
439.665161 85.801 9.6460
442.851166 85.800 9.8663
446.060242 85.797 10.0682
449.292572 85.794 10.2778
452.548340 85.795 10.4319
455.827698 85.794 10.5726
459.130798 85.784 10.8048
462.457855 85.773 11.0919
465.809021 85.767 11.3525
469.184448 85.758 11.5603
472.584381 85.748 11.7590
476.008911 85.746 12.0195
479.458252 85.746 12.3390
482.932617 85.745 12.5768
486.432159 85.739 12.7489
489.957031 85.737 12.9598
493.507477 85.735 13.1642
497.083618 85.730 13.3599
500.685699 85.728 13.5946
504.313873 85.733 13.8326
507.968323 85.738 14.0219
511.649292 85.736 14.2516
515.356934 85.735 14.5572
519.091370 85.736 14.8575
522.852966 85.732 15.1003
526.641724 85.731 15.2992
530.458008 85.735 15.4952
534.301941 85.738 15.7312
538.173706 85.730 16.0123
542.073547 85.724 16.3099
546.001648 85.729 16.5950
549.958191 85.735 16.8431
553.943420 85.740 17.0475
557.957520 85.746 17.2997
562.000671 85.753 17.6091
566.073181 85.755 17.8942
570.175171 85.758 18.1627
574.306885 85.765 18.4282
578.468567 85.770 18.6446
582.660400 85.774 18.8699
586.882568 85.787 19.1689
591.135376 85.801 19.4460
595.419006 85.808 19.6754
599.733643 85.816 19.9184
604.079590 85.826 20.1863
608.456970 85.834 20.4592
612.866089 85.847 20.7121
617.307190 85.868 20.9279
621.780457 85.891 21.1381
626.286133 85.911 21.3486
630.824463 85.927 21.5095
635.395691 85.942 21.6327
640.000000 85.961 21.6953
644.637695 85.988 21.6088
649.309021 86.008 21.3654
654.014160 86.004 21.0353
658.753418 85.957 20.6381
663.527039 85.857 20.2148
668.335205 85.702 20.0515
673.178284 85.517 20.4709
678.056396 85.368 21.4442
682.969849 85.293 22.6582
687.918945 85.287 23.8344
692.903870 85.313 24.8464
697.924927 85.348 25.6384
702.982422 85.379 26.2573
708.076477 85.405 26.8039
713.207520 85.435 27.3244
718.375732 85.466 27.8011
723.581360 85.490 28.1902
728.824707 85.510 28.5476
734.106079 85.533 28.9164
739.425720 85.546 29.2565
744.783936 85.543 29.6098
750.180908 85.539 30.0151
755.617065 85.537 30.4987
761.092529 85.534 31.0374
766.607727 85.533 31.5807
772.162903 85.541 32.1688
777.758301 85.562 32.8144
783.394287 85.592 33.4466
789.071045 85.630 34.0103
794.789001 85.671 34.5072
800.548340 85.715 34.9529
806.349487 85.755 35.3688
812.192627 85.795 35.7682
818.078125 85.834 36.1859
824.006226 85.867 36.6223
829.977295 85.897 37.0421
835.991699 85.935 37.4859
842.049622 85.972 37.9221
848.151428 86.001 38.3305
854.297485 86.035 38.7436
860.488098 86.074 39.1446
866.723572 86.108 39.5122
873.004211 86.141 39.9106
879.330322 86.179 40.3337
885.702332 86.216 40.7062
892.120483 86.257 41.0922
898.585144 86.291 41.5226
905.096680 86.325 41.9566
911.655396 86.366 42.3596
918.261597 86.412 42.7849
924.915710 86.458 43.2311
931.618042 86.502 43.6504
938.368896 86.547 44.0432
945.168762 86.592 44.4351
952.017822 86.634 44.8164
958.916504 86.677 45.1646
965.865234 86.722 45.5409
972.864319 86.767 45.9546
979.914062 86.815 46.3533
987.014954 86.863 46.7287
994.167236 86.911 47.0881
1001.371399 86.958 47.4572
1008.627747 87.007 47.8170
1015.936646 87.057 48.1360
1023.298584 87.114 48.4592
1030.713867 87.177 48.8238
1038.182739 87.238 49.1759
1045.705933 87.293 49.4846
1053.283447 87.344 49.7586
1060.916016 87.389 50.0491
1068.603882 87.437 50.3464
1076.347412 87.490 50.6159
1084.147095 87.546 50.8630
1092.003296 87.607 51.1134
1099.916382 87.671 51.3722
1107.886841 87.734 51.6284
1115.915039 87.795 51.8663
1124.001343 87.859 52.0894
1132.146362 87.927 52.3625
1140.350342 87.992 52.6636
1148.613770 88.056 52.8951
1156.937134 88.123 53.0744
1165.320801 88.193 53.2563
1173.765137 88.260 53.4452
1182.270752 88.321 53.6561
1190.838013 88.378 53.8533
1199.467285 88.434 54.0306
1208.159180 88.493 54.2287
1216.913940 88.557 54.4380
1225.732178 88.624 54.6057
1234.614380 88.690 54.7399
1243.560913 88.755 54.8960
1252.572266 88.816 55.0949
1261.648926 88.875 55.3045
1270.791382 88.939 55.4946
1280.000000 89.006 55.6700
1289.275391 89.069 55.8479
1298.618042 89.129 56.0170
1308.028320 89.192 56.1700
1317.506836 89.255 56.3270
1327.054077 89.315 56.4816
1336.670410 89.372 56.6234
1346.356567 89.425 56.7950
1356.112793 89.467 56.9727
1365.939697 89.499 57.1375
1375.837891 89.543 57.3127
1385.807739 89.593 57.4850
1395.849854 89.643 57.6391
1405.964844 89.699 57.7807
1416.152954 89.761 57.9325
1426.415039 89.821 58.1041
1436.751465 89.876 58.2774
1447.162720 89.929 58.4512
1457.649414 89.981 58.6239
1468.212158 90.034 58.7948
1478.851440 90.088 58.9451
1489.567871 90.143 59.1005
1500.361816 90.197 59.2909
1511.234131 90.246 59.5006
1522.185059 90.298 59.7057
1533.215454 90.353 59.8956
1544.325806 90.407 60.1007
1555.516602 90.463 60.2879
1566.788574 90.518 60.4355
1578.142090 90.573 60.5976
1589.578003 90.623 60.7835
1601.096680 90.674 60.9656
1612.698975 90.725 61.1506
1624.385254 90.778 61.3485
1636.156250 90.830 61.5333
1648.012451 90.881 61.6966
1659.954590 90.935 61.8716
1671.983398 90.993 62.0518
1684.099243 91.049 62.2266
1696.302856 91.106 62.4104
1708.594971 91.162 62.6066
1720.976196 91.213 62.8071
1733.447144 91.264 62.9928
1746.008423 91.318 63.1529
1758.660645 91.374 63.3264
1771.404663 91.431 63.5362
1784.240967 91.489 63.7359
1797.170288 91.552 63.9218
1810.193359 91.620 64.1093
1823.310791 91.684 64.2998
1836.523193 91.748 64.5011
1849.831421 91.815 64.7082
1863.236084 91.884 64.8886
1876.737793 91.952 65.0247
1890.337524 92.021 65.1240
1904.035645 92.091 65.2177
1917.833008 92.163 65.3229
1931.730469 92.230 65.4333
1945.728638 92.296 65.5276
1959.828125 92.362 65.5942
1974.029907 92.425 65.6479
1988.334473 92.486 65.7144
2002.742798 92.548 65.7906
2017.255493 92.612 65.8658
2031.873291 92.678 65.9490
2046.597168 92.744 66.0238
2061.427734 92.807 66.0882
2076.365479 92.871 66.1400
2091.411865 92.935 66.1707
2106.566895 93.001 66.1984
2121.832031 93.068 66.2377
2137.207764 93.132 66.2631
2152.694824 93.197 66.2859
2168.294189 93.262 66.3017
2184.006592 93.325 66.3015
2199.832764 93.386 66.3017
2215.773682 93.446 66.2921
2231.830078 93.508 66.2741
2248.002686 93.569 66.2647
2264.292725 93.628 66.2443
2280.700684 93.687 66.2042
2297.227539 93.745 66.1602
2313.874268 93.801 66.1061
2330.641602 93.858 66.0482
2347.530273 93.916 65.9800
2364.541504 93.972 65.8982
2381.676025 94.026 65.8147
2398.934570 94.081 65.7343
2416.318359 94.136 65.6490
2433.827881 94.188 65.5476
2451.464355 94.237 65.4381
2469.228760 94.286 65.3097
2487.121826 94.334 65.1749
2505.144531 94.379 65.0657
2523.297852 94.423 64.9611
2541.582764 94.466 64.8423
2560.000000 94.506 64.7056
2578.550781 94.547 64.5685
2597.236084 94.585 64.4435
2616.056641 94.619 64.3221
2635.013672 94.652 64.1883
2654.108154 94.685 64.0493
2673.340820 94.715 63.9112
2692.713135 94.742 63.7681
2712.225586 94.768 63.6180
2731.879395 94.791 63.4796
2751.675781 94.809 63.3561
2771.615479 94.828 63.2460
2791.699707 94.844 63.1455
2811.929688 94.856 63.0526
2832.305908 94.866 62.9652
2852.830078 94.875 62.8836
2873.502930 94.881 62.8285
2894.325439 94.885 62.8082
2915.298828 94.888 62.8174
2936.424316 94.892 62.8675
2957.702881 94.898 62.9531
2979.135742 94.904 63.0746
3000.723633 94.915 63.2428
3022.468262 94.933 63.4488
3044.370117 94.963 63.6639
3066.430908 95.007 63.8741
3088.651611 95.062 64.0604
3111.033203 95.128 64.1857
3133.577148 95.203 64.2180
3156.284180 95.282 64.1437
3179.156006 95.357 63.9678
3202.193359 95.422 63.7114
3225.397949 95.477 63.4009
3248.770508 95.522 63.0548
3272.312500 95.557 62.6968
3296.024902 95.586 62.3536
3319.909180 95.607 62.0221
3343.966797 95.623 61.6906
3368.198486 95.633 61.3723
3392.605713 95.643 61.0744
3417.189941 95.655 60.7898
3441.952393 95.666 60.5260
3466.894287 95.676 60.2673
3492.016846 95.684 59.9925
3517.321289 95.692 59.7076
3542.809326 95.699 59.4220
3568.481934 95.708 59.1393
3594.340576 95.715 58.8498
3620.386719 95.718 58.5535
3646.621582 95.719 58.2522
3673.046387 95.717 57.9326
3699.662842 95.711 57.5988
3726.472168 95.703 57.2593
3753.475586 95.692 56.9078
3780.675049 95.678 56.5484
3808.071289 95.658 56.1818
3835.666016 95.634 55.8129
3863.460938 95.605 55.4453
3891.457275 95.571 55.0785
3919.656250 95.533 54.7086
3948.059814 95.492 54.3368
3976.668945 95.445 53.9557
4005.485596 95.393 53.5667
4034.510986 95.336 53.1825
4063.746582 95.272 52.8041
4093.194336 95.201 52.4298
4122.855469 95.123 52.0672
4152.730957 95.035 51.7360
4182.823730 94.941 51.4436
4213.133789 94.842 51.1892
4243.664062 94.740 50.9801
4274.415527 94.633 50.8146
4305.389648 94.522 50.6865
4336.588379 94.407 50.5891
