* Measurement data measured by REW V5.20.13
* Source: Microphone (Realtek(R) Audio), MICROPHONE (Master Volume), L, volume: 0.710. Timing signal peak level -37.7 dBFS, measurement signal peak level -37.3 dBFS
* Format: 2M Log Swept Sine, 1 sweep at -12.0 dBFS using an acoustic timing reference
* Dated: Sep 7, 2023 4:24:10 PM
* REW Settings:
*  C-weighting compensation: Off
*  Target level: 75.0 dB
* Note: ; Delay -0.0542 ms (-19 mm, -0.73 in) using estimated IR delay relative to Acoustic reference played from HEADPHONE R with no timing offset Clock adjustment: 120.7 ppm
* Measurement: KZ Krila DUDU R
* Smoothing: 1/24 octave
* Frequency Step: 1/48 octave
* Start Frequency: 20.000 Hz
*
* Freq(Hz) SPL(dB) Phase(degrees)
20.000000 92.945 8.7080
20.299999 92.930 8.2628
20.600000 92.914 7.8155
20.900000 92.897 7.3700
21.200001 92.878 6.9338
21.400000 92.864 6.6523
21.799999 92.835 6.1140
22.000000 92.821 5.8568
22.400000 92.794 5.3617
22.700001 92.776 5.0035
23.000000 92.758 4.6541
23.299999 92.741 4.3120
23.600000 92.724 3.9785
24.000000 92.703 3.5486
24.299999 92.688 3.2372
24.700001 92.670 2.8325
25.000000 92.658 2.5332
25.400000 92.641 2.1362
25.799999 92.624 1.7430
26.200001 92.606 1.3575
26.500000 92.593 1.0748
26.900000 92.576 0.7034
27.200001 92.563 0.4237
27.600000 92.545 0.0425
28.000000 92.523 -0.3469
28.500000 92.489 -0.8221
29.000000 92.451 -1.2489
29.500000 92.416 -1.6246
30.000000 92.385 -1.9962
30.400000 92.361 -2.3229
30.700001 92.339 -2.5854
31.100000 92.305 -2.9348
31.500000 92.265 -3.2529
32.000000 92.215 -3.5824
32.500000 92.171 -3.8599
33.000000 92.134 -4.1288
33.500000 92.101 -4.3990
34.000000 92.074 -4.6639
34.500000 92.054 -4.9485
35.000000 92.035 -5.2900
35.500000 92.007 -5.6688
36.000000 91.967 -5.9999
36.500000 91.925 -6.2265
37.000000 91.895 -6.3964
37.500000 91.876 -6.6084
38.200001 91.842 -7.0190
38.700001 91.805 -7.3044
39.500000 91.743 -7.6590
40.000000 91.709 -7.8856
40.599998 91.663 -8.1803
41.200001 91.612 -8.4195
41.799999 91.569 -8.5934
42.500000 91.538 -8.8332
43.099998 91.514 -9.1121
43.700001 91.486 -9.3970
44.400002 91.454 -9.6964
45.000000 91.428 -9.9365
45.500000 91.407 -10.1169
46.200001 91.379 -10.3259
46.799999 91.361 -10.5004
47.500000 91.335 -10.7479
48.200001 91.294 -10.9850
48.700001 91.257 -11.0930
49.400002 91.209 -11.1677
50.000000 91.176 -11.2462
50.799999 91.129 -11.4321
51.500000 91.082 -11.5941
52.200001 91.043 -11.7439
53.000000 91.009 -12.0007
53.799999 90.972 -12.3109
54.500000 90.941 -12.5453
55.200001 90.915 -12.7481
56.000000 90.886 -12.9148
57.000000 90.848 -12.9618
58.000000 90.816 -12.6338
59.000000 90.885 -12.2013
60.000000 90.964 -12.8872
60.799999 90.875 -13.7246
61.500000 90.734 -13.9219
62.200001 90.624 -13.7686
63.000000 90.546 -13.6556
64.000000 90.468 -13.6882
65.000000 90.411 -13.8328
66.000000 90.365 -14.0640
67.000000 90.329 -14.2822
68.000000 90.295 -14.4817
69.000000 90.254 -14.6027
70.000000 90.210 -14.6251
71.000000 90.169 -14.6038
72.000000 90.127 -14.5889
73.000000 90.088 -14.6137
74.000000 90.048 -14.7170
75.000000 90.000 -14.7990
76.199997 89.954 -14.7915
77.500000 89.919 -14.8052
78.800003 89.876 -14.8391
80.000000 89.826 -14.8997
81.199997 89.769 -14.9857
82.500000 89.713 -15.1624
83.800003 89.651 -15.4220
85.000000 89.592 -15.5056
86.199997 89.562 -15.4003
87.500000 89.556 -15.3022
88.500000 89.541 -15.2792
90.000000 89.489 -15.2159
91.199997 89.436 -15.1471
92.500000 89.381 -15.1226
93.800003 89.333 -15.1651
95.000000 89.298 -15.2042
96.199997 89.274 -15.2544
97.500000 89.247 -15.2981
98.800003 89.212 -15.2851
100.000000 89.176 -15.2321
101.500000 89.131 -15.1913
103.000000 89.082 -15.1730
104.400002 89.043 -15.1340
106.000000 89.007 -15.1370
107.500000 88.964 -15.1609
109.000000 88.914 -15.1204
110.599998 88.869 -15.0098
112.000000 88.840 -14.9270
113.800003 88.794 -14.8362
115.000000 88.750 -14.7582
117.199997 88.637 -14.6183
118.000000 88.586 -14.5562
120.599998 88.497 -14.1528
122.000000 88.513 -14.2111
124.099998 88.533 -14.3983
125.000000 88.533 -14.4384
126.500000 88.512 -14.4117
128.000000 88.473 -14.2657
131.500000 88.380 -14.1581
132.000000 88.367 -14.1652
134.000000 88.327 -14.1234
136.000000 88.313 -13.9835
138.000000 88.302 -13.8760
140.000000 88.272 -13.8211
143.000000 88.200 -13.7681
145.000000 88.156 -13.6714
147.500000 88.119 -13.5120
150.000000 88.096 -13.3665
152.500000 88.056 -13.2337
155.000000 88.011 -13.0469
157.500000 87.968 -12.9899
160.000000 87.920 -12.9202
162.500000 87.896 -12.7192
165.000000 87.880 -12.5566
167.500000 87.838 -12.3647
170.000000 87.791 -12.1705
172.500000 87.754 -12.0949
175.000000 87.729 -12.1017
177.500000 87.707 -12.0677
180.000000 87.678 -11.8682
182.500000 87.646 -11.5692
185.000000 87.598 -11.3351
187.500000 87.549 -11.1447
190.000000 87.515 -11.0367
192.500000 87.484 -10.9531
195.000000 87.449 -10.7978
197.500000 87.414 -10.5951
200.000000 87.382 -10.3843
203.000000 87.357 -10.1476
206.000000 87.343 -9.9838
209.000000 87.322 -9.8605
212.000000 87.285 -9.7057
214.000000 87.256 -9.5748
218.000000 87.210 -9.2721
220.000000 87.192 -9.1036
224.000000 87.150 -8.8181
227.000000 87.115 -8.7347
230.000000 87.090 -8.6060
233.000000 87.057 -8.3480
236.000000 87.008 -8.1379
240.000000 86.956 -8.0661
243.000000 86.935 -7.7988
247.000000 86.914 -7.3942
250.000000 86.899 -7.2155
254.000000 86.873 -6.9570
258.000000 86.841 -6.6686
262.000000 86.814 -6.4257
265.000000 86.791 -6.2622
269.000000 86.760 -5.9673
272.000000 86.743 -5.6371
276.000000 86.724 -5.3044
280.000000 86.707 -5.1777
285.000000 86.678 -4.8723
290.000000 86.633 -4.5162
295.000000 86.607 -4.1706
300.000000 86.598 -3.8218
304.000000 86.577 -3.5930
307.000000 86.556 -3.3959
311.000000 86.523 -3.0802
315.000000 86.496 -2.7789
320.000000 86.476 -2.4790
325.000000 86.460 -2.1811
330.000000 86.440 -1.8534
335.000000 86.422 -1.4687
340.000000 86.400 -1.0925
345.000000 86.372 -0.7906
350.000000 86.352 -0.4933
355.000000 86.330 -0.1230
360.000000 86.304 0.2793
365.000000 86.286 0.6027
370.000000 86.269 0.9384
375.000000 86.251 1.2522
382.000000 86.229 1.6727
387.000000 86.211 2.0182
395.000000 86.172 2.5730
400.000000 86.150 2.8762
406.000000 86.127 3.2662
412.000000 86.106 3.6063
418.000000 86.076 3.9722
425.000000 86.060 4.5299
431.000000 86.056 4.9724
437.000000 86.041 5.3599
444.000000 86.004 5.7542
450.000000 85.980 6.0677
455.000000 85.977 6.4134
462.000000 85.982 6.9729
468.000000 85.976 7.4114
475.000000 85.967 7.9113
482.000000 85.961 8.3629
487.000000 85.951 8.6322
494.000000 85.925 9.0414
500.000000 85.904 9.3972
508.000000 85.889 9.9243
515.000000 85.881 10.4300
522.000000 85.878 10.9160
530.000000 85.869 11.4484
538.000000 85.860 11.9506
545.000000 85.864 12.4249
552.000000 85.869 12.8909
560.000000 85.878 13.4080
570.000000 85.878 14.0873
580.000000 85.878 14.6736
590.000000 85.885 15.2629
600.000000 85.897 15.9183
608.000000 85.901 16.3983
615.000000 85.903 16.7933
622.000000 85.913 17.2002
630.000000 85.931 17.6796
640.000000 85.968 18.1993
650.000000 86.008 18.5955
660.000000 86.043 18.8007
670.000000 86.072 18.7050
680.000000 86.037 18.1112
690.000000 85.840 17.3741
700.000000 85.479 18.0626
710.000000 85.224 20.5918
720.000000 85.214 23.2523
730.000000 85.314 24.9768
740.000000 85.433 26.0771
750.000000 85.536 26.9016
762.000000 85.615 27.7152
775.000000 85.670 28.5558
788.000000 85.722 29.5735
800.000000 85.770 30.5409
812.000000 85.822 31.4425
825.000000 85.888 32.3786
838.000000 85.947 33.3094
850.000000 85.999 34.1283
862.000000 86.053 34.9227
875.000000 86.115 35.7978
885.000000 86.163 36.4444
900.000000 86.243 37.4128
912.000000 86.320 38.1730
925.000000 86.399 38.9888
938.000000 86.467 39.7499
950.000000 86.533 40.4257
962.000000 86.602 41.1654
975.000000 86.678 41.9498
988.000000 86.756 42.6241
1000.000000 86.833 43.1724
1015.000000 86.926 43.8228
1030.000000 87.026 44.5348
1044.000000 87.126 45.1948
1060.000000 87.230 45.8924
1075.000000 87.325 46.5005
1090.000000 87.428 47.0486
1106.000000 87.545 47.6145
1120.000000 87.645 48.0765
1138.000000 87.770 48.6197
1150.000000 87.859 48.9484
1172.000000 88.023 49.4816
1180.000000 88.081 49.6794
1206.000000 88.252 50.2954
1220.000000 88.346 50.5906
1241.000000 88.486 51.0330
1250.000000 88.545 51.2208
1265.000000 88.646 51.5341
1280.000000 88.746 51.8637
1315.000000 88.956 52.6158
1320.000000 88.985 52.7104
1340.000000 89.097 53.0799
1360.000000 89.184 53.4871
1380.000000 89.263 53.8704
1400.000000 89.358 54.2115
1430.000000 89.520 54.7968
1450.000000 89.623 55.1888
1475.000000 89.740 55.6327
1500.000000 89.854 56.1037
1525.000000 89.968 56.5947
1550.000000 90.081 57.0317
1575.000000 90.190 57.4706
1600.000000 90.290 57.9536
1625.000000 90.395 58.4481
1650.000000 90.505 58.9250
1675.000000 90.615 59.3774
1700.000000 90.727 59.8167
1725.000000 90.835 60.2771
1750.000000 90.934 60.7130
1775.000000 91.036 61.1128
1800.000000 91.143 61.5365
1825.000000 91.250 61.9648
1850.000000 91.362 62.3902
1875.000000 91.475 62.8245
1900.000000 91.589 63.2261
1925.000000 91.707 63.5791
1950.000000 91.828 63.8954
1975.000000 91.948 64.1720
2000.000000 92.063 64.4103
2030.000000 92.199 64.6719
2060.000000 92.331 64.9032
2090.000000 92.461 65.1310
2120.000000 92.591 65.3610
2140.000000 92.677 65.4944
2180.000000 92.851 65.7155
2200.000000 92.936 65.7984
2240.000000 93.105 65.9061
2270.000000 93.229 65.9478
2300.000000 93.345 65.9554
2330.000000 93.457 65.9284
2360.000000 93.565 65.8831
2400.000000 93.701 65.8069
2430.000000 93.797 65.7309
2470.000000 93.916 65.6061
2500.000000 94.002 65.4960
2540.000000 94.110 65.3205
2580.000000 94.207 65.1164
2620.000000 94.296 64.9327
2650.000000 94.359 64.7946
2690.000000 94.436 64.5818
2720.000000 94.486 64.4225
2760.000000 94.539 64.2364
2800.000000 94.583 64.0938
2850.000000 94.627 64.0039
2900.000000 94.666 64.0681
2950.000000 94.715 64.2901
3000.000000 94.793 64.6509
3040.000000 94.887 64.9319
3070.000000 94.972 65.0397
3110.000000 95.094 64.9852
3150.000000 95.209 64.7373
3200.000000 95.326 64.2781
3250.000000 95.416 63.8012
3300.000000 95.498 63.3434
3350.000000 95.583 62.8447
3400.000000 95.666 62.2553
3450.000000 95.740 61.5522
3500.000000 95.800 60.7586
3550.000000 95.843 59.9057
3600.000000 95.868 59.0212
3650.000000 95.876 58.1393
3700.000000 95.865 57.2706
3750.000000 95.838 56.4104
3820.000000 95.777 55.2369
3870.000000 95.718 54.4189
3950.000000 95.587 53.1505
4000.000000 95.486 52.4035
4060.000000 95.351 51.5624
4120.000000 95.200 50.7650
4180.000000 95.030 50.0144
4250.000000 94.808 49.2292
4310.000000 94.597 48.6549
4370.000000 94.361 48.1998
4440.000000 94.059 47.8521
4500.000000 93.788 47.7032
4550.000000 93.558 47.6926
4620.000000 93.237 47.8642
4680.000000 92.965 48.1668
4750.000000 92.653 48.6489
4820.000000 92.345 49.2145
4870.000000 92.127 49.6569
4940.000000 91.819 50.3292
5000.000000 91.547 51.0066
5080.000000 91.186 52.1246
5150.000000 90.876 53.2864
5220.000000 90.573 54.5946
5300.000000 90.241 56.2547
5380.000000 89.923 58.0885
5450.000000 89.659 59.8350
5520.000000 89.413 61.6873
5600.000000 89.154 63.9166
5700.000000 88.863 66.8829
5800.000000 88.611 70.0400
5900.000000 88.400 73.3356
6000.000000 88.232 76.7794
6080.000000 88.126 79.5922
6150.000000 88.058 82.0549
6220.000000 88.014 84.5454
6300.000000 87.989 87.4554
6400.000000 87.996 91.1470
6500.000000 88.053 94.8844
6600.000000 88.168 98.6560
6700.000000 88.340 102.3948
6800.000000 88.580 106.0588
6900.000000 88.910 109.6371
7000.000000 89.336 113.0602
7100.000000 89.850 116.2541
7200.000000 90.449 119.1222
7300.000000 91.142 121.5155
7400.000000 91.937 123.2169
7500.000000 92.828 123.9554
7620.000000 94.003 123.0640
7750.000000 95.263 119.0838
7880.000000 96.178 111.4229
8000.000000 96.486 101.7838
8120.000000 96.172 91.7825
8250.000000 95.217 83.1456
8380.000000 93.882 78.0953
8500.000000 92.555 76.3909
8620.000000 91.272 76.7834
8750.000000 89.985 78.8137
8850.000000 89.067 81.2077
9000.000000 87.804 86.1458
9120.000000 86.968 91.1017
9250.000000 86.267 96.6325
9380.000000 85.692 101.9916
9500.000000 85.243 106.8970
9620.000000 84.872 111.8101
9750.000000 84.556 117.0885
9880.000000 84.324 122.2192
10000.000000 84.185 126.7492
10150.000000 84.095 132.0464
10300.000000 84.079 136.8943
10440.000000 84.121 140.9677
10600.000000 84.218 144.9762
10750.000000 84.333 148.1192
10900.000000 84.443 150.7488
11060.000000 84.535 153.1778
11200.000000 84.597 155.1839
11380.000000 84.693 157.8485
11500.000000 84.797 159.5758
11720.000000 85.066 162.2599
11800.000000 85.186 163.0946
12060.000000 85.657 165.2413
12200.000000 85.954 165.8151
12410.000000 86.399 165.4594
12500.000000 86.561 164.7976
12650.000000 86.747 163.0872
12800.000000 86.779 160.8733
13150.000000 86.146 156.5880
13200.000000 85.987 156.3636
13400.000000 85.275 156.8535
13600.000000 84.567 159.4779
13800.000000 84.008 163.6367
14000.000000 83.673 168.3871
14300.000000 83.531 174.4552
14500.000000 83.480 176.5695
14750.000000 83.045 177.1524
15000.000000 81.952 179.8861
15250.000000 80.869 -173.0429
15500.000000 80.206 -165.0045
15750.000000 80.002 -157.5836
16000.000000 80.060 -152.7095
16250.000000 80.122 -151.2350
16500.000000 79.958 -152.9418
16750.000000 79.436 -156.4795
17000.000000 78.688 -161.0756
17250.000000 77.994 -174.2203
17500.000000 77.604 112.3184
17750.000000 77.633 -150.0667
18000.000000 77.801 105.3011
18250.000000 77.298 -3.9497
18500.000000 76.247 -20.4713
18750.000000 75.095 -129.4133
19000.000000 74.272 152.8447
19250.000000 73.933 -84.8796
19500.000000 73.997 -170.1104
19750.000000 74.275 108.0537
20000.000000 74.610 -21.9246
