* Measurement data measured by REW V5.20.13
* Source: Microphone (Realtek(R) Audio), MICROPHONE (Master Volume), L, volume: 0.710. Timing signal peak level -37.2 dBFS, measurement signal peak level -37.1 dBFS
* Format: 2M Log Swept Sine, 1 sweep at -12.0 dBFS using an acoustic timing reference
* Dated: Sep 7, 2023 4:00:21 PM
* REW Settings:
*  C-weighting compensation: Off
*  Target level: 75.0 dB
* Note: ; Delay -0.0562 ms (-19 mm, -0.76 in) using estimated IR delay relative to Acoustic reference played from HEADPHONE L with no timing offset Clock adjustment: 120.7 ppm
* Measurement: KZ Krila DDUD L
* Smoothing: 1/48 octave
* Frequency Step: 1/96 octave
* Start Frequency: 20.000 Hz
*
* Freq(Hz) SPL(dB) Phase(degrees)
20.000000 93.950 3.5836
20.144928 93.939 3.3857
20.290907 93.929 3.1839
20.437943 93.921 2.9807
20.586044 93.912 2.7767
20.735220 93.903 2.5719
20.885475 93.894 2.3653
21.036821 93.885 2.1544
21.189262 93.875 1.9436
21.342808 93.864 1.7382
21.497467 93.853 1.5372
21.653246 93.841 1.3436
21.810154 93.830 1.1604
21.968201 93.820 0.9784
22.127390 93.812 0.7926
22.287735 93.804 0.6044
22.449242 93.797 0.4116
22.611917 93.791 0.2144
22.775772 93.784 0.0087
22.940815 93.778 -0.2059
23.107054 93.769 -0.4277
23.274498 93.759 -0.6597
23.443153 93.748 -0.8913
23.613033 93.734 -1.1165
23.784142 93.720 -1.3354
23.956491 93.704 -1.5442
24.130091 93.689 -1.7448
24.304947 93.674 -1.9379
24.481071 93.660 -2.1248
24.658470 93.646 -2.3098
24.837156 93.634 -2.4943
25.017136 93.622 -2.6904
25.198421 93.611 -2.8966
25.381020 93.598 -3.1117
25.564941 93.584 -3.3348
25.750195 93.568 -3.5572
25.936790 93.550 -3.7787
26.124741 93.530 -3.9937
26.314051 93.509 -4.2011
26.504732 93.488 -4.3918
26.696796 93.468 -4.5688
26.890253 93.449 -4.7362
27.085112 93.431 -4.8984
27.281382 93.415 -5.0657
27.479073 93.401 -5.2383
27.678198 93.387 -5.4194
27.878765 93.373 -5.6093
28.080786 93.358 -5.8096
28.284271 93.342 -6.0117
28.489231 93.324 -6.2140
28.695675 93.305 -6.4055
28.903616 93.286 -6.5864
29.113064 93.267 -6.7561
29.324028 93.250 -6.9176
29.536524 93.235 -7.0719
29.750557 93.221 -7.2277
29.966141 93.209 -7.3877
30.183289 93.196 -7.5611
30.402010 93.183 -7.7459
30.622314 93.168 -7.9402
30.844217 93.152 -8.1392
31.067726 93.134 -8.3403
31.292856 93.114 -8.5363
31.519617 93.093 -8.7236
31.748020 93.070 -8.8963
31.978081 93.049 -9.0568
32.209808 93.027 -9.2067
32.443211 93.008 -9.3513
32.678310 92.990 -9.4967
32.915108 92.972 -9.6470
33.153625 92.955 -9.8119
33.393871 92.937 -9.9893
33.635857 92.917 -10.1781
33.879597 92.896 -10.3715
34.125103 92.872 -10.5631
34.372387 92.846 -10.7468
34.621464 92.818 -10.9108
34.872345 92.790 -11.0546
35.125042 92.763 -11.1782
35.379574 92.739 -11.2898
35.635948 92.718 -11.3984
35.894180 92.701 -11.5113
36.154285 92.685 -11.6389
36.416275 92.671 -11.7830
36.680161 92.656 -11.9429
36.945961 92.642 -12.1168
37.213688 92.626 -12.3033
37.483353 92.609 -12.4988
37.754974 92.591 -12.6996
38.028561 92.569 -12.9020
38.304131 92.546 -13.0958
38.581699 92.520 -13.2686
38.861279 92.493 -13.4116
39.142883 92.469 -13.5203
39.426529 92.452 -13.6093
39.712231 92.442 -13.7081
40.000000 92.438 -13.8476
40.289856 92.436 -14.0555
40.581814 92.428 -14.3403
40.875885 92.408 -14.6686
41.172089 92.370 -14.9867
41.470440 92.319 -15.2372
41.770950 92.260 -15.3719
42.073643 92.204 -15.3758
42.378525 92.162 -15.2920
42.685616 92.140 -15.1927
42.994934 92.133 -15.1471
43.306492 92.132 -15.1979
43.620308 92.129 -15.3464
43.936401 92.114 -15.5504
44.254780 92.087 -15.7462
44.575470 92.053 -15.8885
44.898483 92.021 -15.9728
45.223835 91.997 -16.0296
45.551544 91.981 -16.1038
45.881630 91.969 -16.2301
46.214108 91.956 -16.4143
46.548996 91.936 -16.6307
46.886307 91.909 -16.8395
47.226067 91.879 -17.0137
47.568283 91.850 -17.1524
47.912983 91.824 -17.2734
48.260181 91.799 -17.3937
48.609894 91.774 -17.5126
48.962143 91.748 -17.6146
49.316940 91.722 -17.6862
49.674313 91.700 -17.7309
50.034271 91.684 -17.7731
50.396843 91.671 -17.8407
50.762039 91.657 -17.9425
51.129883 91.637 -18.0607
51.500389 91.611 -18.1652
51.873581 91.583 -18.2396
52.249481 91.557 -18.2950
52.628101 91.533 -18.3586
53.009464 91.510 -18.4519
53.393593 91.484 -18.5765
53.780506 91.451 -18.7142
54.170223 91.413 -18.8409
54.562763 91.373 -18.9391
54.958145 91.336 -19.0060
55.356396 91.306 -19.0602
55.757530 91.286 -19.1438
56.161572 91.270 -19.3029
56.568542 91.247 -19.5394
56.978462 91.209 -19.7710
57.391350 91.160 -19.8649
57.807232 91.128 -19.7626
58.226128 91.140 -19.6008
58.648056 91.197 -19.6661
59.073048 91.255 -20.1735
59.501114 91.256 -21.0344
59.932281 91.167 -21.8377
60.366577 91.017 -22.1260
60.804020 90.880 -21.7662
61.244629 90.821 -21.0686
61.688435 90.838 -20.5312
62.135452 90.874 -20.4085
62.585712 90.876 -20.5430
63.039234 90.839 -20.6266
63.496040 90.797 -20.5306
63.956161 90.774 -20.3734
64.419617 90.765 -20.3326
64.886421 90.748 -20.4380
65.356621 90.713 -20.5896
65.830215 90.665 -20.6885
66.307251 90.617 -20.7196
66.787743 90.576 -20.7168
67.271713 90.543 -20.7177
67.759193 90.519 -20.7574
68.250206 90.496 -20.8577
68.744774 90.467 -20.9933
69.242928 90.430 -21.0946
69.744690 90.394 -21.1218
70.250084 90.369 -21.1132
70.759148 90.352 -21.1373
71.271896 90.333 -21.2064
71.788361 90.306 -21.2723
72.308571 90.276 -21.3001
72.832550 90.247 -21.3074
73.360321 90.218 -21.3270
73.891922 90.186 -21.3597
74.427376 90.149 -21.3792
74.966705 90.110 -21.3633
75.509949 90.073 -21.3123
76.057121 90.044 -21.2544
76.608261 90.022 -21.2378
77.163399 89.999 -21.2827
77.722557 89.969 -21.3500
78.285767 89.934 -21.3821
78.853058 89.903 -21.3730
79.424461 89.880 -21.3793
80.000000 89.856 -21.4445
80.579712 89.822 -21.5294
81.163628 89.780 -21.5513
81.751770 89.743 -21.4866
82.344177 89.720 -21.4072
82.940880 89.705 -21.4099
83.541901 89.684 -21.4917
84.147285 89.651 -21.5656
84.757050 89.617 -21.5787
85.371231 89.589 -21.5741
85.989868 89.563 -21.5978
86.612984 89.532 -21.6160
87.240616 89.499 -21.5801
87.872803 89.474 -21.5073
88.509560 89.457 -21.4595
89.150940 89.439 -21.4641
89.796967 89.414 -21.4982
90.447670 89.380 -21.5121
91.103088 89.345 -21.4751
91.763260 89.315 -21.4280
92.428215 89.287 -21.4322
93.097992 89.249 -21.4549
93.772614 89.205 -21.3995
94.452133 89.174 -21.2816
95.136566 89.157 -21.2301
95.825966 89.135 -21.2585
96.520363 89.103 -21.2474
97.219788 89.080 -21.1765
97.924286 89.069 -21.1622
98.633881 89.050 -21.2361
99.348625 89.015 -21.2960
100.068542 88.976 -21.2811
100.793686 88.939 -21.2191
101.524078 88.906 -21.1488
102.259766 88.875 -21.0962
103.000778 88.843 -21.0555
103.747162 88.812 -20.9957
104.498962 88.786 -20.9326
105.256203 88.765 -20.9047
106.018929 88.743 -20.9140
106.787186 88.715 -20.9490
107.561012 88.675 -20.9453
108.340446 88.634 -20.8344
109.125526 88.607 -20.7032
109.916290 88.580 -20.6438
110.712791 88.542 -20.5718
111.515060 88.509 -20.4478
112.323143 88.486 -20.3779
113.137085 88.456 -20.3559
113.956924 88.427 -20.2821
114.782700 88.409 -20.2318
115.614464 88.377 -20.2189
116.452255 88.334 -20.0029
117.296112 88.318 -19.6443
118.146095 88.310 -19.3715
119.002228 88.301 -18.9900
119.864563 88.340 -18.7202
120.733154 88.362 -19.0471
121.608040 88.287 -19.4624
122.489258 88.184 -19.4619
123.376869 88.117 -19.3529
124.270905 88.068 -19.2944
125.171425 88.038 -19.2657
126.078468 88.018 -19.3076
126.992081 87.996 -19.2933
127.912323 87.989 -19.2036
128.839233 87.985 -19.1622
129.772842 87.965 -19.0966
130.713242 87.941 -18.9447
131.660431 87.918 -18.8101
132.614502 87.890 -18.7103
133.575485 87.858 -18.6169
134.543427 87.829 -18.4896
135.518387 87.820 -18.3613
136.500412 87.815 -18.3648
137.489548 87.787 -18.3534
138.485855 87.756 -18.1390
139.489380 87.747 -17.9039
140.500168 87.737 -17.8176
141.518295 87.708 -17.8099
142.543793 87.668 -17.7778
143.576721 87.633 -17.7235
144.617142 87.604 -17.7012
145.665100 87.577 -17.6523
146.720642 87.561 -17.5244
147.783844 87.558 -17.3882
148.854752 87.552 -17.2579
149.933411 87.540 -17.0967
151.019897 87.521 -16.9496
152.114243 87.489 -16.8002
153.216522 87.456 -16.6284
154.326797 87.426 -16.4894
155.445114 87.397 -16.3868
156.571533 87.373 -16.2805
157.706116 87.356 -16.1850
158.848923 87.339 -16.0966
160.000000 87.327 -15.9745
161.159424 87.322 -15.9067
162.327255 87.304 -15.8864
163.503540 87.277 -15.8123
164.688354 87.255 -15.6998
165.881760 87.236 -15.6193
167.083801 87.212 -15.5604
168.294571 87.182 -15.4629
169.514099 87.159 -15.2847
170.742462 87.149 -15.1481
171.979736 87.133 -15.1007
173.225967 87.103 -15.0466
174.481232 87.067 -14.9476
175.745605 87.033 -14.8029
177.019119 87.008 -14.6320
178.301880 86.994 -14.4832
179.593933 86.984 -14.3802
180.895340 86.965 -14.2141
182.206177 86.956 -13.9594
183.526520 86.947 -13.7322
184.856430 86.927 -13.4696
186.195984 86.907 -13.1880
187.545227 86.890 -12.9819
188.904266 86.869 -12.8754
190.273132 86.843 -12.8404
191.651932 86.816 -12.8101
193.040726 86.798 -12.7662
194.439575 86.786 -12.7299
195.848572 86.774 -12.6599
197.267761 86.760 -12.5631
198.697250 86.733 -12.4106
200.137085 86.699 -12.1285
201.587372 86.679 -11.7799
203.048157 86.677 -11.5460
204.519531 86.671 -11.4658
206.001556 86.654 -11.3907
207.494324 86.638 -11.2620
208.997925 86.618 -11.1070
210.512405 86.591 -10.9009
212.037857 86.564 -10.6746
213.574371 86.545 -10.5063
215.122025 86.527 -10.4351
216.680893 86.507 -10.3892
218.251053 86.491 -10.3054
219.832581 86.480 -10.1708
221.425583 86.470 -9.9980
223.030121 86.455 -9.7865
224.646286 86.437 -9.5360
226.274170 86.421 -9.3220
227.913849 86.405 -9.1679
229.565399 86.399 -9.0457
231.228928 86.406 -8.9722
232.904510 86.411 -8.8943
234.592224 86.404 -8.7431
236.292191 86.384 -8.5413
238.004456 86.352 -8.4144
239.729126 86.301 -8.3898
241.466309 86.247 -8.2479
243.216080 86.233 -8.0148
244.978516 86.239 -7.7988
246.753738 86.248 -7.5675
248.541809 86.249 -7.3555
250.342850 86.240 -7.1923
252.156937 86.225 -7.0372
253.984161 86.211 -6.8662
255.824646 86.197 -6.6395
257.678467 86.185 -6.3921
259.545685 86.168 -6.1942
261.426483 86.140 -6.0380
263.320862 86.108 -5.8380
265.229004 86.097 -5.5805
267.150970 86.103 -5.3708
269.086853 86.100 -5.2239
271.036774 86.082 -5.0440
273.000824 86.064 -4.8315
274.979095 86.060 -4.6722
276.971710 86.061 -4.5942
278.978760 86.055 -4.5349
281.000336 86.043 -4.4018
283.036591 86.036 -4.1841
285.087585 86.035 -3.9515
287.153442 86.028 -3.7607
289.234283 86.008 -3.6019
291.330200 85.994 -3.4488
293.441284 85.996 -3.3086
295.567688 85.997 -3.0898
297.709503 85.987 -2.7352
299.866821 85.976 -2.3730
302.039795 85.969 -2.2180
304.228485 85.960 -2.1736
306.433044 85.958 -2.0321
308.653595 85.959 -1.8125
310.890228 85.948 -1.5847
313.143066 85.929 -1.3932
315.412231 85.915 -1.2473
317.697845 85.908 -1.1146
320.000000 85.906 -0.9885
322.318848 85.897 -0.8884
324.654510 85.887 -0.7436
327.007080 85.889 -0.5410
329.376709 85.890 -0.2841
331.763519 85.885 -0.0223
334.167603 85.871 0.1860
336.589142 85.862 0.3701
339.028198 85.853 0.5812
341.484924 85.836 0.8160
343.959473 85.815 1.0068
346.451935 85.804 1.1909
348.962463 85.814 1.4438
351.491211 85.824 1.7297
354.038239 85.823 1.9566
356.603760 85.815 2.0685
359.187866 85.811 2.1357
361.790680 85.803 2.3005
364.412354 85.787 2.6146
367.053040 85.768 2.9271
369.712860 85.754 3.1858
372.391968 85.753 3.3943
375.090454 85.752 3.5670
377.808533 85.748 3.7038
380.546265 85.742 3.8554
383.303864 85.741 4.0614
386.081451 85.743 4.2897
388.879150 85.746 4.5430
391.697144 85.749 4.8309
394.535522 85.749 5.0778
397.394501 85.739 5.2435
400.274170 85.722 5.4020
403.174744 85.705 5.6165
406.096313 85.692 5.8673
409.039062 85.686 6.1316
412.003113 85.693 6.3627
414.988647 85.694 6.5813
417.995850 85.669 6.8453
421.024811 85.644 7.0977
424.075714 85.649 7.2466
427.148743 85.654 7.4177
430.244049 85.638 7.6675
433.361786 85.622 7.8784
436.502106 85.622 8.0477
439.665161 85.621 8.2795
442.851166 85.619 8.5814
446.060242 85.626 8.8563
449.292572 85.634 9.0529
452.548340 85.632 9.2361
455.827698 85.621 9.4857
459.130798 85.616 9.7545
462.457855 85.615 10.0057
465.809021 85.613 10.2573
469.184448 85.608 10.4926
472.584381 85.605 10.7540
476.008911 85.597 11.0968
479.458252 85.577 11.4481
482.932617 85.570 11.7078
486.432159 85.591 11.8893
489.957031 85.613 12.0911
493.507477 85.612 12.3227
497.083618 85.601 12.5175
500.685699 85.598 12.6641
504.313873 85.600 12.8436
507.968323 85.601 13.1063
511.649292 85.597 13.3965
515.356934 85.589 13.6722
519.091370 85.584 14.0021
522.852966 85.590 14.3082
526.641724 85.606 14.5364
530.458008 85.628 14.7863
534.301941 85.634 15.1129
538.173706 85.626 15.5342
542.073547 85.616 15.9119
546.001648 85.611 16.1067
549.958191 85.614 16.2383
553.943420 85.623 16.3961
557.957520 85.632 16.5974
562.000671 85.634 16.8817
566.073181 85.634 17.2072
570.175171 85.646 17.4945
574.306885 85.664 17.7858
578.468567 85.677 18.0894
582.660400 85.683 18.3735
586.882568 85.688 18.6412
591.135376 85.701 18.9133
595.419006 85.719 19.1796
599.733643 85.735 19.4108
604.079590 85.745 19.6527
608.456970 85.757 19.8999
612.866089 85.777 20.1479
617.307190 85.797 20.3965
621.780457 85.811 20.6060
626.286133 85.834 20.7778
630.824463 85.864 20.9297
635.395691 85.894 21.0927
640.000000 85.922 21.1949
644.637695 85.949 21.1378
649.309021 85.956 20.8850
654.014160 85.936 20.5551
658.753418 85.884 20.1874
663.527039 85.774 19.8193
668.335205 85.604 19.7286
673.178284 85.433 20.2526
678.056396 85.307 21.2838
682.969849 85.243 22.4857
687.918945 85.237 23.6083
692.903870 85.259 24.5735
697.924927 85.292 25.3448
702.982422 85.339 25.9304
708.076477 85.388 26.4061
713.207520 85.430 26.8861
718.375732 85.468 27.3536
723.581360 85.487 27.7322
728.824707 85.486 28.0872
734.106079 85.487 28.4524
739.425720 85.497 28.8042
744.783936 85.507 29.1593
750.180908 85.507 29.6199
755.617065 85.494 30.2339
761.092529 85.480 30.8373
766.607727 85.485 31.4081
772.162903 85.514 32.0236
777.758301 85.565 32.6275
783.394287 85.609 33.2152
789.071045 85.629 33.8156
794.789001 85.660 34.3092
800.548340 85.700 34.7183
806.349487 85.735 35.1388
812.192627 85.774 35.6125
818.078125 85.818 36.0847
824.006226 85.855 36.5374
829.977295 85.888 36.9743
835.991699 85.931 37.3893
842.049622 85.974 37.7920
848.151428 85.999 38.1964
854.297485 86.022 38.5649
860.488098 86.056 38.9602
866.723572 86.100 39.4178
873.004211 86.143 39.8553
879.330322 86.176 40.2607
885.702332 86.207 40.6411
892.120483 86.239 41.0396
898.585144 86.276 41.5292
905.096680 86.318 42.0008
911.655396 86.361 42.3813
918.261597 86.403 42.7564
924.915710 86.448 43.1284
931.618042 86.495 43.4946
938.368896 86.547 43.9248
945.168762 86.597 44.3890
952.017822 86.644 44.8509
958.916504 86.683 45.2869
965.865234 86.720 45.6739
972.864319 86.768 45.9958
979.914062 86.823 46.3149
987.014954 86.872 46.6676
994.167236 86.919 47.0540
1001.371399 86.971 47.4475
1008.627747 87.025 47.8167
1015.936646 87.088 48.1022
1023.298584 87.152 48.4305
1030.713867 87.199 48.8252
1038.182739 87.246 49.1360
1045.705933 87.292 49.3970
1053.283447 87.343 49.7228
1060.916016 87.394 50.0643
1068.603882 87.449 50.3736
1076.347412 87.515 50.6599
1084.147095 87.579 50.9098
1092.003296 87.636 51.1276
1099.916382 87.691 51.3699
1107.886841 87.750 51.6795
1115.915039 87.816 51.9741
1124.001343 87.883 52.2178
1132.146362 87.948 52.4726
1140.350342 88.013 52.6913
1148.613770 88.086 52.8949
1156.937134 88.153 53.1327
1165.320801 88.211 53.3640
1173.765137 88.270 53.5850
1182.270752 88.332 53.8173
1190.838013 88.401 54.0093
1199.467285 88.468 54.1624
1208.159180 88.531 54.3480
1216.913940 88.594 54.5696
1225.732178 88.664 54.7857
1234.614380 88.738 54.9883
1243.560913 88.803 55.1599
1252.572266 88.868 55.3181
1261.648926 88.930 55.4899
1270.791382 88.986 55.6571
1280.000000 89.048 55.8394
1289.275391 89.116 56.0548
1298.618042 89.175 56.2371
1308.028320 89.230 56.3631
1317.506836 89.286 56.4844
1327.054077 89.343 56.6504
1336.670410 89.404 56.8298
1346.356567 89.464 56.9785
1356.112793 89.509 57.1461
1365.939697 89.544 57.3625
1375.837891 89.593 57.5826
1385.807739 89.650 57.7574
1395.849854 89.699 57.9143
1405.964844 89.746 58.0725
1416.152954 89.794 58.2169
1426.415039 89.847 58.3618
1436.751465 89.902 58.5357
1447.162720 89.961 58.7191
1457.649414 90.024 58.8987
1468.212158 90.088 59.0587
1478.851440 90.145 59.2119
1489.567871 90.200 59.3839
1500.361816 90.255 59.5659
1511.234131 90.312 59.7593
1522.185059 90.369 59.9687
1533.215454 90.426 60.1851
1544.325806 90.476 60.3830
1555.516602 90.524 60.5829
1566.788574 90.575 60.7814
1578.142090 90.627 60.9659
1589.578003 90.678 61.1207
1601.096680 90.728 61.2645
1612.698975 90.782 61.4474
1624.385254 90.837 61.6397
1636.156250 90.894 61.8058
1648.012451 90.953 61.9987
1659.954590 91.012 62.1996
1671.983398 91.066 62.3832
1684.099243 91.121 62.5794
1696.302856 91.182 62.7678
1708.594971 91.239 62.9395
1720.976196 91.291 63.1105
1733.447144 91.345 63.2994
1746.008423 91.404 63.4763
1758.660645 91.467 63.6514
1771.404663 91.525 63.8356
1784.240967 91.579 64.0088
1797.170288 91.636 64.1802
1810.193359 91.696 64.3640
1823.310791 91.758 64.5457
1836.523193 91.824 64.7016
1849.831421 91.889 64.8491
1863.236084 91.953 65.0072
1876.737793 92.017 65.1505
1890.337524 92.081 65.2809
1904.035645 92.144 65.4294
1917.833008 92.206 65.5718
1931.730469 92.275 65.6817
1945.728638 92.344 65.7721
1959.828125 92.410 65.8736
1974.029907 92.475 65.9882
1988.334473 92.540 66.0876
2002.742798 92.604 66.1855
2017.255493 92.666 66.2802
2031.873291 92.729 66.3564
2046.597168 92.792 66.4282
2061.427734 92.855 66.5049
2076.365479 92.921 66.5716
2091.411865 92.987 66.6353
2106.566895 93.055 66.6855
2121.832031 93.123 66.7126
2137.207764 93.188 66.7398
2152.694824 93.253 66.7658
2168.294189 93.318 66.7902
2184.006592 93.382 66.8095
2199.832764 93.444 66.8292
2215.773682 93.505 66.8391
2231.830078 93.566 66.8354
2248.002686 93.630 66.8259
2264.292725 93.693 66.8023
2280.700684 93.753 66.7730
2297.227539 93.813 66.7307
2313.874268 93.873 66.6711
2330.641602 93.931 66.6042
2347.530273 93.989 66.5544
2364.541504 94.046 66.5073
2381.676025 94.106 66.4244
2398.934570 94.161 66.3253
2416.318359 94.210 66.2267
2433.827881 94.260 66.1292
2451.464355 94.314 66.0381
2469.228760 94.364 65.9475
2487.121826 94.412 65.8503
2505.144531 94.461 65.7289
2523.297852 94.511 65.6076
2541.582764 94.559 65.4879
2560.000000 94.602 65.3497
2578.550781 94.641 65.2056
2597.236084 94.677 65.0732
2616.056641 94.712 64.9332
2635.013672 94.747 64.7708
2654.108154 94.781 64.6196
2673.340820 94.814 64.4810
2692.713135 94.845 64.3499
2712.225586 94.875 64.2055
2731.879395 94.898 64.0433
2751.675781 94.921 63.8867
2771.615479 94.943 63.7311
2791.699707 94.962 63.5805
2811.929688 94.979 63.4358
2832.305908 94.992 63.3023
2852.830078 95.002 63.1860
2873.502930 95.009 63.0650
2894.325439 95.016 62.9478
2915.298828 95.019 62.8656
2936.424316 95.019 62.8089
2957.702881 95.018 62.7487
2979.135742 95.016 62.6866
3000.723633 95.012 62.6648
3022.468262 95.006 62.7078
3044.370117 95.005 62.7973
3066.430908 95.006 62.9253
3088.651611 95.007 63.1027
3111.033203 95.012 63.3192
3133.577148 95.026 63.5666
3156.284180 95.053 63.8380
3179.156006 95.096 64.1160
3202.193359 95.152 64.3662
3225.397949 95.220 64.5522
3248.770508 95.298 64.6415
3272.312500 95.379 64.6200
3296.024902 95.459 64.4862
3319.909180 95.534 64.2529
3343.966797 95.602 63.9549
3368.198486 95.659 63.6138
3392.605713 95.706 63.2159
3417.189941 95.744 62.7928
3441.952393 95.777 62.3813
3466.894287 95.805 61.9740
3492.016846 95.825 61.5707
3517.321289 95.840 61.1791
3542.809326 95.850 60.7942
3568.481934 95.856 60.4102
3594.340576 95.861 60.0370
3620.386719 95.864 59.6740
3646.621582 95.864 59.3187
3673.046387 95.860 58.9563
3699.662842 95.852 58.5812
3726.472168 95.847 58.2157
3753.475586 95.839 57.8604
3780.675049 95.826 57.4898
3808.071289 95.805 57.0869
3835.666016 95.778 56.6721
3863.460938 95.749 56.2630
3891.457275 95.714 55.8583
3919.656250 95.673 55.4583
3948.059814 95.627 55.0605
3976.668945 95.574 54.6645
