* Measurement data measured by REW V5.20.13
* Source: Microphone (Realtek(R) Audio), MICROPHONE (Master Volume), L, volume: 0.710. Timing signal peak level -37.4 dBFS, measurement signal peak level -37.2 dBFS
* Format: 2M Log Swept Sine, 1 sweep at -12.0 dBFS using an acoustic timing reference
* Dated: Sep 7, 2023 3:46:00 PM
* REW Settings:
*  C-weighting compensation: Off
*  Target level: 75.0 dB
* Note: ; Delay -0.0560 ms (-19 mm, -0.76 in) using estimated IR delay relative to Acoustic reference played from HEADPHONE L with no timing offset Clock adjustment: 120.6 ppm
* Measurement: KZ Krila UDUD L
* Smoothing: 1/48 octave
* Frequency Step: 1/96 octave
* Start Frequency: 20.000 Hz
*
* Freq(Hz) SPL(dB) Phase(degrees)
20.000000 94.217 3.4020
20.144928 94.207 3.1654
20.290907 94.198 2.9253
20.437943 94.188 2.6846
20.586044 94.178 2.4475
20.735220 94.166 2.2136
20.885475 94.154 1.9818
21.036821 94.141 1.7502
21.189262 94.127 1.5223
21.342808 94.112 1.3028
21.497467 94.096 1.0907
21.653246 94.080 0.8896
21.810154 94.064 0.7021
21.968201 94.050 0.5202
22.127390 94.036 0.3400
22.287735 94.025 0.1621
22.449242 94.015 -0.0153
22.611917 94.006 -0.1926
22.775772 93.998 -0.3784
22.940815 93.992 -0.5720
23.107054 93.985 -0.7787
23.274498 93.978 -1.0026
23.443153 93.969 -1.2348
23.613033 93.959 -1.4727
23.784142 93.947 -1.7132
23.956491 93.933 -1.9514
24.130091 93.918 -2.1857
24.304947 93.902 -2.4089
24.481071 93.884 -2.6214
24.658470 93.867 -2.8182
24.837156 93.850 -3.0017
25.017136 93.835 -3.1822
25.198421 93.821 -3.3593
25.381020 93.808 -3.5406
25.564941 93.797 -3.7258
25.750195 93.787 -3.9197
25.936790 93.776 -4.1222
26.124741 93.764 -4.3362
26.314051 93.752 -4.5592
26.504732 93.737 -4.7800
26.696796 93.721 -4.9983
26.890253 93.703 -5.2080
27.085112 93.684 -5.4099
27.281382 93.665 -5.6037
27.479073 93.646 -5.7891
27.678198 93.627 -5.9644
27.878765 93.609 -6.1351
28.080786 93.591 -6.3037
28.284271 93.574 -6.4716
28.489231 93.557 -6.6394
28.695675 93.541 -6.8053
28.903616 93.525 -6.9703
29.113064 93.509 -7.1374
29.324028 93.494 -7.3066
29.536524 93.480 -7.4783
29.750557 93.465 -7.6544
29.966141 93.449 -7.8355
30.183289 93.432 -8.0233
30.402010 93.413 -8.2146
30.622314 93.392 -8.4034
30.844217 93.371 -8.5875
31.067726 93.349 -8.7654
31.292856 93.327 -8.9386
31.519617 93.306 -9.1089
31.748020 93.286 -9.2781
31.978081 93.266 -9.4530
32.209808 93.247 -9.6344
32.443211 93.227 -9.8219
32.678310 93.205 -10.0080
32.915108 93.182 -10.1883
33.153625 93.158 -10.3565
33.393871 93.135 -10.5127
33.635857 93.114 -10.6568
33.879597 93.098 -10.8042
34.125103 93.085 -10.9665
34.372387 93.074 -11.1556
34.621464 93.061 -11.3726
34.872345 93.044 -11.6055
35.125042 93.022 -11.8428
35.379574 92.995 -12.0559
35.635948 92.966 -12.2305
35.894180 92.937 -12.3611
36.154285 92.913 -12.4548
36.416275 92.894 -12.5392
36.680161 92.881 -12.6326
36.945961 92.871 -12.7545
37.213688 92.860 -12.9099
37.483353 92.845 -13.0796
37.754974 92.826 -13.2461
38.028561 92.804 -13.3880
38.304131 92.782 -13.5023
38.581699 92.764 -13.6037
38.861279 92.748 -13.7095
39.142883 92.734 -13.8417
39.426529 92.716 -14.0030
39.712231 92.692 -14.1698
40.000000 92.663 -14.3159
40.289856 92.630 -14.4163
40.581814 92.602 -14.4623
40.875885 92.582 -14.4888
41.172089 92.573 -14.5461
41.470440 92.569 -14.6764
41.770950 92.564 -14.9011
42.073643 92.548 -15.2026
42.378525 92.516 -15.5185
42.685616 92.472 -15.7863
42.994934 92.423 -15.9717
43.306492 92.377 -16.0768
43.620308 92.341 -16.1384
43.936401 92.317 -16.2108
44.254780 92.298 -16.3327
44.575470 92.278 -16.4991
44.898483 92.254 -16.6800
45.223835 92.228 -16.8469
45.551544 92.204 -16.9907
45.881630 92.183 -17.1256
46.214108 92.166 -17.2767
46.548996 92.149 -17.4539
46.886307 92.126 -17.6365
47.226067 92.099 -17.7842
47.568283 92.072 -17.8670
47.912983 92.052 -17.8946
48.260181 92.043 -17.9162
48.609894 92.042 -17.9898
48.962143 92.041 -18.1460
49.316940 92.030 -18.3681
49.674313 92.003 -18.5996
50.034271 91.963 -18.7775
50.396843 91.915 -18.8662
50.762039 91.870 -18.8732
51.129883 91.831 -18.8390
51.500389 91.800 -18.8111
51.873581 91.772 -18.8188
52.249481 91.742 -18.8630
52.628101 91.709 -18.9232
53.009464 91.674 -18.9809
53.393593 91.641 -19.0389
53.780506 91.612 -19.1206
54.170223 91.585 -19.2493
54.562763 91.555 -19.4213
54.958145 91.520 -19.6012
55.356396 91.485 -19.7499
55.757530 91.456 -19.8653
56.161572 91.439 -19.9956
56.568542 91.429 -20.1925
56.978462 91.412 -20.4409
57.391350 91.386 -20.6466
57.807232 91.363 -20.7249
58.226128 91.366 -20.7236
58.648056 91.401 -20.8321
59.073048 91.440 -21.2318
59.501114 91.440 -21.8985
59.932281 91.371 -22.5448
60.366577 91.250 -22.8083
60.804020 91.131 -22.5479
61.244629 91.068 -21.9693
61.688435 91.067 -21.4616
62.135452 91.089 -21.2716
62.585712 91.089 -21.3324
63.039234 91.056 -21.4205
63.496040 91.009 -21.4045
63.956161 90.966 -21.3188
64.419617 90.931 -21.2594
64.886421 90.896 -21.2522
65.356621 90.860 -21.2648
65.830215 90.828 -21.2911
66.307251 90.802 -21.3725
66.787743 90.774 -21.5282
67.271713 90.738 -21.7103
67.759193 90.698 -21.8473
68.250206 90.662 -21.9212
68.744774 90.636 -21.9741
69.242928 90.617 -22.0517
69.744690 90.596 -22.1539
70.250084 90.572 -22.2447
70.759148 90.546 -22.2906
71.271896 90.519 -22.2863
71.788361 90.496 -22.2527
72.308571 90.477 -22.2233
72.832550 90.458 -22.2331
73.360321 90.433 -22.2974
73.891922 90.395 -22.3864
74.427376 90.345 -22.4305
74.966705 90.293 -22.3876
75.509949 90.252 -22.3052
76.057121 90.222 -22.2776
76.608261 90.190 -22.3292
77.163399 90.150 -22.3767
77.722557 90.113 -22.3517
78.285767 90.093 -22.3169
78.853058 90.082 -22.3816
79.424461 90.063 -22.5292
80.000000 90.029 -22.6394
80.579712 89.995 -22.6617
81.163628 89.968 -22.6486
81.751770 89.945 -22.6484
82.344177 89.921 -22.6574
82.940880 89.896 -22.6805
83.541901 89.865 -22.7298
84.147285 89.824 -22.7685
84.757050 89.779 -22.7466
85.371231 89.739 -22.6848
85.989868 89.705 -22.6321
86.612984 89.672 -22.5879
87.240616 89.642 -22.5406
87.872803 89.618 -22.5179
88.509560 89.594 -22.5418
89.150940 89.567 -22.5884
89.796967 89.538 -22.6403
90.447670 89.504 -22.6922
91.103088 89.465 -22.7053
91.763260 89.428 -22.6448
92.428215 89.403 -22.5550
93.097992 89.388 -22.5154
93.772614 89.371 -22.5450
94.452133 89.344 -22.5882
95.136566 89.311 -22.5811
95.825966 89.280 -22.5203
96.520363 89.256 -22.4541
97.219788 89.235 -22.4204
97.924286 89.211 -22.4275
98.633881 89.177 -22.4558
99.348625 89.133 -22.4446
100.068542 89.090 -22.3645
100.793686 89.058 -22.2978
101.524078 89.021 -22.2944
102.259766 88.977 -22.2544
103.000778 88.941 -22.1398
103.747162 88.922 -22.0684
104.498962 88.902 -22.0757
105.256203 88.877 -22.0836
106.018929 88.853 -22.0941
106.787186 88.821 -22.1232
107.561012 88.777 -22.0735
108.340446 88.738 -21.9051
109.125526 88.717 -21.7419
109.916290 88.700 -21.6788
110.712791 88.675 -21.6799
111.515060 88.643 -21.6815
112.323143 88.609 -21.6667
113.137085 88.575 -21.6176
113.956924 88.548 -21.4990
114.782700 88.533 -21.3710
115.614464 88.516 -21.2674
116.452255 88.494 -21.0528
117.296112 88.487 -20.8044
118.146095 88.467 -20.6106
119.002228 88.445 -20.2263
119.864563 88.473 -19.9605
120.733154 88.479 -20.2570
121.608040 88.397 -20.5351
122.489258 88.312 -20.4358
123.376869 88.261 -20.3646
124.270905 88.215 -20.3915
125.171425 88.175 -20.4204
126.078468 88.142 -20.4805
126.992081 88.107 -20.5092
127.912323 88.078 -20.4524
128.839233 88.063 -20.3499
129.772842 88.055 -20.2853
130.713242 88.040 -20.2579
131.660431 88.015 -20.2077
132.614502 87.987 -20.1236
133.575485 87.955 -20.0175
134.543427 87.921 -19.8751
135.518387 87.891 -19.7122
136.500412 87.865 -19.5468
137.489548 87.844 -19.3971
138.485855 87.825 -19.3043
139.489380 87.800 -19.2376
140.500168 87.775 -19.1816
141.518295 87.747 -19.1502
142.543793 87.714 -19.0969
143.576721 87.683 -18.9929
144.617142 87.658 -18.8532
145.665100 87.642 -18.7245
146.720642 87.628 -18.6625
147.783844 87.604 -18.6226
148.854752 87.571 -18.5205
149.933411 87.542 -18.3173
151.019897 87.528 -18.0832
152.114243 87.520 -17.9101
153.216522 87.508 -17.7778
154.326797 87.492 -17.6587
155.445114 87.472 -17.5627
156.571533 87.450 -17.4859
157.706116 87.430 -17.4454
158.848923 87.405 -17.4754
160.000000 87.367 -17.4592
161.159424 87.331 -17.3168
162.327255 87.307 -17.1184
163.503540 87.295 -16.9112
164.688354 87.286 -16.8026
165.881760 87.258 -16.7584
167.083801 87.218 -16.6167
168.294571 87.193 -16.3993
169.514099 87.182 -16.2508
170.742462 87.168 -16.1372
171.979736 87.149 -15.9685
173.225967 87.133 -15.7224
174.481232 87.122 -15.4846
175.745605 87.106 -15.3367
177.019119 87.076 -15.2856
178.301880 87.029 -15.2920
179.593933 86.970 -15.2525
180.895340 86.928 -15.0806
182.206177 86.921 -14.9682
183.526520 86.911 -14.9385
184.856430 86.895 -14.8059
186.195984 86.881 -14.5784
187.545227 86.869 -14.3330
188.904266 86.851 -14.1410
190.273132 86.828 -13.9751
191.651932 86.810 -13.8493
193.040726 86.793 -13.7748
194.439575 86.773 -13.6662
195.848572 86.754 -13.4570
197.267761 86.744 -13.2194
198.697250 86.727 -13.0703
200.137085 86.694 -12.9396
201.587372 86.663 -12.7863
203.048157 86.645 -12.6477
204.519531 86.637 -12.5188
206.001556 86.633 -12.3362
207.494324 86.633 -12.1154
208.997925 86.623 -11.9032
210.512405 86.602 -11.7147
212.037857 86.578 -11.5858
213.574371 86.552 -11.5161
215.122025 86.525 -11.4064
216.680893 86.510 -11.1984
218.251053 86.506 -10.9916
219.832581 86.497 -10.8129
221.425583 86.483 -10.6652
223.030121 86.462 -10.5786
224.646286 86.434 -10.4969
226.274170 86.410 -10.3533
227.913849 86.399 -10.1812
229.565399 86.391 -10.0359
231.228928 86.373 -9.8867
232.904510 86.345 -9.6828
234.592224 86.310 -9.4303
236.292191 86.280 -9.1855
238.004456 86.250 -9.0372
239.729126 86.216 -8.8700
241.466309 86.206 -8.6597
243.216080 86.206 -8.5566
244.978516 86.192 -8.4357
246.753738 86.180 -8.2259
248.541809 86.182 -8.0209
250.342850 86.190 -7.8762
252.156937 86.195 -7.7528
253.984161 86.187 -7.6094
255.824646 86.164 -7.4248
257.678467 86.135 -7.2142
259.545685 86.107 -7.0082
261.426483 86.089 -6.8152
263.320862 86.078 -6.6212
265.229004 86.073 -6.4281
267.150970 86.065 -6.2718
269.086853 86.049 -6.1489
271.036774 86.027 -6.0001
273.000824 86.012 -5.7878
274.979095 86.009 -5.5685
276.971710 86.014 -5.3868
278.978760 86.013 -5.2359
281.000336 86.005 -5.0307
283.036591 86.000 -4.7635
285.087585 85.994 -4.5129
287.153442 85.983 -4.2560
289.234283 85.974 -3.9860
291.330200 85.970 -3.8020
293.441284 85.958 -3.7278
295.567688 85.944 -3.6280
297.709503 85.947 -3.4610
299.866821 85.958 -3.2756
302.039795 85.948 -3.0900
304.228485 85.918 -2.8856
306.433044 85.890 -2.7022
308.653595 85.871 -2.5081
310.890228 85.855 -2.2454
313.143066 85.835 -1.9633
315.412231 85.816 -1.7397
317.697845 85.808 -1.5807
320.000000 85.804 -1.4206
322.318848 85.800 -1.2268
324.654510 85.799 -1.0626
327.007080 85.809 -0.8995
329.376709 85.828 -0.7016
331.763519 85.831 -0.4455
334.167603 85.821 -0.2027
336.589142 85.807 -0.0548
339.028198 85.797 0.1125
341.484924 85.797 0.3319
343.959473 85.793 0.5326
346.451935 85.781 0.6861
348.962463 85.765 0.8278
351.491211 85.747 1.0393
354.038239 85.729 1.3370
356.603760 85.706 1.6758
359.187866 85.684 1.9867
361.790680 85.677 2.1747
364.412354 85.684 2.2366
367.053040 85.697 2.3558
369.712860 85.714 2.5662
372.391968 85.722 2.8207
375.090454 85.720 3.0814
377.808533 85.712 3.3188
380.546265 85.700 3.5044
383.303864 85.680 3.7159
386.081451 85.661 4.0344
388.879150 85.651 4.3800
391.697144 85.653 4.6122
394.535522 85.657 4.7064
397.394501 85.654 4.8082
400.274170 85.647 5.0283
403.174744 85.641 5.3140
406.096313 85.631 5.5638
409.039062 85.617 5.7816
412.003113 85.612 5.9813
414.988647 85.621 6.1493
417.995850 85.636 6.3333
421.024811 85.641 6.5631
424.075714 85.629 6.8509
427.148743 85.620 7.1161
430.244049 85.616 7.3294
433.361786 85.613 7.5771
436.502106 85.606 7.8736
439.665161 85.594 8.1900
442.851166 85.576 8.4797
446.060242 85.558 8.7258
449.292572 85.552 8.9220
452.548340 85.559 9.0952
455.827698 85.558 9.3120
459.130798 85.547 9.5751
462.457855 85.539 9.8030
465.809021 85.541 10.0215
469.184448 85.546 10.2780
472.584381 85.541 10.5373
476.008911 85.539 10.6830
479.458252 85.545 10.7645
482.932617 85.545 11.0625
486.432159 85.538 11.5176
489.957031 85.529 11.8844
493.507477 85.525 12.1305
497.083618 85.524 12.3098
500.685699 85.531 12.4840
504.313873 85.542 12.7327
507.968323 85.544 13.0506
511.649292 85.540 13.3570
515.356934 85.540 13.6130
519.091370 85.538 13.8317
522.852966 85.534 14.0659
526.641724 85.532 14.3491
530.458008 85.531 14.6442
534.301941 85.524 14.9424
538.173706 85.510 15.2361
542.073547 85.512 15.5333
546.001648 85.536 15.8093
549.958191 85.563 16.0596
553.943420 85.580 16.3205
557.957520 85.584 16.6098
562.000671 85.583 16.8947
566.073181 85.586 17.2048
570.175171 85.598 17.5193
574.306885 85.611 17.7946
578.468567 85.620 18.0645
582.660400 85.623 18.3321
586.882568 85.623 18.6158
591.135376 85.621 18.8928
595.419006 85.633 19.1704
599.733643 85.659 19.4414
604.079590 85.675 19.6591
608.456970 85.678 19.8568
612.866089 85.696 20.0696
617.307190 85.725 20.2746
621.780457 85.746 20.4890
626.286133 85.768 20.7633
630.824463 85.795 21.0376
635.395691 85.820 21.1974
640.000000 85.848 21.2275
644.637695 85.876 21.1549
649.309021 85.900 20.9909
654.014160 85.909 20.7125
658.753418 85.876 20.3446
663.527039 85.779 19.8975
668.335205 85.619 19.6754
673.178284 85.424 20.0572
678.056396 85.268 20.9837
682.969849 85.200 22.2229
687.918945 85.194 23.4682
692.903870 85.218 24.4588
697.924927 85.251 25.2136
702.982422 85.284 25.8571
708.076477 85.312 26.3953
713.207520 85.346 26.8477
718.375732 85.388 27.2695
723.581360 85.416 27.6759
728.824707 85.430 28.1240
734.106079 85.444 28.5690
739.425720 85.463 28.9355
744.783936 85.477 29.2721
750.180908 85.477 29.6722
755.617065 85.464 30.1715
761.092529 85.455 30.7406
766.607727 85.454 31.3560
772.162903 85.466 31.9576
777.758301 85.492 32.4925
783.394287 85.525 33.0527
789.071045 85.567 33.7000
794.789001 85.613 34.3038
800.548340 85.654 34.7823
806.349487 85.693 35.2030
812.192627 85.728 35.6598
818.078125 85.756 36.0876
824.006226 85.790 36.4967
829.977295 85.828 36.8934
835.991699 85.861 37.2578
842.049622 85.896 37.6848
848.151428 85.940 38.1852
854.297485 85.980 38.6031
860.488098 86.012 38.9393
866.723572 86.043 39.3220
873.004211 86.074 39.7831
879.330322 86.111 40.2457
885.702332 86.155 40.6903
892.120483 86.202 41.1026
898.585144 86.246 41.4619
905.096680 86.284 41.8857
911.655396 86.325 42.3283
918.261597 86.367 42.7101
924.915710 86.409 43.1273
931.618042 86.446 43.5776
938.368896 86.484 43.9838
945.168762 86.532 44.3830
952.017822 86.586 44.7939
958.916504 86.635 45.1826
965.865234 86.684 45.5984
972.864319 86.736 45.9925
979.914062 86.786 46.3316
987.014954 86.833 46.6395
994.167236 86.883 46.9537
1001.371399 86.931 47.3245
1008.627747 86.984 47.7195
1015.936646 87.048 48.1251
1023.298584 87.107 48.4915
1030.713867 87.148 48.8029
1038.182739 87.190 49.1335
1045.705933 87.244 49.4525
1053.283447 87.301 49.7524
1060.916016 87.360 50.0596
1068.603882 87.422 50.3462
1076.347412 87.482 50.6034
1084.147095 87.539 50.8506
1092.003296 87.598 51.1288
1099.916382 87.666 51.4399
1107.886841 87.738 51.7281
1115.915039 87.800 51.9764
1124.001343 87.855 52.2310
1132.146362 87.914 52.4806
1140.350342 87.971 52.7211
1148.613770 88.035 52.9535
1156.937134 88.107 53.1437
1165.320801 88.175 53.3140
1173.765137 88.235 53.4905
1182.270752 88.292 53.7010
1190.838013 88.349 53.9339
1199.467285 88.407 54.1523
1208.159180 88.467 54.3338
1216.913940 88.537 54.5018
1225.732178 88.614 54.7082
1234.614380 88.683 54.8972
1243.560913 88.746 55.0676
1252.572266 88.808 55.2308
1261.648926 88.869 55.3969
1270.791382 88.932 55.5798
1280.000000 88.996 55.7599
1289.275391 89.063 55.9495
1298.618042 89.128 56.1191
1308.028320 89.188 56.2419
1317.506836 89.249 56.3766
1327.054077 89.308 56.5478
1336.670410 89.362 56.7716
1346.356567 89.414 56.9848
1356.112793 89.458 57.1447
1365.939697 89.495 57.2956
1375.837891 89.539 57.4843
1385.807739 89.594 57.6716
1395.849854 89.654 57.7993
1405.964844 89.715 57.9268
1416.152954 89.771 58.0818
1426.415039 89.822 58.2798
1436.751465 89.870 58.4971
1447.162720 89.920 58.6904
1457.649414 89.977 58.8585
1468.212158 90.036 59.0421
1478.851440 90.097 59.2116
1489.567871 90.157 59.3455
1500.361816 90.208 59.4992
1511.234131 90.257 59.6821
1522.185059 90.309 59.8690
1533.215454 90.361 60.0777
1544.325806 90.413 60.3001
1555.516602 90.466 60.4708
1566.788574 90.520 60.6351
1578.142090 90.577 60.8178
1589.578003 90.634 61.0079
1601.096680 90.684 61.1948
1612.698975 90.729 61.3989
1624.385254 90.779 61.5800
1636.156250 90.832 61.7382
1648.012451 90.886 61.9172
1659.954590 90.945 62.0977
1671.983398 91.003 62.2787
1684.099243 91.059 62.4616
1696.302856 91.118 62.6660
1708.594971 91.173 62.8849
1720.976196 91.221 63.0833
1733.447144 91.273 63.2773
1746.008423 91.330 63.4669
1758.660645 91.388 63.6711
1771.404663 91.446 63.9087
1784.240967 91.507 64.1185
1797.170288 91.569 64.2815
1810.193359 91.632 64.4715
1823.310791 91.699 64.6833
1836.523193 91.766 64.8782
1849.831421 91.836 65.0422
1863.236084 91.903 65.1986
1876.737793 91.971 65.3545
1890.337524 92.041 65.4970
1904.035645 92.111 65.6166
1917.833008 92.181 65.7177
1931.730469 92.248 65.8059
1945.728638 92.312 65.9044
1959.828125 92.373 65.9940
1974.029907 92.437 66.0572
1988.334473 92.502 66.1240
2002.742798 92.567 66.2114
2017.255493 92.633 66.2989
2031.873291 92.700 66.3747
2046.597168 92.763 66.4443
2061.427734 92.827 66.5104
2076.365479 92.890 66.5547
2091.411865 92.953 66.5882
2106.566895 93.019 66.6397
2121.832031 93.087 66.7069
2137.207764 93.150 66.7555
2152.694824 93.214 66.7892
2168.294189 93.280 66.7950
2184.006592 93.344 66.7786
2199.832764 93.407 66.7822
2215.773682 93.470 66.7969
2231.830078 93.530 66.7998
2248.002686 93.593 66.7794
2264.292725 93.656 66.7519
2280.700684 93.717 66.7056
2297.227539 93.775 66.6808
2313.874268 93.829 66.6702
2330.641602 93.882 66.6181
2347.530273 93.939 66.5464
2364.541504 93.999 66.4618
2381.676025 94.055 66.3666
2398.934570 94.108 66.2944
2416.318359 94.161 66.2255
2433.827881 94.213 66.1267
2451.464355 94.261 66.0289
2469.228760 94.310 65.9324
2487.121826 94.358 65.8054
2505.144531 94.404 65.6758
2523.297852 94.448 65.5677
2541.582764 94.488 65.4696
2560.000000 94.528 65.3528
2578.550781 94.567 65.2017
2597.236084 94.607 65.0407
2616.056641 94.644 64.9032
2635.013672 94.679 64.7737
2654.108154 94.713 64.6423
2673.340820 94.743 64.5065
2692.713135 94.768 64.3743
2712.225586 94.791 64.2555
2731.879395 94.814 64.1501
2751.675781 94.834 64.0315
2771.615479 94.848 63.9179
2791.699707 94.859 63.8158
2811.929688 94.872 63.7230
2832.305908 94.881 63.6522
2852.830078 94.889 63.5926
2873.502930 94.894 63.5522
2894.325439 94.899 63.5559
2915.298828 94.906 63.6082
2936.424316 94.911 63.7001
2957.702881 94.916 63.8179
2979.135742 94.928 63.9670
3000.723633 94.952 64.1544
3022.468262 94.986 64.3815
3044.370117 95.030 64.6232
3066.430908 95.087 64.8209
3088.651611 95.155 64.9557
3111.033203 95.230 65.0041
3133.577148 95.310 64.9408
3156.284180 95.390 64.7776
3179.156006 95.460 64.5202
3202.193359 95.519 64.2081
3225.397949 95.567 63.8859
3248.770508 95.606 63.5505
3272.312500 95.637 63.2153
3296.024902 95.660 62.9000
3319.909180 95.679 62.5906
3343.966797 95.694 62.2692
3368.198486 95.709 61.9655
3392.605713 95.723 61.6786
3417.189941 95.737 61.3903
3441.952393 95.750 61.1117
3466.894287 95.762 60.8310
3492.016846 95.772 60.5419
3517.321289 95.781 60.2447
3542.809326 95.789 59.9393
3568.481934 95.796 59.6392
3594.340576 95.801 59.3383
3620.386719 95.801 59.0328
3646.621582 95.799 58.7232
3673.046387 95.798 58.3989
3699.662842 95.796 58.0665
3726.472168 95.790 57.7334
3753.475586 95.782 57.3843
3780.675049 95.772 57.0307
3808.071289 95.753 56.6837
3835.666016 95.729 56.3269
3863.460938 95.702 55.9587
3891.457275 95.672 55.5721
3919.656250 95.634 55.1831
3948.059814 95.591 54.7992
3976.668945 95.544 54.4082
