* Measurement data measured by REW V5.20.13
* Source: Microphone (Realtek(R) Audio), MICROPHONE (Master Volume), L, volume: 0.710. Timing signal peak level -37.3 dBFS, measurement signal peak level -37.3 dBFS
* Format: 2M Log Swept Sine, 1 sweep at -12.0 dBFS using an acoustic timing reference
* Dated: Sep 7, 2023 3:32:59 PM
* REW Settings:
*  C-weighting compensation: Off
*  Target level: 75.0 dB
* Note: ; Delay -0.0561 ms (-19 mm, -0.76 in) using estimated IR delay relative to Acoustic reference played from HEADPHONE L with no timing offset Clock adjustment: 120.6 ppm
* Measurement: KZ Krila UUUD L
* Smoothing: 1/24 octave
* Frequency Step: 1/48 octave
* Start Frequency: 20.000 Hz
*
* Freq(Hz) SPL(dB) Phase(degrees)
20.000000 94.674 3.1255
20.299999 94.656 2.6624
20.600000 94.639 2.1986
20.900000 94.622 1.7313
21.200001 94.603 1.2605
21.400000 94.589 0.9478
21.799999 94.558 0.3336
22.000000 94.540 0.0372
22.400000 94.505 -0.5262
22.700001 94.478 -0.9202
23.000000 94.454 -1.2927
23.299999 94.431 -1.6521
23.600000 94.410 -2.0056
24.000000 94.385 -2.4767
24.299999 94.367 -2.8318
24.700001 94.342 -3.3024
25.000000 94.321 -3.6466
25.400000 94.293 -4.0873
25.799999 94.266 -4.5087
26.200001 94.241 -4.9255
26.500000 94.222 -5.2452
26.900000 94.195 -5.6843
27.200001 94.170 -6.0154
27.600000 94.132 -6.4380
28.000000 94.091 -6.8150
28.500000 94.041 -7.2173
29.000000 94.001 -7.5919
29.500000 93.968 -8.0003
30.000000 93.934 -8.4572
30.400000 93.900 -8.8323
30.700001 93.872 -9.1042
31.100000 93.835 -9.4486
31.500000 93.800 -9.7818
32.000000 93.760 -10.2024
32.500000 93.719 -10.6290
33.000000 93.676 -11.0394
33.500000 93.635 -11.4233
34.000000 93.596 -11.8013
34.500000 93.557 -12.1891
35.000000 93.511 -12.5546
35.500000 93.460 -12.8370
36.000000 93.416 -13.0316
36.500000 93.387 -13.2197
37.000000 93.362 -13.4943
37.500000 93.327 -13.8458
38.200001 93.253 -14.2822
38.700001 93.202 -14.5092
39.500000 93.132 -14.9689
40.000000 93.073 -15.3373
40.599998 92.979 -15.6388
41.200001 92.902 -15.6644
41.799999 92.877 -15.6725
42.500000 92.881 -16.0545
43.099998 92.855 -16.5978
43.700001 92.801 -17.0262
44.400002 92.745 -17.3185
45.000000 92.714 -17.5631
45.500000 92.686 -17.8088
46.200001 92.634 -18.1279
46.799999 92.586 -18.3400
47.500000 92.531 -18.5830
48.200001 92.468 -18.8354
48.700001 92.418 -18.9817
49.400002 92.354 -19.1250
50.000000 92.313 -19.2616
50.799999 92.271 -19.5837
51.500000 92.226 -19.9587
52.200001 92.171 -20.2853
53.000000 92.114 -20.5446
53.799999 92.068 -20.7339
54.500000 92.033 -20.8569
55.200001 91.999 -20.9698
56.000000 91.948 -21.0862
57.000000 91.870 -21.1143
58.000000 91.774 -21.2156
59.000000 91.623 -21.0470
60.000000 91.565 -20.4577
60.799999 91.598 -20.6470
61.500000 91.579 -21.3219
62.200001 91.501 -21.9180
63.000000 91.405 -22.2556
64.000000 91.331 -22.4728
65.000000 91.289 -22.6820
66.000000 91.251 -22.9344
67.000000 91.195 -23.1271
68.000000 91.132 -23.2064
69.000000 91.067 -23.2635
70.000000 90.998 -23.3289
71.000000 90.932 -23.4357
72.000000 90.864 -23.5775
73.000000 90.799 -23.7014
74.000000 90.740 -23.8327
75.000000 90.680 -23.9505
76.199997 90.607 -24.0133
77.500000 90.534 -24.0203
78.800003 90.467 -24.0614
80.000000 90.399 -24.1199
81.199997 90.333 -24.1370
82.500000 90.269 -24.1482
83.800003 90.212 -24.1738
85.000000 90.154 -24.2572
86.199997 90.083 -24.2935
87.500000 90.014 -24.2932
88.500000 89.961 -24.3265
90.000000 89.883 -24.3505
91.199997 89.830 -24.3553
92.500000 89.775 -24.3951
93.800003 89.712 -24.3965
95.000000 89.656 -24.3276
96.199997 89.608 -24.2933
97.500000 89.546 -24.3275
98.800003 89.473 -24.3239
100.000000 89.410 -24.2842
101.500000 89.334 -24.2520
103.000000 89.261 -24.1256
104.400002 89.213 -23.9703
106.000000 89.162 -23.8516
107.500000 89.102 -23.7141
109.000000 89.035 -23.5892
110.599998 88.947 -23.5139
112.000000 88.865 -23.4594
113.800003 88.784 -23.4053
115.000000 88.739 -23.3848
117.199997 88.667 -23.0642
118.000000 88.645 -22.8241
120.599998 88.634 -22.0885
122.000000 88.604 -22.2080
124.099998 88.493 -22.4269
125.000000 88.450 -22.4718
126.500000 88.399 -22.4980
128.000000 88.362 -22.4621
131.500000 88.258 -22.0831
132.000000 88.238 -22.0172
134.000000 88.160 -21.8062
136.000000 88.089 -21.6780
138.000000 88.039 -21.5192
140.000000 88.002 -21.3265
143.000000 87.928 -21.0071
145.000000 87.869 -20.8653
147.500000 87.805 -20.6901
150.000000 87.762 -20.4540
152.500000 87.713 -20.0820
155.000000 87.653 -19.7692
157.500000 87.579 -19.5518
160.000000 87.513 -19.2959
162.500000 87.458 -18.9983
165.000000 87.409 -18.7580
167.500000 87.360 -18.5731
170.000000 87.322 -18.3365
172.500000 87.282 -18.0280
175.000000 87.232 -17.6384
177.500000 87.174 -17.2463
180.000000 87.119 -16.9100
182.500000 87.073 -16.7130
185.000000 87.032 -16.5031
187.500000 87.003 -16.2244
190.000000 86.960 -15.9760
192.500000 86.897 -15.7198
195.000000 86.844 -15.4616
197.500000 86.809 -15.2126
200.000000 86.780 -14.9471
203.000000 86.747 -14.6647
206.000000 86.715 -14.3901
209.000000 86.681 -13.9707
212.000000 86.643 -13.6036
214.000000 86.613 -13.4161
218.000000 86.573 -12.9747
220.000000 86.553 -12.7538
224.000000 86.494 -12.3964
227.000000 86.447 -12.1041
230.000000 86.400 -11.7357
233.000000 86.350 -11.4404
236.000000 86.303 -11.2100
240.000000 86.276 -10.8230
243.000000 86.256 -10.4507
247.000000 86.236 -9.8884
250.000000 86.232 -9.4869
254.000000 86.207 -8.9938
258.000000 86.155 -8.6019
262.000000 86.124 -8.2451
265.000000 86.103 -7.9775
269.000000 86.063 -7.6041
272.000000 86.037 -7.2866
276.000000 86.012 -6.8546
280.000000 86.002 -6.4932
285.000000 85.983 -6.0637
290.000000 85.951 -5.5675
295.000000 85.942 -5.0991
300.000000 85.932 -4.5710
304.000000 85.905 -4.1440
307.000000 85.885 -3.8563
311.000000 85.864 -3.5469
315.000000 85.841 -3.2301
320.000000 85.818 -2.7824
325.000000 85.805 -2.2988
330.000000 85.793 -1.8640
335.000000 85.782 -1.4391
340.000000 85.771 -0.9626
345.000000 85.753 -0.4839
350.000000 85.734 -0.0021
355.000000 85.722 0.4546
360.000000 85.712 0.8819
365.000000 85.693 1.2115
370.000000 85.673 1.5393
375.000000 85.659 1.9600
382.000000 85.638 2.5471
387.000000 85.619 2.9637
395.000000 85.594 3.6820
400.000000 85.582 4.1067
406.000000 85.574 4.5574
412.000000 85.564 5.0151
418.000000 85.542 5.6322
425.000000 85.534 6.2699
431.000000 85.540 6.6544
437.000000 85.540 6.9930
444.000000 85.532 7.5692
450.000000 85.527 8.1351
455.000000 85.516 8.5621
462.000000 85.510 9.1068
468.000000 85.515 9.5265
475.000000 85.514 9.9667
482.000000 85.510 10.4336
487.000000 85.511 10.7939
494.000000 85.511 11.3414
500.000000 85.502 11.8604
508.000000 85.492 12.5035
515.000000 85.495 12.9962
522.000000 85.501 13.4423
530.000000 85.506 13.9579
538.000000 85.512 14.5829
545.000000 85.518 15.0924
552.000000 85.525 15.5457
560.000000 85.535 16.1029
570.000000 85.553 16.8245
580.000000 85.575 17.5767
590.000000 85.589 18.2421
600.000000 85.606 18.8025
608.000000 85.638 19.3608
615.000000 85.677 19.8262
622.000000 85.716 20.1711
630.000000 85.756 20.4768
640.000000 85.812 20.6750
650.000000 85.842 20.4714
660.000000 85.758 19.9011
670.000000 85.534 19.8507
680.000000 85.291 21.1682
690.000000 85.202 23.1377
700.000000 85.234 24.7889
710.000000 85.293 26.0300
720.000000 85.353 27.0071
730.000000 85.394 27.8088
740.000000 85.418 28.5385
750.000000 85.430 29.3304
762.000000 85.432 30.4682
775.000000 85.446 31.8268
788.000000 85.513 33.1380
800.000000 85.613 34.3076
812.000000 85.710 35.3247
825.000000 85.797 36.2264
838.000000 85.866 37.1256
850.000000 85.932 37.9579
862.000000 86.006 38.7828
875.000000 86.092 39.6581
885.000000 86.154 40.3257
900.000000 86.245 41.3096
912.000000 86.318 42.0757
925.000000 86.397 42.8870
938.000000 86.481 43.6353
950.000000 86.564 44.3228
962.000000 86.646 45.0045
975.000000 86.731 45.7440
988.000000 86.816 46.4500
1000.000000 86.900 47.0587
1015.000000 87.017 47.7942
1030.000000 87.127 48.4746
1044.000000 87.225 49.0222
1060.000000 87.341 49.6314
1075.000000 87.446 50.2250
1090.000000 87.555 50.8073
1106.000000 87.685 51.3790
1120.000000 87.807 51.8247
1138.000000 87.956 52.3789
1150.000000 88.048 52.7119
1172.000000 88.203 53.2317
1180.000000 88.260 53.4052
1206.000000 88.454 53.9764
1220.000000 88.565 54.2926
1241.000000 88.721 54.7357
1250.000000 88.786 54.9296
1265.000000 88.895 55.2518
1280.000000 89.004 55.5448
1315.000000 89.226 56.1597
1320.000000 89.255 56.2498
1340.000000 89.375 56.5965
1360.000000 89.479 56.9229
1380.000000 89.574 57.2412
1400.000000 89.675 57.6063
1430.000000 89.838 58.1656
1450.000000 89.946 58.4846
1475.000000 90.073 58.8815
1500.000000 90.200 59.3126
1525.000000 90.326 59.7481
1550.000000 90.451 60.1566
1575.000000 90.574 60.5900
1600.000000 90.690 60.9781
1625.000000 90.804 61.3414
1650.000000 90.919 61.7179
1675.000000 91.032 62.1147
1700.000000 91.151 62.5233
1725.000000 91.271 62.9033
1750.000000 91.388 63.2658
1775.000000 91.501 63.6424
1800.000000 91.615 63.9905
1825.000000 91.734 64.3064
1850.000000 91.851 64.5861
1875.000000 91.967 64.8547
1900.000000 92.086 65.1179
1925.000000 92.203 65.3397
1950.000000 92.318 65.5318
1975.000000 92.431 65.7237
2000.000000 92.544 65.9066
2030.000000 92.679 66.1010
2060.000000 92.811 66.2539
2090.000000 92.941 66.3869
2120.000000 93.071 66.5124
2140.000000 93.158 66.5739
2180.000000 93.327 66.6456
2200.000000 93.409 66.6667
2240.000000 93.567 66.6887
2270.000000 93.679 66.6549
2300.000000 93.788 66.5895
2330.000000 93.894 66.4974
2360.000000 93.993 66.3838
2400.000000 94.120 66.2055
2430.000000 94.213 66.0534
2470.000000 94.330 65.8306
2500.000000 94.412 65.6344
2540.000000 94.514 65.3567
2580.000000 94.606 65.0596
2620.000000 94.690 64.7637
2650.000000 94.748 64.5427
2690.000000 94.816 64.2306
2720.000000 94.858 63.9911
2760.000000 94.907 63.6868
2800.000000 94.946 63.4011
2850.000000 94.979 63.0861
2900.000000 94.998 62.8353
2950.000000 95.001 62.6876
3000.000000 94.998 62.6951
3040.000000 94.999 62.8252
3070.000000 95.006 63.0080
3110.000000 95.032 63.3490
3150.000000 95.089 63.7360
3200.000000 95.211 64.1032
3250.000000 95.366 64.1376
3300.000000 95.515 63.7461
3350.000000 95.625 63.0680
3400.000000 95.699 62.3103
3450.000000 95.748 61.5641
3500.000000 95.778 60.8567
3550.000000 95.795 60.1928
3600.000000 95.806 59.5527
3650.000000 95.812 58.9240
3700.000000 95.810 58.2649
3750.000000 95.796 57.5645
3820.000000 95.750 56.5471
3870.000000 95.694 55.8311
3950.000000 95.565 54.7271
4000.000000 95.466 54.0797
4060.000000 95.328 53.3378
4120.000000 95.171 52.6598
4180.000000 94.991 52.1024
4250.000000 94.754 51.6429
4310.000000 94.537 51.4470
4370.000000 94.316 51.4214
4440.000000 94.059 51.5566
4500.000000 93.844 51.7538
4550.000000 93.670 51.9765
4620.000000 93.437 52.3484
4680.000000 93.249 52.6730
4750.000000 93.033 52.9771
4820.000000 92.807 53.1704
4870.000000 92.629 53.2726
4940.000000 92.350 53.4667
5000.000000 92.085 53.7791
5080.000000 91.711 54.4586
5150.000000 91.374 55.3159
5220.000000 91.037 56.4250
5300.000000 90.663 57.9509
5380.000000 90.306 59.7239
5450.000000 90.011 61.4373
5520.000000 89.735 63.2752
5600.000000 89.441 65.5335
5700.000000 89.102 68.5815
5800.000000 88.806 71.8512
5900.000000 88.557 75.2962
6000.000000 88.348 78.8528
6080.000000 88.213 81.7930
6150.000000 88.119 84.4261
6220.000000 88.053 87.1003
6300.000000 88.009 90.1884
6400.000000 87.999 94.1004
6500.000000 88.043 98.0579
6600.000000 88.144 102.0275
6700.000000 88.307 105.9606
6800.000000 88.544 109.8018
6900.000000 88.875 113.5270
7000.000000 89.303 117.0918
7100.000000 89.819 120.3968
7200.000000 90.429 123.3430
7300.000000 91.140 125.8052
7400.000000 91.952 127.5692
7500.000000 92.862 128.3644
7620.000000 94.068 127.5173
7750.000000 95.377 123.5705
7880.000000 96.360 115.8582
8000.000000 96.736 106.0112
8120.000000 96.477 95.6250
8250.000000 95.560 86.4882
8380.000000 94.241 80.9845
8500.000000 92.910 78.9698
8620.000000 91.619 79.2265
8750.000000 90.333 81.3265
8850.000000 89.439 83.8755
9000.000000 88.273 88.8333
9120.000000 87.504 93.4948
9250.000000 86.834 98.8944
9380.000000 86.312 104.5143
9500.000000 85.958 109.6604
9620.000000 85.694 114.6213
9750.000000 85.498 119.8390
9880.000000 85.405 124.8954
10000.000000 85.401 129.3444
10150.000000 85.487 134.4563
10300.000000 85.656 138.9703
10440.000000 85.875 142.5677
10600.000000 86.161 145.8583
10750.000000 86.431 148.1232
10900.000000 86.663 149.7307
11060.000000 86.851 151.0029
11200.000000 86.974 152.0028
11380.000000 87.130 153.2677
11500.000000 87.256 153.9943
11720.000000 87.524 154.8188
11800.000000 87.632 154.9166
12060.000000 88.021 154.0788
12200.000000 88.221 152.5551
12410.000000 88.370 148.4700
12500.000000 88.332 146.1150
12650.000000 88.075 141.7878
12800.000000 87.552 137.6687
13150.000000 85.494 132.8089
13200.000000 85.150 132.8473
13400.000000 83.784 134.7044
13600.000000 82.544 138.7277
13800.000000 81.511 144.0867
14000.000000 80.705 150.1196
14300.000000 79.860 159.5040
14500.000000 79.471 165.4293
14750.000000 79.072 172.3306
15000.000000 78.732 178.9610
15250.000000 78.481 -174.8183
15500.000000 78.340 -168.9746
15750.000000 78.372 -163.7269
16000.000000 78.515 -159.7404
16250.000000 78.664 -157.8316
16500.000000 78.644 -157.9854
16750.000000 78.355 -159.3409
17000.000000 77.907 -162.7935
17250.000000 77.575 171.7448
17500.000000 77.604 31.8025
17750.000000 78.078 2.8187
18000.000000 78.579 47.6747
18250.000000 78.470 59.6123
18500.000000 77.741 -87.8955
18750.000000 76.409 -155.1277
19000.000000 74.638 72.8152
19250.000000 72.958 -36.3130
19500.000000 71.677 33.0063
19750.000000 71.123 -124.4805
20000.000000 70.987 -174.6841
