* Measurement data measured by REW V5.20.13
* Source: Microphone (Realtek(R) Audio), MICROPHONE (Master Volume), L, volume: 0.710. Timing signal peak level -37.7 dBFS, measurement signal peak level -37.3 dBFS
* Format: 2M Log Swept Sine, 1 sweep at -12.0 dBFS using an acoustic timing reference
* Dated: Sep 7, 2023 3:56:40 PM
* REW Settings:
*  C-weighting compensation: Off
*  Target level: 75.0 dB
* Note: ; Delay -0.0556 ms (-19 mm, -0.75 in) using estimated IR delay relative to Acoustic reference played from HEADPHONE L with no timing offset Clock adjustment: 120.7 ppm
* Measurement: KZ Krila DUDU L
* Smoothing: 1/48 octave
* Frequency Step: 1/96 octave
* Start Frequency: 20.000 Hz
*
* Freq(Hz) SPL(dB) Phase(degrees)
20.000000 92.252 6.3901
20.144928 92.241 6.2136
20.290907 92.232 6.0424
20.437943 92.224 5.8754
20.586044 92.217 5.7076
20.735220 92.212 5.5413
20.885475 92.208 5.3654
21.036821 92.204 5.1744
21.189262 92.199 4.9728
21.342808 92.193 4.7613
21.497467 92.185 4.5399
21.653246 92.175 4.3213
21.810154 92.161 4.1052
21.968201 92.146 3.8966
22.127390 92.129 3.6979
22.287735 92.111 3.5120
22.449242 92.093 3.3495
22.611917 92.075 3.2076
22.775772 92.060 3.0789
22.940815 92.047 2.9662
23.107054 92.037 2.8508
23.274498 92.030 2.7301
23.443153 92.025 2.5981
23.613033 92.022 2.4501
23.784142 92.021 2.2844
23.956491 92.019 2.0945
24.130091 92.017 1.8847
24.304947 92.012 1.6585
24.481071 92.005 1.4185
24.658470 91.994 1.1788
24.837156 91.981 0.9379
25.017136 91.966 0.7021
25.198421 91.948 0.4715
25.381020 91.929 0.2537
25.564941 91.908 0.0483
25.750195 91.888 -0.1424
25.936790 91.867 -0.3189
26.124741 91.847 -0.4865
26.314051 91.827 -0.6442
26.504732 91.810 -0.7899
26.696796 91.793 -0.9255
26.890253 91.780 -1.0562
27.085112 91.768 -1.1861
27.281382 91.759 -1.3241
27.479073 91.752 -1.4727
27.678198 91.747 -1.6356
27.878765 91.742 -1.8168
28.080786 91.736 -2.0205
28.284271 91.729 -2.2389
28.489231 91.718 -2.4711
28.695675 91.704 -2.6994
28.903616 91.687 -2.9208
29.113064 91.668 -3.1230
29.324028 91.647 -3.3034
29.536524 91.627 -3.4550
29.750557 91.609 -3.5864
29.966141 91.593 -3.6996
30.183289 91.580 -3.8152
30.402010 91.570 -3.9372
30.622314 91.561 -4.0762
30.844217 91.553 -4.2348
31.067726 91.544 -4.4150
31.292856 91.532 -4.6088
31.519617 91.517 -4.8075
31.748020 91.498 -4.9988
31.978081 91.477 -5.1737
32.209808 91.454 -5.3298
32.443211 91.431 -5.4643
32.678310 91.409 -5.5828
32.915108 91.389 -5.6885
33.153625 91.369 -5.7932
33.393871 91.351 -5.8979
33.635857 91.333 -6.0042
33.879597 91.316 -6.1122
34.125103 91.300 -6.2218
34.372387 91.283 -6.3331
34.621464 91.267 -6.4436
34.872345 91.250 -6.5542
35.125042 91.233 -6.6656
35.379574 91.216 -6.7772
35.635948 91.198 -6.8848
35.894180 91.180 -6.9855
36.154285 91.162 -7.0769
36.416275 91.146 -7.1612
36.680161 91.132 -7.2448
36.945961 91.122 -7.3368
37.213688 91.115 -7.4549
37.483353 91.108 -7.6035
37.754974 91.099 -7.7822
38.028561 91.088 -7.9848
38.304131 91.071 -8.1937
38.581699 91.052 -8.3958
38.861279 91.032 -8.5849
39.142883 91.012 -8.7637
39.426529 90.995 -8.9514
39.712231 90.978 -9.1642
40.000000 90.958 -9.4076
40.289856 90.931 -9.6747
40.581814 90.893 -9.9319
40.875885 90.846 -10.1292
41.172089 90.793 -10.2323
41.470440 90.744 -10.2285
41.770950 90.706 -10.1330
42.073643 90.686 -9.9979
42.378525 90.683 -9.8955
42.685616 90.690 -9.8713
42.994934 90.699 -9.9374
43.306492 90.701 -10.0723
43.620308 90.693 -10.2299
43.936401 90.675 -10.3601
44.254780 90.654 -10.4376
44.575470 90.635 -10.4734
44.898483 90.622 -10.5010
45.223835 90.612 -10.5536
45.551544 90.602 -10.6461
45.881630 90.587 -10.7683
46.214108 90.565 -10.8937
46.548996 90.538 -10.9968
46.886307 90.511 -11.0702
47.226067 90.487 -11.1301
47.568283 90.466 -11.2008
47.912983 90.446 -11.2941
48.260181 90.424 -11.4020
48.609894 90.399 -11.5026
48.962143 90.374 -11.5796
49.316940 90.353 -11.6365
49.674313 90.340 -11.6958
50.034271 90.333 -11.7873
50.396843 90.327 -11.9288
50.762039 90.318 -12.1139
51.129883 90.301 -12.3118
51.500389 90.275 -12.4785
51.873581 90.243 -12.5746
52.249481 90.214 -12.5864
52.628101 90.195 -12.5382
53.009464 90.188 -12.4904
53.393593 90.189 -12.5086
53.780506 90.185 -12.6151
54.170223 90.166 -12.7642
54.562763 90.130 -12.8709
54.958145 90.089 -12.8823
55.356396 90.055 -12.8297
55.757530 90.031 -12.8056
56.161572 90.007 -12.8706
56.568542 89.970 -12.9837
56.978462 89.923 -13.0494
57.391350 89.886 -13.0555
57.807232 89.870 -13.1458
58.226128 89.858 -13.4975
58.648056 89.806 -14.0899
59.073048 89.687 -14.6108
59.501114 89.522 -14.6328
59.932281 89.392 -14.0051
60.366577 89.372 -13.0906
60.804020 89.459 -12.5064
61.244629 89.575 -12.5822
61.688435 89.644 -13.1388
62.135452 89.645 -13.7173
62.585712 89.615 -14.0193
63.039234 89.598 -14.0962
63.496040 89.601 -14.1498
63.956161 89.604 -14.2660
64.419617 89.594 -14.3604
64.886421 89.581 -14.3661
65.356621 89.576 -14.3448
65.830215 89.570 -14.3892
66.307251 89.549 -14.4733
66.787743 89.510 -14.4888
67.271713 89.471 -14.3908
67.759193 89.446 -14.2566
68.250206 89.430 -14.1799
68.744774 89.414 -14.1797
69.242928 89.394 -14.2221
69.744690 89.370 -14.2851
70.250084 89.345 -14.3566
70.759148 89.319 -14.4099
71.271896 89.297 -14.4307
71.788361 89.282 -14.4534
72.308571 89.272 -14.5245
72.832550 89.256 -14.6379
73.360321 89.229 -14.7304
73.891922 89.197 -14.7480
74.427376 89.168 -14.6896
74.966705 89.148 -14.5998
75.509949 89.135 -14.5382
76.057121 89.122 -14.5319
76.608261 89.102 -14.5534
77.163399 89.076 -14.5546
77.722557 89.052 -14.5302
78.285767 89.033 -14.5250
78.853058 89.015 -14.5666
79.424461 88.992 -14.6241
80.000000 88.966 -14.6569
80.579712 88.943 -14.6651
81.163628 88.923 -14.6604
81.751770 88.905 -14.6355
82.344177 88.892 -14.5885
82.940880 88.884 -14.5465
83.541901 88.878 -14.5409
84.147285 88.869 -14.5769
84.757050 88.849 -14.6216
85.371231 88.821 -14.6273
85.989868 88.791 -14.5757
86.612984 88.764 -14.5016
87.240616 88.739 -14.4308
87.872803 88.715 -14.3528
88.509560 88.698 -14.2910
89.150940 88.686 -14.3185
89.796967 88.661 -14.4212
90.447670 88.620 -14.4717
91.103088 88.583 -14.4068
91.763260 88.562 -14.3257
92.428215 88.547 -14.3081
93.097992 88.527 -14.3109
93.772614 88.508 -14.2896
94.452133 88.493 -14.2827
95.136566 88.476 -14.3152
95.825966 88.451 -14.3525
96.520363 88.421 -14.3632
97.219788 88.388 -14.3265
97.924286 88.360 -14.2246
98.633881 88.345 -14.1017
99.348625 88.341 -14.0511
100.068542 88.330 -14.0786
100.793686 88.309 -14.0828
101.524078 88.290 -14.0154
102.259766 88.282 -13.9534
103.000778 88.276 -13.9710
103.747162 88.258 -14.0297
104.498962 88.230 -14.0586
105.256203 88.199 -14.0443
106.018929 88.168 -13.9845
106.787186 88.146 -13.8997
107.561012 88.131 -13.8584
108.340446 88.112 -13.8407
109.125526 88.096 -13.7776
109.916290 88.088 -13.7271
110.712791 88.075 -13.7159
111.515060 88.051 -13.6400
112.323143 88.030 -13.4721
113.137085 88.017 -13.2818
113.956924 88.011 -13.1738
114.782700 87.989 -13.1824
115.614464 87.949 -13.1628
116.452255 87.919 -13.1124
117.296112 87.901 -13.1936
118.146095 87.884 -13.4440
119.002228 87.847 -13.8785
119.864563 87.755 -14.1768
120.733154 87.666 -13.8487
121.608040 87.675 -13.2689
122.489258 87.734 -13.0513
123.376869 87.768 -13.0636
124.270905 87.775 -13.0793
125.171425 87.756 -13.0563
126.078468 87.721 -12.9057
126.992081 87.694 -12.6803
127.912323 87.679 -12.5377
128.839233 87.664 -12.5067
129.772842 87.649 -12.5339
130.713242 87.633 -12.6149
131.660431 87.609 -12.6799
132.614502 87.587 -12.6376
133.575485 87.575 -12.5490
134.543427 87.560 -12.4556
135.518387 87.542 -12.3062
136.500412 87.529 -12.1442
137.489548 87.515 -12.0408
138.485855 87.490 -11.9587
139.489380 87.465 -11.8362
140.500168 87.451 -11.7049
141.518295 87.450 -11.6481
142.543793 87.450 -11.6815
143.576721 87.440 -11.7307
144.617142 87.426 -11.7078
145.665100 87.416 -11.6507
146.720642 87.401 -11.5808
147.783844 87.385 -11.4631
148.854752 87.372 -11.3457
149.933411 87.358 -11.2842
151.019897 87.333 -11.2632
152.114243 87.303 -11.2050
153.216522 87.281 -11.1037
154.326797 87.273 -11.0190
155.445114 87.270 -10.9871
156.571533 87.263 -10.9471
157.706116 87.254 -10.8568
158.848923 87.245 -10.7634
160.000000 87.224 -10.6774
161.159424 87.193 -10.5313
162.327255 87.169 -10.3516
163.503540 87.153 -10.2409
164.688354 87.139 -10.1761
165.881760 87.136 -10.1352
167.083801 87.135 -10.1774
168.294571 87.123 -10.1876
169.514099 87.108 -10.1167
170.742462 87.090 -9.9624
171.979736 87.076 -9.7593
173.225967 87.064 -9.6320
174.481232 87.044 -9.5953
175.745605 87.019 -9.5649
177.019119 87.005 -9.5236
178.301880 87.003 -9.4777
179.593933 87.009 -9.4367
180.895340 87.000 -9.3866
182.206177 86.971 -9.1953
183.526520 86.939 -8.9034
184.856430 86.911 -8.6559
186.195984 86.885 -8.4981
187.545227 86.867 -8.4684
188.904266 86.848 -8.4970
190.273132 86.833 -8.4850
191.651932 86.818 -8.4625
193.040726 86.788 -8.3806
194.439575 86.754 -8.1631
195.848572 86.736 -7.9259
197.267761 86.732 -7.7580
198.697250 86.736 -7.6633
200.137085 86.742 -7.6308
201.587372 86.736 -7.6031
203.048157 86.720 -7.4932
204.519531 86.708 -7.3435
206.001556 86.695 -7.2526
207.494324 86.671 -7.1649
208.997925 86.646 -7.0299
210.512405 86.625 -6.9062
212.037857 86.604 -6.8188
213.574371 86.586 -6.7397
215.122025 86.579 -6.6619
216.680893 86.583 -6.5911
218.251053 86.589 -6.5275
219.832581 86.587 -6.4049
221.425583 86.580 -6.2391
223.030121 86.561 -6.0860
224.646286 86.535 -5.9307
226.274170 86.514 -5.7974
227.913849 86.500 -5.6849
229.565399 86.494 -5.5487
231.228928 86.498 -5.3817
232.904510 86.500 -5.2875
234.592224 86.478 -5.2711
236.292191 86.443 -5.2198
238.004456 86.425 -5.2052
239.729126 86.409 -5.2859
241.466309 86.384 -5.1842
243.216080 86.381 -4.8995
244.978516 86.384 -4.6586
246.753738 86.375 -4.4577
248.541809 86.363 -4.3157
250.342850 86.346 -4.2121
252.156937 86.331 -4.0839
253.984161 86.318 -3.9490
255.824646 86.301 -3.7996
257.678467 86.287 -3.6594
259.545685 86.275 -3.5521
261.426483 86.267 -3.4513
263.320862 86.261 -3.3276
265.229004 86.257 -3.1582
267.150970 86.253 -2.9519
269.086853 86.251 -2.7606
271.036774 86.245 -2.5895
273.000824 86.238 -2.4083
274.979095 86.231 -2.2742
276.971710 86.214 -2.1936
278.978760 86.197 -2.1096
281.000336 86.187 -2.0320
283.036591 86.177 -1.9355
285.087585 86.158 -1.7902
287.153442 86.126 -1.5897
289.234283 86.097 -1.3578
291.330200 86.086 -1.1459
293.441284 86.090 -0.9598
295.567688 86.106 -0.7621
297.709503 86.123 -0.5609
299.866821 86.132 -0.3723
302.039795 86.123 -0.2367
304.228485 86.098 -0.1164
306.433044 86.078 0.0083
308.653595 86.073 0.1205
310.890228 86.073 0.2434
313.143066 86.067 0.4316
315.412231 86.058 0.6418
317.697845 86.053 0.8216
320.000000 86.053 0.9462
322.318848 86.045 1.0520
324.654510 86.027 1.1717
327.007080 86.006 1.2950
329.376709 85.987 1.3872
331.763519 85.971 1.5176
334.167603 85.970 1.7402
336.589142 85.979 1.9606
339.028198 85.975 2.1515
341.484924 85.961 2.3312
343.959473 85.945 2.4943
346.451935 85.936 2.6948
348.962463 85.935 2.8980
351.491211 85.928 3.1085
354.038239 85.915 3.3450
356.603760 85.893 3.5524
359.187866 85.863 3.7299
361.790680 85.852 3.8990
364.412354 85.867 3.9911
367.053040 85.878 4.0907
369.712860 85.882 4.2914
372.391968 85.889 4.5079
375.090454 85.892 4.6578
377.808533 85.886 4.7903
380.546265 85.874 4.9439
383.303864 85.858 5.1340
386.081451 85.846 5.3578
388.879150 85.847 5.5519
391.697144 85.854 5.7224
394.535522 85.852 5.9203
397.394501 85.837 6.1371
400.274170 85.819 6.3167
403.174744 85.805 6.4649
406.096313 85.793 6.6300
409.039062 85.783 6.8542
412.003113 85.771 7.0989
414.988647 85.760 7.2808
417.995850 85.757 7.3697
421.024811 85.755 7.5335
424.075714 85.743 7.8565
427.148743 85.725 8.1947
430.244049 85.718 8.4701
433.361786 85.722 8.7133
436.502106 85.721 8.9559
439.665161 85.720 9.2012
442.851166 85.724 9.3801
446.060242 85.726 9.4338
449.292572 85.722 9.4783
452.548340 85.714 9.6834
455.827698 85.709 9.9817
459.130798 85.706 10.2152
462.457855 85.702 10.4576
465.809021 85.699 10.7991
469.184448 85.691 11.0785
472.584381 85.680 11.2183
476.008911 85.675 11.4012
479.458252 85.667 11.6841
482.932617 85.662 11.9297
486.432159 85.670 12.1188
489.957031 85.670 12.3716
493.507477 85.656 12.6683
497.083618 85.649 12.9572
500.685699 85.651 13.2003
504.313873 85.656 13.3867
507.968323 85.657 13.5856
511.649292 85.655 13.8319
515.356934 85.657 14.0726
519.091370 85.655 14.3341
522.852966 85.649 14.6251
526.641724 85.649 14.8711
530.458008 85.658 15.0912
534.301941 85.669 15.3666
538.173706 85.679 15.6949
542.073547 85.686 15.9810
546.001648 85.679 16.1573
549.958191 85.670 16.3149
553.943420 85.675 16.5574
557.957520 85.683 16.8102
562.000671 85.689 17.0679
566.073181 85.699 17.3572
570.175171 85.702 17.6219
574.306885 85.705 17.8701
578.468567 85.713 18.1354
582.660400 85.714 18.4031
586.882568 85.724 18.6497
591.135376 85.739 18.9485
595.419006 85.743 19.2716
599.733643 85.742 19.5123
604.079590 85.750 19.7485
608.456970 85.763 19.9833
612.866089 85.774 20.1885
617.307190 85.796 20.4278
621.780457 85.826 20.6720
626.286133 85.852 20.8627
630.824463 85.869 21.0078
635.395691 85.878 21.0892
640.000000 85.896 21.1034
644.637695 85.927 20.9895
649.309021 85.951 20.7410
654.014160 85.949 20.3400
658.753418 85.898 19.7959
663.527039 85.785 19.4058
668.335205 85.622 19.4568
673.178284 85.450 20.0098
678.056396 85.315 21.0036
682.969849 85.245 22.1998
687.918945 85.234 23.3430
692.903870 85.254 24.3479
697.924927 85.285 25.1622
702.982422 85.319 25.7904
708.076477 85.362 26.2946
713.207520 85.412 26.7431
718.375732 85.452 27.2205
723.581360 85.467 27.6278
728.824707 85.472 27.9860
734.106079 85.489 28.3745
739.425720 85.506 28.7487
744.783936 85.510 29.1401
750.180908 85.505 29.5859
755.617065 85.503 30.0803
761.092529 85.499 30.6083
766.607727 85.498 31.1713
772.162903 85.516 31.7988
777.758301 85.550 32.4744
783.394287 85.589 33.0538
789.071045 85.616 33.5467
794.789001 85.640 34.0827
800.548340 85.678 34.5859
806.349487 85.722 35.0335
812.192627 85.765 35.4802
818.078125 85.809 35.8348
824.006226 85.846 36.1632
829.977295 85.879 36.5810
835.991699 85.908 37.0160
842.049622 85.935 37.4170
848.151428 85.969 37.8519
854.297485 86.008 38.2911
860.488098 86.045 38.6693
866.723572 86.079 39.0307
873.004211 86.116 39.4146
879.330322 86.152 39.8303
885.702332 86.183 40.2964
892.120483 86.220 40.7859
898.585144 86.263 41.2139
905.096680 86.304 41.5544
911.655396 86.346 41.8872
918.261597 86.390 42.2635
924.915710 86.434 42.6590
931.618042 86.473 43.0733
938.368896 86.514 43.4967
945.168762 86.559 43.9034
952.017822 86.602 44.2926
958.916504 86.645 44.6536
965.865234 86.691 45.0101
972.864319 86.739 45.3915
979.914062 86.786 45.7762
987.014954 86.839 46.1623
994.167236 86.894 46.5415
1001.371399 86.945 46.8947
1008.627747 86.992 47.2440
1015.936646 87.039 47.6574
1023.298584 87.088 48.1196
1030.713867 87.140 48.4247
1038.182739 87.201 48.6632
1045.705933 87.257 48.9718
1053.283447 87.303 49.3000
1060.916016 87.353 49.5951
1068.603882 87.415 49.8246
1076.347412 87.485 50.0743
1084.147095 87.546 50.3912
1092.003296 87.595 50.6852
1099.916382 87.651 50.9263
1107.886841 87.715 51.1937
1115.915039 87.783 51.4644
1124.001343 87.850 51.6827
1132.146362 87.909 51.8696
1140.350342 87.962 52.0349
1148.613770 88.028 52.2518
1156.937134 88.102 52.5031
1165.320801 88.166 52.7488
1173.765137 88.226 52.9839
1182.270752 88.291 53.1681
1190.838013 88.355 53.3591
1199.467285 88.412 53.5651
1208.159180 88.470 53.7369
1216.913940 88.534 53.8988
1225.732178 88.603 54.0898
1234.614380 88.671 54.2421
1243.560913 88.735 54.3802
1252.572266 88.794 54.5450
1261.648926 88.850 54.7120
1270.791382 88.911 54.8918
1280.000000 88.979 55.1046
1289.275391 89.043 55.2989
1298.618042 89.104 55.4521
1308.028320 89.166 55.5775
1317.506836 89.227 55.7062
1327.054077 89.287 55.8684
1336.670410 89.346 56.0686
1346.356567 89.397 56.2725
1356.112793 89.439 56.4424
1365.939697 89.479 56.5831
1375.837891 89.528 56.7298
1385.807739 89.581 56.8893
1395.849854 89.632 57.0563
1405.964844 89.684 57.2420
1416.152954 89.734 57.4453
1426.415039 89.788 57.6230
1436.751465 89.849 57.7758
1447.162720 89.903 57.9390
1457.649414 89.953 58.1012
1468.212158 90.009 58.2588
1478.851440 90.067 58.4284
1489.567871 90.122 58.6019
1500.361816 90.179 58.7861
1511.234131 90.235 58.9463
1522.185059 90.288 59.1203
1533.215454 90.342 59.3238
1544.325806 90.397 59.5208
1555.516602 90.451 59.6963
1566.788574 90.505 59.8564
1578.142090 90.553 60.0362
1589.578003 90.600 60.2520
1601.096680 90.654 60.4468
1612.698975 90.709 60.5806
1624.385254 90.764 60.7163
1636.156250 90.816 60.9059
1648.012451 90.866 61.1144
1659.954590 90.920 61.3219
1671.983398 90.977 61.5121
1684.099243 91.036 61.6868
1696.302856 91.093 61.8585
1708.594971 91.147 62.0607
1720.976196 91.204 62.2853
1733.447144 91.262 62.4800
1746.008423 91.318 62.6556
1758.660645 91.373 62.8137
1771.404663 91.433 62.9691
1784.240967 91.493 63.1691
1797.170288 91.551 63.3724
1810.193359 91.612 63.5631
1823.310791 91.671 63.7666
1836.523193 91.732 63.9468
1849.831421 91.798 64.0925
1863.236084 91.868 64.2274
1876.737793 91.938 64.3523
1890.337524 92.006 64.4773
1904.035645 92.072 64.5970
1917.833008 92.137 64.7241
1931.730469 92.202 64.8492
1945.728638 92.265 64.9532
1959.828125 92.329 65.0337
1974.029907 92.391 65.0979
1988.334473 92.453 65.1916
2002.742798 92.518 65.3227
2017.255493 92.585 65.4295
2031.873291 92.652 65.5006
2046.597168 92.720 65.5651
2061.427734 92.786 65.6311
2076.365479 92.852 65.6875
2091.411865 92.916 65.7304
2106.566895 92.978 65.7672
2121.832031 93.040 65.7959
2137.207764 93.106 65.8121
2152.694824 93.175 65.8144
2168.294189 93.242 65.8245
2184.006592 93.302 65.8515
2199.832764 93.361 65.8763
2215.773682 93.422 65.8916
2231.830078 93.483 65.8835
2248.002686 93.546 65.8584
2264.292725 93.608 65.8258
2280.700684 93.671 65.7854
2297.227539 93.735 65.7472
2313.874268 93.793 65.7043
2330.641602 93.844 65.6486
2347.530273 93.896 65.5905
2364.541504 93.951 65.5312
2381.676025 94.005 65.4521
2398.934570 94.058 65.3600
2416.318359 94.113 65.2713
2433.827881 94.166 65.1721
2451.464355 94.215 65.0694
2469.228760 94.264 64.9608
2487.121826 94.312 64.8396
2505.144531 94.359 64.7100
2523.297852 94.404 64.5757
2541.582764 94.445 64.4379
2560.000000 94.485 64.3193
2578.550781 94.524 64.2041
2597.236084 94.562 64.0717
2616.056641 94.599 63.9257
2635.013672 94.632 63.7808
2654.108154 94.664 63.6328
2673.340820 94.697 63.4809
2692.713135 94.725 63.3411
2712.225586 94.748 63.2009
2731.879395 94.769 63.0483
2751.675781 94.789 62.8998
2771.615479 94.808 62.7669
2791.699707 94.823 62.6494
2811.929688 94.835 62.5350
2832.305908 94.842 62.4300
2852.830078 94.847 62.3394
2873.502930 94.855 62.2505
2894.325439 94.860 62.1866
2915.298828 94.860 62.1732
2936.424316 94.862 62.1920
2957.702881 94.863 62.2395
2979.135742 94.861 62.3296
3000.723633 94.863 62.4559
3022.468262 94.872 62.6160
3044.370117 94.890 62.8193
3066.430908 94.916 63.0482
3088.651611 94.952 63.2868
3111.033203 95.003 63.5208
3133.577148 95.068 63.6943
3156.284180 95.143 63.7654
3179.156006 95.221 63.7406
3202.193359 95.298 63.6333
3225.397949 95.370 63.4315
3248.770508 95.433 63.1572
3272.312500 95.487 62.8485
3296.024902 95.531 62.5213
3319.909180 95.568 62.1552
3343.966797 95.598 61.7762
3368.198486 95.623 61.4297
3392.605713 95.644 61.1049
3417.189941 95.662 60.7796
3441.952393 95.679 60.4528
3466.894287 95.692 60.1280
3492.016846 95.704 59.7848
3517.321289 95.712 59.4202
3542.809326 95.718 59.0606
3568.481934 95.721 58.7268
3594.340576 95.722 58.4069
3620.386719 95.723 58.0889
3646.621582 95.719 57.7703
3673.046387 95.714 57.4540
3699.662842 95.708 57.1298
3726.472168 95.701 56.7756
3753.475586 95.690 56.4139
3780.675049 95.677 56.0480
3808.071289 95.658 55.6658
3835.666016 95.636 55.2836
3863.460938 95.610 54.8988
3891.457275 95.576 54.5037
3919.656250 95.533 54.1080
3948.059814 95.484 53.7305
3976.668945 95.434 53.3527
4005.485596 95.380 52.9709
4034.510986 95.323 52.5984
4063.746582 95.259 52.2189
4093.194336 95.187 51.8397
