* Measurement data measured by REW V5.20.13
* Source: Microphone (Realtek(R) Audio), MICROPHONE (Master Volume), L, volume: 0.710. Timing signal peak level -37.3 dBFS, measurement signal peak level -37.3 dBFS
* Format: 2M Log Swept Sine, 1 sweep at -12.0 dBFS using an acoustic timing reference
* Dated: Sep 7, 2023 4:27:11 PM
* REW Settings:
*  C-weighting compensation: Off
*  Target level: 75.0 dB
* Note: ; Delay -0.0528 ms (-18 mm, -0.71 in) using estimated IR delay relative to Acoustic reference played from HEADPHONE R with no timing offset Clock adjustment: 120.6 ppm
* Measurement: KZ Krila DDUU R
* Smoothing: 1/48 octave
* Frequency Step: 1/96 octave
* Start Frequency: 20.000 Hz
*
* Freq(Hz) SPL(dB) Phase(degrees)
20.000000 94.653 5.8936
20.144928 94.652 5.6576
20.290907 94.650 5.4022
20.437943 94.648 5.1335
20.586044 94.643 4.8593
20.735220 94.636 4.5772
20.885475 94.628 4.2948
21.036821 94.616 4.0119
21.189262 94.602 3.7338
21.342808 94.587 3.4710
21.497467 94.569 3.2212
21.653246 94.552 2.9880
21.810154 94.534 2.7753
21.968201 94.518 2.5712
22.127390 94.504 2.3698
22.287735 94.492 2.1716
22.449242 94.482 1.9709
22.611917 94.473 1.7686
22.775772 94.464 1.5572
22.940815 94.456 1.3369
23.107054 94.447 1.1068
23.274498 94.437 0.8638
23.443153 94.426 0.6176
23.613033 94.413 0.3733
23.784142 94.399 0.1314
23.956491 94.384 -0.1046
24.130091 94.368 -0.3348
24.304947 94.353 -0.5574
24.481071 94.337 -0.7727
24.658470 94.321 -0.9794
24.837156 94.305 -1.1788
25.017136 94.290 -1.3780
25.198421 94.276 -1.5761
25.381020 94.262 -1.7726
25.564941 94.249 -1.9675
25.750195 94.236 -2.1602
25.936790 94.224 -2.3514
26.124741 94.212 -2.5475
26.314051 94.201 -2.7477
26.504732 94.191 -2.9513
26.696796 94.180 -3.1591
26.890253 94.170 -3.3747
27.085112 94.158 -3.5970
27.281382 94.145 -3.8277
27.479073 94.130 -4.0597
27.678198 94.113 -4.2869
27.878765 94.094 -4.5050
28.080786 94.074 -4.7113
28.284271 94.054 -4.9023
28.489231 94.033 -5.0770
28.695675 94.014 -5.2383
28.903616 93.997 -5.3893
29.113064 93.983 -5.5424
29.324028 93.971 -5.7004
29.536524 93.960 -5.8689
29.750557 93.948 -6.0478
29.966141 93.935 -6.2375
30.183289 93.920 -6.4332
30.402010 93.902 -6.6295
30.622314 93.883 -6.8161
30.844217 93.863 -6.9921
31.067726 93.843 -7.1562
31.292856 93.825 -7.3157
31.519617 93.809 -7.4748
31.748020 93.794 -7.6394
31.978081 93.781 -7.8172
32.209808 93.767 -8.0091
32.443211 93.752 -8.2128
32.678310 93.735 -8.4192
32.915108 93.716 -8.6231
33.153625 93.696 -8.8176
33.393871 93.676 -9.0029
33.635857 93.656 -9.1785
33.879597 93.640 -9.3571
34.125103 93.626 -9.5469
34.372387 93.612 -9.7564
34.621464 93.595 -9.9820
34.872345 93.575 -10.2118
35.125042 93.551 -10.4345
35.379574 93.523 -10.6270
35.635948 93.495 -10.7808
35.894180 93.468 -10.8947
36.154285 93.448 -10.9814
36.416275 93.435 -11.0710
36.680161 93.427 -11.1835
36.945961 93.423 -11.3401
37.213688 93.416 -11.5485
37.483353 93.404 -11.7893
37.754974 93.385 -12.0416
38.028561 93.358 -12.2770
38.304131 93.327 -12.4738
38.581699 93.294 -12.6306
38.861279 93.264 -12.7547
39.142883 93.238 -12.8641
39.426529 93.214 -12.9806
39.712231 93.192 -13.1099
40.000000 93.169 -13.2503
40.289856 93.145 -13.3938
40.581814 93.119 -13.5272
40.875885 93.094 -13.6477
41.172089 93.072 -13.7648
41.470440 93.053 -13.8915
41.770950 93.036 -14.0409
42.073643 93.019 -14.2201
42.378525 92.998 -14.4204
42.685616 92.973 -14.6214
42.994934 92.944 -14.8025
43.306492 92.915 -14.9495
43.620308 92.887 -15.0585
43.936401 92.864 -15.1404
44.254780 92.848 -15.2193
44.575470 92.837 -15.3178
44.898483 92.829 -15.4496
45.223835 92.820 -15.6159
45.551544 92.807 -15.8047
45.881630 92.789 -15.9964
46.214108 92.767 -16.1719
46.548996 92.741 -16.3195
46.886307 92.717 -16.4396
47.226067 92.694 -16.5443
47.568283 92.674 -16.6493
47.912983 92.654 -16.7658
48.260181 92.633 -16.8970
48.609894 92.609 -17.0376
48.962143 92.582 -17.1805
49.316940 92.553 -17.3207
49.674313 92.521 -17.4566
50.034271 92.488 -17.5878
50.396843 92.453 -17.7102
50.762039 92.416 -17.8139
51.129883 92.379 -17.8875
51.500389 92.347 -17.9299
51.873581 92.322 -17.9600
52.249481 92.305 -18.0154
52.628101 92.293 -18.1285
53.009464 92.278 -18.3010
53.393593 92.252 -18.4931
53.780506 92.218 -18.6425
54.170223 92.181 -18.7106
54.562763 92.153 -18.7179
54.958145 92.135 -18.7300
55.356396 92.121 -18.7985
55.757530 92.100 -18.9082
56.161572 92.069 -18.9928
56.568542 92.037 -19.0164
56.978462 92.013 -19.0378
57.391350 91.991 -19.1616
57.807232 91.947 -19.3964
58.226128 91.865 -19.5683
58.648056 91.758 -19.4258
59.073048 91.676 -18.8800
59.501114 91.672 -18.1850
59.932281 91.746 -17.8142
60.366577 91.837 -18.0663
60.804020 91.875 -18.8041
61.244629 91.833 -19.6016
61.688435 91.742 -20.0857
62.135452 91.660 -20.2162
62.585712 91.618 -20.2476
63.039234 91.600 -20.4093
63.496040 91.574 -20.6917
63.956161 91.530 -20.9209
64.419617 91.488 -20.9923
64.886421 91.469 -20.9866
65.356621 91.469 -21.0521
65.830215 91.468 -21.2441
66.307251 91.450 -21.4799
66.787743 91.415 -21.6531
67.271713 91.375 -21.7273
67.759193 91.339 -21.7419
68.250206 91.306 -21.7422
68.744774 91.272 -21.7347
69.242928 91.237 -21.7019
69.744690 91.206 -21.6498
70.250084 91.183 -21.6252
70.759148 91.162 -21.6699
71.271896 91.132 -21.7624
71.788361 91.093 -21.8271
72.308571 91.055 -21.8254
72.832550 91.027 -21.8085
73.360321 91.006 -21.8500
73.891922 90.978 -21.9392
74.427376 90.941 -21.9927
74.966705 90.905 -21.9729
75.509949 90.880 -21.9368
76.057121 90.859 -21.9508
76.608261 90.833 -22.0076
77.163399 90.799 -22.0550
77.722557 90.765 -22.0725
78.285767 90.734 -22.0847
78.853058 90.705 -22.1160
79.424461 90.676 -22.1691
80.000000 90.646 -22.2405
80.579712 90.615 -22.3215
81.163628 90.582 -22.3889
81.751770 90.551 -22.4269
82.344177 90.525 -22.4542
82.940880 90.501 -22.5039
83.541901 90.474 -22.5705
84.147285 90.443 -22.6179
84.757050 90.412 -22.6342
85.371231 90.382 -22.6402
85.989868 90.351 -22.6419
86.612984 90.319 -22.6234
87.240616 90.291 -22.5987
87.872803 90.268 -22.6111
88.509560 90.241 -22.6734
89.150940 90.207 -22.7414
89.796967 90.169 -22.7690
90.447670 90.133 -22.7499
91.103088 90.105 -22.7125
91.763260 90.083 -22.6924
92.428215 90.060 -22.7046
93.097992 90.031 -22.7234
93.772614 89.995 -22.7014
94.452133 89.959 -22.6195
95.136566 89.931 -22.5127
95.825966 89.910 -22.4407
96.520363 89.890 -22.4397
97.219788 89.865 -22.5022
97.924286 89.830 -22.5862
98.633881 89.787 -22.6378
99.348625 89.746 -22.6331
100.068542 89.711 -22.6031
100.793686 89.683 -22.5852
101.524078 89.654 -22.5745
102.259766 89.628 -22.5574
103.000778 89.602 -22.5380
103.747162 89.575 -22.5074
104.498962 89.549 -22.4661
105.256203 89.522 -22.4317
106.018929 89.490 -22.3752
106.787186 89.461 -22.2741
107.561012 89.437 -22.1950
108.340446 89.408 -22.1682
109.125526 89.369 -22.1182
109.916290 89.331 -22.0205
110.712791 89.302 -21.9560
111.515060 89.273 -21.9848
112.323143 89.233 -22.0637
113.137085 89.189 -22.1063
113.956924 89.153 -22.1233
114.782700 89.122 -22.1484
115.614464 89.098 -22.1201
116.452255 89.088 -22.0674
117.296112 89.082 -22.0061
118.146095 89.090 -21.8583
119.002228 89.119 -21.8867
119.864563 89.102 -22.2000
120.733154 89.017 -22.2702
121.608040 88.941 -21.9624
122.489258 88.897 -21.6637
123.376869 88.860 -21.4728
124.270905 88.829 -21.3831
125.171425 88.796 -21.3599
126.078468 88.768 -21.3256
126.992081 88.747 -21.3254
127.912323 88.723 -21.3026
128.839233 88.703 -21.2068
129.772842 88.685 -21.0935
130.713242 88.665 -20.9617
131.660431 88.645 -20.8408
132.614502 88.620 -20.7747
133.575485 88.584 -20.7429
134.543427 88.539 -20.6841
135.518387 88.500 -20.5526
136.500412 88.479 -20.4141
137.489548 88.466 -20.3449
138.485855 88.448 -20.2915
139.489380 88.431 -20.1925
140.500168 88.418 -20.1109
141.518295 88.398 -20.0750
142.543793 88.370 -20.0251
143.576721 88.340 -19.9382
144.617142 88.312 -19.8295
145.665100 88.287 -19.7538
146.720642 88.257 -19.6773
147.783844 88.230 -19.5597
148.854752 88.209 -19.4602
149.933411 88.191 -19.3841
151.019897 88.175 -19.3260
152.114243 88.159 -19.2698
153.216522 88.143 -19.2007
154.326797 88.124 -19.1019
155.445114 88.106 -18.9473
156.571533 88.087 -18.8076
157.706116 88.059 -18.6914
158.848923 88.025 -18.5907
160.000000 87.983 -18.5217
161.159424 87.943 -18.4083
162.327255 87.919 -18.3143
163.503540 87.902 -18.2898
164.688354 87.882 -18.2419
165.881760 87.869 -18.1127
167.083801 87.862 -17.9725
168.294571 87.850 -17.8258
169.514099 87.837 -17.6843
170.742462 87.813 -17.5871
171.979736 87.779 -17.4601
173.225967 87.748 -17.3384
174.481232 87.718 -17.2507
175.745605 87.689 -17.1756
177.019119 87.663 -17.1213
178.301880 87.632 -17.0840
179.593933 87.592 -16.9627
180.895340 87.562 -16.6897
182.206177 87.556 -16.4314
183.526520 87.555 -16.3051
184.856430 87.541 -16.2352
186.195984 87.517 -16.1423
187.545227 87.490 -16.0058
188.904266 87.462 -15.8715
190.273132 87.432 -15.7372
191.651932 87.402 -15.6205
193.040726 87.376 -15.5079
194.439575 87.361 -15.4501
195.848572 87.342 -15.4251
197.267761 87.323 -15.3108
198.697250 87.310 -15.1223
200.137085 87.301 -14.8887
201.587372 87.296 -14.6477
203.048157 87.291 -14.5038
204.519531 87.269 -14.4243
206.001556 87.236 -14.3041
207.494324 87.200 -14.1491
208.997925 87.161 -13.9401
210.512405 87.128 -13.6928
212.037857 87.106 -13.4804
213.574371 87.096 -13.3393
215.122025 87.091 -13.3025
216.680893 87.079 -13.2527
218.251053 87.071 -13.1358
219.832581 87.063 -13.0301
221.425583 87.042 -12.9441
223.030121 87.003 -12.8475
224.646286 86.965 -12.6851
226.274170 86.946 -12.5427
227.913849 86.939 -12.4508
229.565399 86.934 -12.2986
231.228928 86.930 -12.0682
232.904510 86.909 -11.8118
234.592224 86.874 -11.5547
236.292191 86.846 -11.4667
238.004456 86.818 -11.6472
239.729126 86.781 -11.8184
241.466309 86.761 -11.7124
243.216080 86.763 -11.4261
244.978516 86.764 -11.0707
246.753738 86.757 -10.8002
248.541809 86.736 -10.6583
250.342850 86.715 -10.5505
252.156937 86.698 -10.4273
253.984161 86.682 -10.2156
255.824646 86.672 -9.9865
257.678467 86.660 -9.8641
259.545685 86.641 -9.7667
261.426483 86.633 -9.6096
263.320862 86.635 -9.4296
265.229004 86.631 -9.2509
267.150970 86.607 -9.0771
269.086853 86.574 -8.8575
271.036774 86.552 -8.6714
273.000824 86.539 -8.5973
274.979095 86.523 -8.5627
276.971710 86.506 -8.4498
278.978760 86.489 -8.2119
281.000336 86.472 -7.9049
283.036591 86.457 -7.6420
285.087585 86.445 -7.4789
287.153442 86.439 -7.3715
289.234283 86.438 -7.2271
291.330200 86.435 -7.0458
293.441284 86.425 -6.8716
295.567688 86.411 -6.6710
297.709503 86.403 -6.3540
299.866821 86.402 -6.0336
302.039795 86.384 -5.8456
304.228485 86.360 -5.7569
306.433044 86.354 -5.7273
308.653595 86.357 -5.6684
310.890228 86.350 -5.5005
313.143066 86.327 -5.3204
315.412231 86.299 -5.1533
317.697845 86.286 -4.9401
320.000000 86.279 -4.7116
322.318848 86.262 -4.4993
324.654510 86.246 -4.3372
327.007080 86.247 -4.2284
329.376709 86.251 -4.0971
331.763519 86.242 -3.8759
334.167603 86.227 -3.6293
336.589142 86.222 -3.4233
339.028198 86.225 -3.2328
341.484924 86.222 -3.0229
343.959473 86.209 -2.8299
346.451935 86.191 -2.6521
348.962463 86.178 -2.4097
351.491211 86.171 -2.1448
354.038239 86.161 -1.9779
356.603760 86.149 -1.9433
359.187866 86.138 -1.9130
361.790680 86.128 -1.6836
364.412354 86.125 -1.3397
367.053040 86.120 -1.0634
369.712860 86.110 -0.8825
372.391968 86.094 -0.7193
375.090454 86.074 -0.5011
377.808533 86.063 -0.2500
380.546265 86.067 -0.0233
383.303864 86.065 0.2065
386.081451 86.047 0.4670
388.879150 86.024 0.6959
391.697144 86.015 0.8990
394.535522 86.018 1.1484
397.394501 86.014 1.4320
400.274170 86.001 1.6171
403.174744 85.986 1.7232
406.096313 85.970 1.9133
409.039062 85.954 2.1625
412.003113 85.942 2.4087
414.988647 85.929 2.7166
417.995850 85.909 3.0881
421.024811 85.897 3.3195
424.075714 85.901 3.3914
427.148743 85.913 3.4996
430.244049 85.921 3.6615
433.361786 85.922 3.8121
436.502106 85.919 3.9724
439.665161 85.909 4.1937
442.851166 85.893 4.4853
446.060242 85.878 4.7876
449.292572 85.873 5.0443
452.548340 85.875 5.2851
455.827698 85.872 5.5169
459.130798 85.857 5.7404
462.457855 85.842 6.0049
465.809021 85.832 6.2814
469.184448 85.826 6.5055
472.584381 85.822 6.6731
476.008911 85.833 6.8999
479.458252 85.847 7.1805
482.932617 85.834 7.4186
486.432159 85.815 7.5918
489.957031 85.809 7.7222
493.507477 85.800 7.9660
497.083618 85.782 8.2806
500.685699 85.768 8.5258
504.313873 85.765 8.7491
507.968323 85.767 9.0252
511.649292 85.767 9.2955
515.356934 85.767 9.5539
519.091370 85.769 9.8018
522.852966 85.772 10.0166
526.641724 85.769 10.2407
530.458008 85.766 10.5055
534.301941 85.763 10.7614
538.173706 85.757 10.9470
542.073547 85.752 11.2226
546.001648 85.754 11.5938
549.958191 85.757 11.8960
553.943420 85.760 12.1671
557.957520 85.766 12.4643
562.000671 85.773 12.7734
566.073181 85.779 13.0570
570.175171 85.781 13.3217
574.306885 85.783 13.6099
578.468567 85.782 13.8855
582.660400 85.777 14.1508
586.882568 85.773 14.4789
591.135376 85.778 14.8318
595.419006 85.790 15.1462
599.733643 85.801 15.3977
604.079590 85.809 15.5650
608.456970 85.818 15.7234
612.866089 85.828 15.9131
617.307190 85.836 16.1332
621.780457 85.849 16.4175
626.286133 85.862 16.7460
630.824463 85.867 17.0533
635.395691 85.873 17.3309
640.000000 85.883 17.6045
644.637695 85.893 17.8455
649.309021 85.909 18.1078
654.014160 85.927 18.3966
658.753418 85.947 18.6065
663.527039 85.971 18.6370
668.335205 85.998 18.5197
673.178284 86.022 18.2772
678.056396 86.034 17.8965
682.969849 86.011 17.3306
687.918945 85.915 16.6541
692.903870 85.726 16.1858
697.924927 85.469 16.4041
702.982422 85.217 17.5297
708.076477 85.058 19.2625
713.207520 85.034 21.0420
718.375732 85.100 22.5403
723.581360 85.181 23.6814
728.824707 85.253 24.4900
734.106079 85.311 25.1140
739.425720 85.359 25.6506
744.783936 85.408 26.0869
750.180908 85.456 26.4454
755.617065 85.499 26.8369
761.092529 85.530 27.2524
766.607727 85.560 27.6305
772.162903 85.587 27.9003
777.758301 85.607 28.1363
783.394287 85.631 28.5840
789.071045 85.660 29.1325
794.789001 85.693 29.6495
800.548340 85.725 30.1147
806.349487 85.754 30.5469
812.192627 85.773 30.9960
818.078125 85.795 31.4336
824.006226 85.830 31.8722
829.977295 85.861 32.3260
835.991699 85.885 32.7899
842.049622 85.913 33.2031
848.151428 85.946 33.5798
854.297485 85.970 33.9298
860.488098 85.992 34.2977
866.723572 86.022 34.7063
873.004211 86.057 35.1566
879.330322 86.089 35.6486
885.702332 86.112 36.0986
892.120483 86.139 36.4522
898.585144 86.177 36.8001
905.096680 86.220 37.2044
911.655396 86.253 37.6399
918.261597 86.284 38.0426
924.915710 86.325 38.4696
931.618042 86.374 38.9129
938.368896 86.416 39.3341
945.168762 86.456 39.7612
952.017822 86.499 40.1943
958.916504 86.542 40.6119
965.865234 86.589 40.9312
972.864319 86.632 41.2388
979.914062 86.667 41.6360
987.014954 86.704 42.0239
994.167236 86.746 42.4080
1001.371399 86.787 42.8323
1008.627747 86.826 43.2097
1015.936646 86.869 43.5780
1023.298584 86.924 43.9423
1030.713867 86.983 44.2628
1038.182739 87.037 44.5664
1045.705933 87.086 44.8750
1053.283447 87.134 45.2080
1060.916016 87.189 45.5663
1068.603882 87.242 45.8707
1076.347412 87.293 46.1212
1084.147095 87.347 46.4123
1092.003296 87.404 46.7312
1099.916382 87.465 47.0058
1107.886841 87.525 47.2444
1115.915039 87.583 47.4891
1124.001343 87.642 47.6802
1132.146362 87.709 47.8658
1140.350342 87.769 48.1386
1148.613770 87.824 48.4486
1156.937134 87.885 48.6847
1165.320801 87.944 48.8904
1173.765137 88.004 49.1278
1182.270752 88.066 49.3529
1190.838013 88.125 49.5484
1199.467285 88.185 49.7179
1208.159180 88.242 49.9023
1216.913940 88.292 50.0990
1225.732178 88.351 50.2769
1234.614380 88.417 50.4338
1243.560913 88.482 50.6338
1252.572266 88.543 50.8644
1261.648926 88.605 51.0806
1270.791382 88.668 51.2942
1280.000000 88.728 51.4909
1289.275391 88.784 51.6418
1298.618042 88.841 51.7678
1308.028320 88.901 51.9220
1317.506836 88.958 52.0995
1327.054077 89.011 52.2984
1336.670410 89.065 52.5155
1346.356567 89.117 52.7150
1356.112793 89.158 52.8818
1365.939697 89.188 53.0582
1375.837891 89.226 53.2480
1385.807739 89.273 53.4594
1395.849854 89.321 53.6867
1405.964844 89.371 53.8899
1416.152954 89.423 54.0425
1426.415039 89.478 54.2239
1436.751465 89.532 54.4324
1447.162720 89.582 54.6216
1457.649414 89.632 54.8012
1468.212158 89.684 54.9703
1478.851440 89.733 55.1419
1489.567871 89.779 55.3504
1500.361816 89.828 55.5722
1511.234131 89.878 55.7914
1522.185059 89.930 55.9990
1533.215454 89.982 56.1789
1544.325806 90.029 56.3715
1555.516602 90.076 56.5885
1566.788574 90.132 56.8222
1578.142090 90.192 57.0322
1589.578003 90.244 57.2320
1601.096680 90.291 57.4304
1612.698975 90.339 57.6008
1624.385254 90.386 57.8053
1636.156250 90.433 58.0410
1648.012451 90.482 58.2584
1659.954590 90.532 58.4710
1671.983398 90.581 58.6944
1684.099243 90.631 58.9336
1696.302856 90.684 59.1614
1708.594971 90.740 59.3542
1720.976196 90.793 59.5461
1733.447144 90.845 59.7593
1746.008423 90.898 59.9853
1758.660645 90.949 60.2223
1771.404663 91.000 60.4392
1784.240967 91.051 60.6483
1797.170288 91.100 60.8745
1810.193359 91.156 61.1152
1823.310791 91.217 61.3701
1836.523193 91.275 61.6152
1849.831421 91.329 61.8562
1863.236084 91.388 62.0898
1876.737793 91.452 62.3211
1890.337524 91.519 62.5577
1904.035645 91.590 62.7858
1917.833008 91.660 62.9994
1931.730469 91.728 63.1883
1945.728638 91.796 63.3484
1959.828125 91.865 63.4794
1974.029907 91.935 63.6018
1988.334473 92.007 63.7348
2002.742798 92.074 63.8715
2017.255493 92.141 63.9861
2031.873291 92.210 64.0611
2046.597168 92.277 64.1362
2061.427734 92.340 64.2459
2076.365479 92.399 64.3799
2091.411865 92.460 64.5144
2106.566895 92.521 64.6207
2121.832031 92.586 64.7056
2137.207764 92.654 64.8048
2152.694824 92.721 64.9256
2168.294189 92.790 65.0372
2184.006592 92.858 65.1099
2199.832764 92.923 65.1732
2215.773682 92.992 65.2403
2231.830078 93.064 65.2851
2248.002686 93.136 65.3079
2264.292725 93.204 65.3021
2280.700684 93.274 65.2779
2297.227539 93.341 65.2534
2313.874268 93.402 65.2478
2330.641602 93.460 65.2203
2347.530273 93.517 65.1717
2364.541504 93.579 65.1291
2381.676025 93.640 65.0805
2398.934570 93.699 65.0343
2416.318359 93.757 64.9816
2433.827881 93.812 64.9179
2451.464355 93.866 64.8576
2469.228760 93.920 64.7875
2487.121826 93.970 64.6950
2505.144531 94.022 64.5867
2523.297852 94.074 64.4956
2541.582764 94.124 64.4184
2560.000000 94.169 64.3240
2578.550781 94.213 64.2305
2597.236084 94.256 64.1464
2616.056641 94.297 64.0430
2635.013672 94.337 63.9335
2654.108154 94.375 63.8519
2673.340820 94.411 63.7696
2692.713135 94.445 63.6675
2712.225586 94.478 63.5671
2731.879395 94.506 63.4685
2751.675781 94.530 63.3782
2771.615479 94.557 63.2816
2791.699707 94.583 63.1958
2811.929688 94.605 63.1356
2832.305908 94.622 63.0843
2852.830078 94.639 63.0769
2873.502930 94.655 63.1130
2894.325439 94.672 63.1592
2915.298828 94.692 63.2269
2936.424316 94.718 63.3315
2957.702881 94.752 63.4816
2979.135742 94.794 63.6405
3000.723633 94.847 63.7714
3022.468262 94.909 63.8730
3044.370117 94.974 63.9188
3066.430908 95.040 63.8830
3088.651611 95.108 63.7648
3111.033203 95.173 63.5716
3133.577148 95.229 63.3413
3156.284180 95.276 63.0877
3179.156006 95.318 62.8399
3202.193359 95.352 62.6175
3225.397949 95.383 62.4079
3248.770508 95.415 62.2169
3272.312500 95.450 62.0376
3296.024902 95.488 61.8629
3319.909180 95.528 61.6676
3343.966797 95.569 61.4420
3368.198486 95.610 61.1726
3392.605713 95.649 60.8686
3417.189941 95.684 60.5371
3441.952393 95.719 60.1642
3466.894287 95.749 59.7789
3492.016846 95.775 59.4028
3517.321289 95.799 59.0325
3542.809326 95.820 58.6382
3568.481934 95.840 58.2265
3594.340576 95.858 57.8007
3620.386719 95.870 57.3511
3646.621582 95.877 56.8964
3673.046387 95.880 56.4309
3699.662842 95.878 55.9425
3726.472168 95.868 55.4471
3753.475586 95.855 54.9539
3780.675049 95.840 54.4524
3808.071289 95.819 53.9601
3835.666016 95.791 53.4819
3863.460938 95.756 53.0032
3891.457275 95.714 52.5210
3919.656250 95.666 52.0419
3948.059814 95.612 51.5629
3976.668945 95.555 51.0951
