* Measurement data measured by REW V5.20.13
* Source: Microphone (Realtek(R) Audio), MICROPHONE (Master Volume), L, volume: 0.710. Timing signal peak level -37.4 dBFS, measurement signal peak level -37.2 dBFS
* Format: 2M Log Swept Sine, 1 sweep at -12.0 dBFS using an acoustic timing reference
* Dated: Sep 7, 2023 4:01:32 PM
* REW Settings:
*  C-weighting compensation: Off
*  Target level: 75.0 dB
* Note: ; Delay -0.0562 ms (-19 mm, -0.76 in) using estimated IR delay relative to Acoustic reference played from HEADPHONE L with no timing offset Clock adjustment: 120.6 ppm
* Measurement: KZ Krila DDDU L
* Smoothing: 1/24 octave
* Frequency Step: 1/48 octave
* Start Frequency: 20.000 Hz
*
* Freq(Hz) SPL(dB) Phase(degrees)
20.000000 89.784 13.6332
20.299999 89.776 13.2787
20.600000 89.763 12.9387
20.900000 89.747 12.6320
21.200001 89.731 12.3703
21.400000 89.722 12.2152
21.799999 89.712 11.9182
22.000000 89.710 11.7572
22.400000 89.710 11.3755
22.700001 89.705 11.0403
23.000000 89.692 10.6948
23.299999 89.671 10.3831
23.600000 89.646 10.1336
24.000000 89.620 9.9038
24.299999 89.612 9.7688
24.700001 89.619 9.5527
25.000000 89.629 9.3154
25.400000 89.637 8.8947
25.799999 89.628 8.4340
26.200001 89.602 8.0416
26.500000 89.581 7.8252
26.900000 89.561 7.6177
27.200001 89.555 7.4742
27.600000 89.554 7.2368
28.000000 89.550 6.9308
28.500000 89.527 6.5382
29.000000 89.492 6.2705
29.500000 89.466 6.1492
30.000000 89.461 6.0524
30.400000 89.464 5.9058
30.700001 89.465 5.7455
31.100000 89.457 5.5004
31.500000 89.441 5.2723
32.000000 89.418 5.0637
32.500000 89.403 4.9100
33.000000 89.398 4.7207
33.500000 89.393 4.4570
34.000000 89.377 4.1747
34.500000 89.356 3.9520
35.000000 89.341 3.7888
35.500000 89.334 3.6142
36.000000 89.326 3.3932
36.500000 89.308 3.1829
37.000000 89.288 3.0554
37.500000 89.280 2.9824
38.200001 89.287 2.7761
38.700001 89.284 2.5336
39.500000 89.259 2.2690
40.000000 89.260 2.1829
40.599998 89.282 1.9268
41.200001 89.282 1.4322
41.799999 89.235 0.9937
42.500000 89.167 0.8909
43.099998 89.149 0.9815
43.700001 89.155 0.9466
44.400002 89.147 0.7790
45.000000 89.126 0.7200
45.500000 89.115 0.7358
46.200001 89.113 0.7084
46.799999 89.107 0.5906
47.500000 89.085 0.4348
48.200001 89.058 0.3031
48.700001 89.038 0.2096
49.400002 89.011 0.0878
50.000000 88.996 -0.0056
50.799999 88.992 -0.2050
51.500000 88.988 -0.4808
52.200001 88.975 -0.7394
53.000000 88.960 -0.9379
53.799999 88.946 -1.0538
54.500000 88.936 -1.0530
55.200001 88.936 -1.0256
56.000000 88.929 -1.0890
57.000000 88.888 -1.1481
58.000000 88.822 -1.3319
59.000000 88.664 -1.2113
60.000000 88.617 -0.1435
60.799999 88.739 0.0452
61.500000 88.815 -0.6289
62.200001 88.809 -1.3887
63.000000 88.775 -1.8894
64.000000 88.762 -2.2415
65.000000 88.765 -2.4713
66.000000 88.772 -2.6528
67.000000 88.762 -2.7938
68.000000 88.741 -2.8660
69.000000 88.710 -2.9497
70.000000 88.672 -3.0394
71.000000 88.639 -3.1177
72.000000 88.623 -3.2168
73.000000 88.619 -3.3951
74.000000 88.611 -3.6019
75.000000 88.595 -3.7400
76.199997 88.571 -3.7533
77.500000 88.561 -3.6832
78.800003 88.548 -3.8148
80.000000 88.507 -3.9637
81.199997 88.470 -4.0079
82.500000 88.455 -4.0379
83.800003 88.457 -4.1398
85.000000 88.454 -4.2431
86.199997 88.449 -4.2878
87.500000 88.439 -4.3228
88.500000 88.426 -4.3550
90.000000 88.399 -4.4847
91.199997 88.362 -4.5720
92.500000 88.335 -4.5516
93.800003 88.334 -4.6176
95.000000 88.323 -4.7911
96.199997 88.296 -4.8680
97.500000 88.275 -4.8444
98.800003 88.258 -4.8704
100.000000 88.237 -4.9135
101.500000 88.211 -4.9481
103.000000 88.196 -4.9832
104.400002 88.184 -5.0531
106.000000 88.160 -5.1317
107.500000 88.130 -5.1789
109.000000 88.096 -5.2492
110.599998 88.062 -5.2797
112.000000 88.057 -5.2861
113.800003 88.065 -5.3379
115.000000 88.061 -5.3574
117.199997 87.993 -5.3444
118.000000 87.945 -5.2798
120.599998 87.837 -4.7688
122.000000 87.855 -4.8913
124.099998 87.869 -5.4472
125.000000 87.869 -5.5970
126.500000 87.869 -5.6863
128.000000 87.861 -5.6522
131.500000 87.802 -5.6118
132.000000 87.792 -5.6312
134.000000 87.758 -5.6942
136.000000 87.746 -5.6969
138.000000 87.738 -5.6809
140.000000 87.724 -5.6906
143.000000 87.679 -5.7227
145.000000 87.661 -5.6879
147.500000 87.646 -5.6664
150.000000 87.629 -5.6377
152.500000 87.597 -5.5922
155.000000 87.552 -5.4841
157.500000 87.515 -5.3740
160.000000 87.499 -5.3572
162.500000 87.479 -5.4532
165.000000 87.439 -5.4427
167.500000 87.405 -5.3198
170.000000 87.386 -5.2125
172.500000 87.371 -5.1216
175.000000 87.340 -5.1053
177.500000 87.286 -5.1508
180.000000 87.232 -5.1279
182.500000 87.213 -4.9847
185.000000 87.213 -4.8651
187.500000 87.193 -4.7614
190.000000 87.160 -4.6578
192.500000 87.134 -4.5844
195.000000 87.115 -4.5590
197.500000 87.086 -4.4818
200.000000 87.046 -4.3062
203.000000 87.000 -4.0936
206.000000 86.974 -3.9879
209.000000 86.961 -3.8716
212.000000 86.949 -3.6812
214.000000 86.935 -3.5893
218.000000 86.897 -3.5365
220.000000 86.879 -3.4879
224.000000 86.848 -3.2034
227.000000 86.819 -3.0092
230.000000 86.779 -2.9187
233.000000 86.746 -2.7847
236.000000 86.727 -2.4974
240.000000 86.705 -2.0773
243.000000 86.686 -2.0289
247.000000 86.650 -2.0281
250.000000 86.621 -1.9161
254.000000 86.577 -1.7213
258.000000 86.562 -1.4758
262.000000 86.551 -1.2579
265.000000 86.524 -1.1190
269.000000 86.489 -0.8895
272.000000 86.470 -0.7163
276.000000 86.444 -0.4578
280.000000 86.415 -0.1645
285.000000 86.396 0.1569
290.000000 86.390 0.3722
295.000000 86.362 0.5723
300.000000 86.319 0.8909
304.000000 86.293 1.1974
307.000000 86.286 1.4022
311.000000 86.285 1.6245
315.000000 86.286 1.8323
320.000000 86.270 2.0402
325.000000 86.243 2.3479
330.000000 86.226 2.6744
335.000000 86.211 2.9932
340.000000 86.192 3.3286
345.000000 86.164 3.6374
350.000000 86.142 3.9869
355.000000 86.123 4.2507
360.000000 86.116 4.4417
365.000000 86.106 4.7679
370.000000 86.083 5.1427
375.000000 86.060 5.4807
382.000000 86.042 5.9758
387.000000 86.025 6.3278
395.000000 85.998 6.7629
400.000000 85.981 7.0497
406.000000 85.961 7.4520
412.000000 85.948 7.8483
418.000000 85.948 8.2792
425.000000 85.943 8.7023
431.000000 85.920 9.0344
437.000000 85.894 9.4513
444.000000 85.865 9.9299
450.000000 85.848 10.2961
455.000000 85.844 10.5904
462.000000 85.831 11.0329
468.000000 85.814 11.4604
475.000000 85.793 11.8990
482.000000 85.777 12.2457
487.000000 85.776 12.5406
494.000000 85.774 13.0175
500.000000 85.771 13.4531
508.000000 85.770 14.0251
515.000000 85.769 14.4628
522.000000 85.768 14.8677
530.000000 85.770 15.4442
538.000000 85.782 16.1013
545.000000 85.779 16.5546
552.000000 85.766 16.8846
560.000000 85.774 17.3043
570.000000 85.805 17.9483
580.000000 85.818 18.6281
590.000000 85.825 19.2155
600.000000 85.856 19.7049
608.000000 85.888 20.1556
615.000000 85.908 20.5765
622.000000 85.928 20.9544
630.000000 85.962 21.2466
640.000000 86.002 21.2968
650.000000 86.002 20.9254
660.000000 85.891 20.3043
670.000000 85.654 20.4989
680.000000 85.437 22.0773
690.000000 85.367 24.0336
700.000000 85.402 25.6851
710.000000 85.462 26.8793
720.000000 85.525 27.6853
730.000000 85.560 28.3189
740.000000 85.559 28.9848
750.000000 85.548 29.8053
762.000000 85.549 31.0403
775.000000 85.602 32.3878
788.000000 85.684 33.5512
800.000000 85.752 34.5465
812.000000 85.819 35.5005
825.000000 85.896 36.5013
838.000000 85.966 37.4100
850.000000 86.031 38.1799
862.000000 86.097 38.9330
875.000000 86.171 39.7853
885.000000 86.232 40.4592
900.000000 86.322 41.4811
912.000000 86.392 42.2232
925.000000 86.470 42.9661
938.000000 86.556 43.7123
950.000000 86.639 44.3946
962.000000 86.720 45.0531
975.000000 86.801 45.7222
988.000000 86.881 46.3777
1000.000000 86.957 47.0042
1015.000000 87.055 47.8017
1030.000000 87.158 48.5003
1044.000000 87.265 49.0541
1060.000000 87.391 49.6821
1075.000000 87.505 50.2462
1090.000000 87.617 50.8393
1106.000000 87.738 51.4057
1120.000000 87.844 51.8034
1138.000000 87.981 52.2811
1150.000000 88.076 52.6169
1172.000000 88.253 53.2011
1180.000000 88.314 53.3930
1206.000000 88.504 53.9861
1220.000000 88.602 54.2813
1241.000000 88.748 54.7033
1250.000000 88.811 54.8839
1265.000000 88.915 55.1830
1280.000000 89.016 55.4665
1315.000000 89.240 56.0535
1320.000000 89.272 56.1300
1340.000000 89.396 56.4408
1360.000000 89.492 56.7704
1380.000000 89.578 57.1281
1400.000000 89.682 57.5151
1430.000000 89.846 58.0249
1450.000000 89.950 58.3364
1475.000000 90.080 58.7320
1500.000000 90.206 59.1693
1525.000000 90.333 59.5870
1550.000000 90.455 59.9562
1575.000000 90.571 60.3549
1600.000000 90.685 60.7810
1625.000000 90.801 61.1545
1650.000000 90.918 61.5335
1675.000000 91.032 61.9228
1700.000000 91.153 62.3174
1725.000000 91.273 62.7044
1750.000000 91.382 63.0686
1775.000000 91.491 63.4406
1800.000000 91.607 63.7791
1825.000000 91.725 64.0736
1850.000000 91.842 64.3497
1875.000000 91.959 64.6222
1900.000000 92.077 64.8748
1925.000000 92.192 65.0890
1950.000000 92.307 65.2898
1975.000000 92.421 65.4905
2000.000000 92.533 65.6758
2030.000000 92.665 65.8558
2060.000000 92.797 66.0000
2090.000000 92.928 66.1416
2120.000000 93.056 66.2450
2140.000000 93.140 66.2935
2180.000000 93.305 66.3731
2200.000000 93.385 66.3921
2240.000000 93.541 66.3966
2270.000000 93.653 66.3499
2300.000000 93.760 66.2772
2330.000000 93.863 66.1966
2360.000000 93.962 66.0980
2400.000000 94.090 65.9139
2430.000000 94.182 65.7448
2470.000000 94.296 65.5087
2500.000000 94.373 65.3245
2540.000000 94.468 65.0598
2580.000000 94.558 64.7715
2620.000000 94.641 64.4697
2650.000000 94.695 64.2365
2690.000000 94.759 63.9241
2720.000000 94.801 63.6919
2760.000000 94.845 63.3841
2800.000000 94.879 63.0839
2850.000000 94.907 62.7579
2900.000000 94.917 62.5107
2950.000000 94.920 62.3568
3000.000000 94.915 62.3502
3040.000000 94.909 62.4863
3070.000000 94.911 62.6767
3110.000000 94.929 63.0277
3150.000000 94.979 63.4508
3200.000000 95.094 63.8950
3250.000000 95.249 64.0060
3300.000000 95.406 63.7166
3350.000000 95.534 63.1168
3400.000000 95.627 62.3312
3450.000000 95.691 61.4987
3500.000000 95.729 60.6856
3550.000000 95.748 59.9174
3600.000000 95.753 59.2099
3650.000000 95.753 58.5305
3700.000000 95.745 57.8483
3750.000000 95.724 57.1439
3820.000000 95.673 56.1201
3870.000000 95.618 55.3779
3950.000000 95.496 54.2603
4000.000000 95.402 53.5972
4060.000000 95.269 52.8221
4120.000000 95.113 52.1024
4180.000000 94.933 51.4705
4250.000000 94.696 50.9150
4310.000000 94.472 50.6628
4370.000000 94.240 50.6174
4440.000000 93.975 50.7592
4500.000000 93.760 50.9886
4550.000000 93.590 51.2234
4620.000000 93.366 51.5616
4680.000000 93.182 51.8242
4750.000000 92.970 52.0598
4820.000000 92.742 52.1786
4870.000000 92.561 52.2194
4940.000000 92.274 52.3313
5000.000000 92.002 52.5816
5080.000000 91.619 53.2059
5150.000000 91.276 54.0234
5220.000000 90.935 55.0895
5300.000000 90.556 56.5798
5380.000000 90.196 58.2740
5450.000000 89.899 59.9384
5520.000000 89.616 61.7755
5600.000000 89.315 64.0500
5700.000000 88.980 67.0448
5800.000000 88.684 70.2510
5900.000000 88.428 73.6715
6000.000000 88.220 77.2476
6080.000000 88.087 80.1946
6150.000000 87.995 82.8144
6220.000000 87.927 85.4697
6300.000000 87.881 88.5370
6400.000000 87.872 92.4180
6500.000000 87.915 96.3530
6600.000000 88.017 100.2881
6700.000000 88.181 104.2013
6800.000000 88.420 108.0416
6900.000000 88.748 111.7793
7000.000000 89.172 115.3588
7100.000000 89.691 118.7117
7200.000000 90.299 121.7173
7300.000000 91.007 124.2170
7400.000000 91.817 126.0033
7500.000000 92.726 126.8269
7620.000000 93.935 126.0304
7750.000000 95.252 122.1532
7880.000000 96.244 114.4805
8000.000000 96.628 104.5547
8120.000000 96.369 93.9875
8250.000000 95.431 84.6562
8380.000000 94.074 79.0827
8500.000000 92.707 77.1186
8620.000000 91.385 77.4811
8750.000000 90.078 79.7416
8850.000000 89.173 82.4271
9000.000000 87.993 87.5592
9120.000000 87.220 92.3050
9250.000000 86.543 97.7473
9380.000000 86.011 103.3698
9500.000000 85.651 108.4885
9620.000000 85.381 113.4435
9750.000000 85.182 118.6983
9880.000000 85.086 123.7427
10000.000000 85.073 128.1135
10150.000000 85.144 133.1729
10300.000000 85.306 137.6467
10440.000000 85.524 141.1541
10600.000000 85.806 144.3310
10750.000000 86.071 146.4992
10900.000000 86.311 147.9378
11060.000000 86.506 148.9822
11200.000000 86.632 149.8007
11380.000000 86.789 150.9173
11500.000000 86.917 151.5523
11720.000000 87.194 152.2070
11800.000000 87.305 152.2571
12060.000000 87.705 151.4035
12200.000000 87.920 149.9428
12410.000000 88.102 145.9462
12500.000000 88.079 143.6303
12650.000000 87.847 139.3673
12800.000000 87.348 135.2920
13150.000000 85.339 130.5465
13200.000000 84.999 130.6051
13400.000000 83.646 132.6037
13600.000000 82.407 136.8424
13800.000000 81.367 142.4846
14000.000000 80.562 148.8465
14300.000000 79.729 158.5070
14500.000000 79.325 164.5543
14750.000000 78.877 171.5412
15000.000000 78.478 178.0983
15250.000000 78.118 -175.7098
15500.000000 77.843 -169.5713
15750.000000 77.823 -164.2498
16000.000000 77.936 -160.8786
16250.000000 77.986 -159.9449
16500.000000 77.829 -161.0579
16750.000000 77.432 -163.1802
17000.000000 76.948 -165.2835
17250.000000 76.647 -169.2612
17500.000000 76.773 160.7845
17750.000000 77.468 7.9417
18000.000000 78.246 2.4791
18250.000000 78.254 -123.3654
18500.000000 77.687 120.1965
18750.000000 76.601 109.8069
19000.000000 75.036 53.9465
19250.000000 73.493 -34.0740
19500.000000 72.231 22.6794
19750.000000 71.533 139.2407
20000.000000 71.164 -144.5679
