* Measurement data measured by REW V5.20.13
* Source: Microphone (Realtek(R) Audio), MICROPHONE (Master Volume), L, volume: 0.710. Timing signal peak level -37.6 dBFS, measurement signal peak level -37.2 dBFS
* Format: 2M Log Swept Sine, 1 sweep at -12.0 dBFS using an acoustic timing reference
* Dated: Sep 7, 2023 4:19:10 PM
* REW Settings:
*  C-weighting compensation: Off
*  Target level: 75.0 dB
* Note: ; Delay -0.0524 ms (-18 mm, -0.71 in) using estimated IR delay relative to Acoustic reference played from HEADPHONE R with no timing offset Clock adjustment: 120.7 ppm
* Measurement: KZ Krila UDDD R
* Smoothing: 1/48 octave
* Frequency Step: 1/96 octave
* Start Frequency: 20.000 Hz
*
* Freq(Hz) SPL(dB) Phase(degrees)
20.000000 91.719 11.8013
20.144928 91.720 11.6216
20.290907 91.721 11.4254
20.437943 91.723 11.2173
20.586044 91.723 11.0010
20.735220 91.723 10.7749
20.885475 91.720 10.5446
21.036821 91.714 10.3080
21.189262 91.707 10.0725
21.342808 91.697 9.8499
21.497467 91.685 9.6375
21.653246 91.672 9.4449
21.810154 91.659 9.2758
21.968201 91.646 9.1209
22.127390 91.636 8.9776
22.287735 91.628 8.8440
22.449242 91.623 8.7141
22.611917 91.621 8.5880
22.775772 91.621 8.4500
22.940815 91.624 8.3013
23.107054 91.626 8.1329
23.274498 91.629 7.9396
23.443153 91.631 7.7305
23.613033 91.630 7.5073
23.784142 91.627 7.2755
23.956491 91.620 7.0414
24.130091 91.610 6.8083
24.304947 91.597 6.5883
24.481071 91.581 6.3814
24.658470 91.564 6.2000
24.837156 91.545 6.0419
25.017136 91.527 5.9038
25.198421 91.510 5.7859
25.381020 91.495 5.6840
25.564941 91.482 5.5975
25.750195 91.471 5.5178
25.936790 91.464 5.4437
26.124741 91.459 5.3605
26.314051 91.457 5.2693
26.504732 91.456 5.1664
26.696796 91.457 5.0513
26.890253 91.458 4.9189
27.085112 91.460 4.7696
27.281382 91.460 4.6002
27.479073 91.460 4.4153
27.678198 91.457 4.2184
27.878765 91.452 4.0115
28.080786 91.444 3.7948
28.284271 91.434 3.5750
28.489231 91.420 3.3534
28.695675 91.404 3.1400
28.903616 91.385 2.9363
29.113064 91.364 2.7473
29.324028 91.342 2.5771
29.536524 91.319 2.4315
29.750557 91.297 2.3091
29.966141 91.276 2.2098
30.183289 91.258 2.1211
30.402010 91.243 2.0378
30.622314 91.232 1.9504
30.844217 91.223 1.8472
31.067726 91.217 1.7229
31.292856 91.210 1.5743
31.519617 91.202 1.4094
31.748020 91.190 1.2375
31.978081 91.177 1.0743
32.209808 91.162 0.9252
32.443211 91.147 0.8004
32.678310 91.135 0.6918
32.915108 91.126 0.5945
33.153625 91.122 0.4835
33.393871 91.120 0.3494
33.635857 91.119 0.1826
33.879597 91.116 -0.0157
34.125103 91.108 -0.2314
34.372387 91.094 -0.4513
34.621464 91.074 -0.6405
34.872345 91.051 -0.7882
35.125042 91.028 -0.8854
35.379574 91.010 -0.9407
35.635948 90.999 -0.9783
35.894180 90.994 -1.0187
36.154285 90.995 -1.0942
36.416275 90.997 -1.2167
36.680161 90.996 -1.3827
36.945961 90.990 -1.5815
37.213688 90.975 -1.7834
37.483353 90.954 -1.9617
37.754974 90.929 -2.0992
38.028561 90.904 -2.1859
38.304131 90.884 -2.2371
38.581699 90.870 -2.2769
38.861279 90.863 -2.3302
39.142883 90.861 -2.4242
39.426529 90.859 -2.5707
39.712231 90.852 -2.7565
40.000000 90.839 -2.9590
40.289856 90.818 -3.1483
40.581814 90.793 -3.2908
40.875885 90.770 -3.3762
41.172089 90.752 -3.4210
41.470440 90.744 -3.4551
41.770950 90.745 -3.5146
42.073643 90.749 -3.6310
42.378525 90.752 -3.8053
42.685616 90.748 -4.0087
42.994934 90.736 -4.2039
43.306492 90.718 -4.3585
43.620308 90.698 -4.4574
43.936401 90.682 -4.5104
44.254780 90.671 -4.5476
44.575470 90.663 -4.5914
44.898483 90.655 -4.6454
45.223835 90.645 -4.6982
45.551544 90.634 -4.7354
45.881630 90.623 -4.7537
46.214108 90.617 -4.7683
46.548996 90.612 -4.8040
46.886307 90.608 -4.8769
47.226067 90.600 -4.9817
47.568283 90.587 -5.0935
47.912983 90.570 -5.1913
48.260181 90.552 -5.2755
48.609894 90.537 -5.3667
48.962143 90.522 -5.4865
49.316940 90.504 -5.6349
49.674313 90.479 -5.7844
50.034271 90.452 -5.9001
50.396843 90.426 -5.9687
50.762039 90.408 -6.0112
51.129883 90.399 -6.0676
51.500389 90.393 -6.1635
51.873581 90.385 -6.2894
52.249481 90.373 -6.4118
52.628101 90.360 -6.5005
53.009464 90.348 -6.5513
53.393593 90.340 -6.5802
53.780506 90.333 -6.6000
54.170223 90.329 -6.6127
54.562763 90.326 -6.6260
54.958145 90.325 -6.6647
55.356396 90.319 -6.7495
55.757530 90.301 -6.8562
56.161572 90.268 -6.9128
56.568542 90.232 -6.8677
56.978462 90.209 -6.7764
57.391350 90.199 -6.7920
57.807232 90.179 -7.0140
58.226128 90.114 -7.3245
58.648056 90.000 -7.4083
59.073048 89.879 -6.9924
59.501114 89.824 -6.1505
59.932281 89.877 -5.3655
60.366577 90.001 -5.1627
60.804020 90.109 -5.6549
61.244629 90.143 -6.4983
61.688435 90.104 -7.2096
62.135452 90.045 -7.5497
62.585712 90.014 -7.6562
63.039234 90.017 -7.8011
63.496040 90.023 -8.0894
63.956161 90.009 -8.4132
64.419617 89.981 -8.6268
64.886421 89.956 -8.7125
65.356621 89.939 -8.7442
65.830215 89.926 -8.7678
66.307251 89.911 -8.7635
66.787743 89.899 -8.7212
67.271713 89.892 -8.6837
67.759193 89.885 -8.6925
68.250206 89.870 -8.7255
68.744774 89.850 -8.7290
69.242928 89.832 -8.6987
69.744690 89.821 -8.6904
70.250084 89.813 -8.7509
70.759148 89.798 -8.8524
71.271896 89.776 -8.9265
71.788361 89.757 -8.9448
72.308571 89.749 -8.9598
72.832550 89.748 -9.0511
73.360321 89.740 -9.2284
73.891922 89.715 -9.4093
74.427376 89.679 -9.4954
74.966705 89.647 -9.4715
75.509949 89.627 -9.4038
76.057121 89.616 -9.3586
76.608261 89.609 -9.3562
77.163399 89.602 -9.3840
77.722557 89.595 -9.4319
78.285767 89.588 -9.5049
78.853058 89.581 -9.6184
79.424461 89.566 -9.7716
80.000000 89.538 -9.9122
80.579712 89.502 -9.9589
81.163628 89.472 -9.8831
81.751770 89.459 -9.7687
82.344177 89.460 -9.7252
82.940880 89.455 -9.7763
83.541901 89.437 -9.8438
84.147285 89.410 -9.8488
84.757050 89.389 -9.7939
85.371231 89.379 -9.7404
85.989868 89.376 -9.7444
86.612984 89.374 -9.8289
87.240616 89.365 -9.9794
87.872803 89.344 -10.1375
88.509560 89.315 -10.2222
89.150940 89.293 -10.2133
89.796967 89.285 -10.1721
90.447670 89.287 -10.1661
91.103088 89.290 -10.2119
91.763260 89.286 -10.2967
92.428215 89.271 -10.3782
93.097992 89.248 -10.3890
93.772614 89.228 -10.3320
94.452133 89.216 -10.3029
95.136566 89.197 -10.3260
95.825966 89.168 -10.3054
96.520363 89.147 -10.2133
97.219788 89.143 -10.1546
97.924286 89.144 -10.2103
98.633881 89.134 -10.3364
99.348625 89.112 -10.4391
100.068542 89.090 -10.4888
100.793686 89.070 -10.5299
101.524078 89.043 -10.5592
102.259766 89.013 -10.4948
103.000778 89.001 -10.3711
103.747162 89.004 -10.3567
104.498962 88.993 -10.4554
105.256203 88.965 -10.4846
106.018929 88.946 -10.4177
106.787186 88.941 -10.3991
107.561012 88.933 -10.4567
108.340446 88.919 -10.5428
109.125526 88.896 -10.6616
109.916290 88.860 -10.7390
110.712791 88.824 -10.6905
111.515060 88.808 -10.6074
112.323143 88.803 -10.5972
113.137085 88.796 -10.6203
113.956924 88.792 -10.6144
114.782700 88.794 -10.6064
115.614464 88.791 -10.6032
116.452255 88.780 -10.5289
117.296112 88.764 -10.4089
118.146095 88.732 -10.1719
119.002228 88.723 -9.6779
119.864563 88.780 -9.4514
120.733154 88.803 -9.8900
121.608040 88.733 -10.3234
122.489258 88.656 -10.4136
123.376869 88.603 -10.5365
124.270905 88.543 -10.6705
125.171425 88.491 -10.6454
126.078468 88.464 -10.5032
126.992081 88.470 -10.3454
127.912323 88.493 -10.3397
128.839233 88.495 -10.4406
129.772842 88.478 -10.4337
130.713242 88.470 -10.3463
131.660431 88.470 -10.3270
132.614502 88.468 -10.3782
133.575485 88.463 -10.4604
134.543427 88.454 -10.5763
135.518387 88.434 -10.6662
136.500412 88.410 -10.6468
137.489548 88.393 -10.5456
138.485855 88.385 -10.4517
139.489380 88.374 -10.4169
140.500168 88.354 -10.3916
141.518295 88.336 -10.3474
142.543793 88.324 -10.3357
143.576721 88.311 -10.3359
144.617142 88.301 -10.3374
145.665100 88.286 -10.3312
146.720642 88.270 -10.2596
147.783844 88.261 -10.1995
148.854752 88.249 -10.1873
149.933411 88.236 -10.1968
151.019897 88.222 -10.2593
152.114243 88.202 -10.3281
153.216522 88.180 -10.3226
154.326797 88.164 -10.2488
155.445114 88.150 -10.1193
156.571533 88.139 -9.9492
157.706116 88.128 -9.8220
158.848923 88.112 -9.7686
160.000000 88.086 -9.8158
161.159424 88.051 -9.8755
162.327255 88.027 -9.8784
163.503540 88.024 -9.8820
164.688354 88.032 -9.9141
165.881760 88.038 -9.9263
167.083801 88.034 -9.8992
168.294571 88.012 -9.8069
169.514099 87.985 -9.6603
170.742462 87.960 -9.5607
171.979736 87.935 -9.5201
173.225967 87.917 -9.5203
174.481232 87.907 -9.5413
175.745605 87.901 -9.5573
177.019119 87.888 -9.5261
178.301880 87.873 -9.4109
179.593933 87.862 -9.3230
180.895340 87.837 -9.3422
182.206177 87.796 -9.2863
183.526520 87.771 -9.1330
184.856430 87.767 -8.9911
186.195984 87.769 -8.9274
187.545227 87.758 -8.9148
188.904266 87.729 -8.8954
190.273132 87.691 -8.8266
191.651932 87.662 -8.7489
193.040726 87.645 -8.7126
194.439575 87.640 -8.6815
195.848572 87.641 -8.6804
197.267761 87.629 -8.6649
198.697250 87.602 -8.5532
200.137085 87.571 -8.3739
201.587372 87.544 -8.2073
203.048157 87.526 -8.1005
204.519531 87.517 -8.0892
206.001556 87.511 -8.1191
207.494324 87.506 -8.1406
208.997925 87.493 -8.1116
210.512405 87.475 -8.0021
212.037857 87.457 -7.9071
213.574371 87.432 -7.8546
215.122025 87.404 -7.7684
216.680893 87.391 -7.6436
218.251053 87.391 -7.5821
219.832581 87.383 -7.5666
221.425583 87.363 -7.5099
223.030121 87.342 -7.3900
224.646286 87.325 -7.2390
226.274170 87.312 -7.0994
227.913849 87.301 -7.0054
229.565399 87.286 -6.9927
231.228928 87.263 -7.0227
232.904510 87.238 -6.9700
234.592224 87.221 -6.8156
236.292191 87.203 -6.5799
238.004456 87.179 -6.2834
239.729126 87.161 -6.0545
241.466309 87.149 -6.0599
243.216080 87.132 -6.1807
244.978516 87.125 -6.2108
246.753738 87.128 -6.1483
248.541809 87.122 -6.0299
250.342850 87.103 -5.8920
252.156937 87.078 -5.8048
253.984161 87.049 -5.7443
255.824646 87.026 -5.6284
257.678467 87.016 -5.5000
259.545685 87.006 -5.4376
261.426483 86.991 -5.3800
263.320862 86.980 -5.2960
265.229004 86.973 -5.1592
267.150970 86.964 -4.9926
269.086853 86.942 -4.8079
271.036774 86.915 -4.5898
273.000824 86.899 -4.4250
274.979095 86.892 -4.3810
276.971710 86.885 -4.3408
278.978760 86.881 -4.2422
281.000336 86.872 -4.1402
283.036591 86.844 -4.0272
285.087585 86.813 -3.8859
287.153442 86.793 -3.7391
289.234283 86.787 -3.6249
291.330200 86.781 -3.5111
293.441284 86.772 -3.3547
295.567688 86.763 -3.1641
297.709503 86.752 -2.9979
299.866821 86.739 -2.8497
302.039795 86.731 -2.7869
304.228485 86.720 -2.7513
306.433044 86.710 -2.6526
308.653595 86.697 -2.4919
310.890228 86.680 -2.2732
313.143066 86.667 -2.0511
315.412231 86.660 -1.8967
317.697845 86.654 -1.8360
320.000000 86.646 -1.7877
322.318848 86.642 -1.6837
324.654510 86.635 -1.5508
327.007080 86.614 -1.3749
329.376709 86.587 -1.1920
331.763519 86.569 -1.0292
334.167603 86.564 -0.8914
336.589142 86.559 -0.7360
339.028198 86.546 -0.5283
341.484924 86.533 -0.3254
343.959473 86.528 -0.2094
346.451935 86.525 -0.1812
348.962463 86.511 -0.1151
351.491211 86.494 0.0351
354.038239 86.482 0.2571
356.603760 86.487 0.5280
359.187866 86.493 0.7648
361.790680 86.472 0.9229
364.412354 86.436 1.0758
367.053040 86.417 1.2379
369.712860 86.409 1.4086
372.391968 86.395 1.6261
375.090454 86.380 1.8645
377.808533 86.376 2.0031
380.546265 86.368 2.0311
383.303864 86.355 2.0765
386.081451 86.338 2.2263
388.879150 86.322 2.4678
391.697144 86.309 2.6935
394.535522 86.299 2.8899
397.394501 86.292 3.1066
400.274170 86.287 3.3461
403.174744 86.292 3.5492
406.096313 86.301 3.6984
409.039062 86.297 3.8470
412.003113 86.284 4.0236
414.988647 86.273 4.1605
417.995850 86.266 4.2319
421.024811 86.249 4.3325
424.075714 86.220 4.5707
427.148743 86.200 4.8195
430.244049 86.193 5.0144
433.361786 86.186 5.2589
436.502106 86.170 5.5514
439.665161 86.152 5.7693
442.851166 86.142 5.9248
446.060242 86.136 6.0795
449.292572 86.126 6.2368
452.548340 86.115 6.4172
455.827698 86.108 6.6724
459.130798 86.105 6.9326
462.457855 86.092 7.1470
465.809021 86.075 7.3644
469.184448 86.068 7.5573
472.584381 86.065 7.7164
476.008911 86.071 7.8971
479.458252 86.082 8.0978
482.932617 86.070 8.3458
486.432159 86.051 8.6224
489.957031 86.040 8.8779
493.507477 86.029 9.1309
497.083618 86.013 9.3563
500.685699 85.997 9.5751
504.313873 85.993 9.8244
507.968323 85.997 10.0877
511.649292 85.998 10.3556
515.356934 86.005 10.5742
519.091370 86.009 10.7452
522.852966 86.001 10.9498
526.641724 85.992 11.1918
530.458008 85.983 11.4456
534.301941 85.978 11.7573
538.173706 85.991 12.0646
542.073547 86.001 12.2996
546.001648 86.001 12.5001
549.958191 86.004 12.7034
553.943420 86.004 12.9730
557.957520 85.993 13.2834
562.000671 85.974 13.5848
566.073181 85.960 13.8773
570.175171 85.962 14.1602
574.306885 85.971 14.4376
578.468567 85.980 14.6959
582.660400 85.986 14.8802
586.882568 85.987 15.0291
591.135376 85.986 15.2293
595.419006 85.991 15.5032
599.733643 86.004 15.8344
604.079590 86.016 16.1698
608.456970 86.017 16.4209
612.866089 86.011 16.6141
617.307190 86.004 16.8436
621.780457 86.013 17.1313
626.286133 86.027 17.4525
630.824463 86.036 17.7242
635.395691 86.045 17.9645
640.000000 86.054 18.1912
644.637695 86.064 18.3138
649.309021 86.084 18.4244
654.014160 86.109 18.6171
658.753418 86.125 18.8010
663.527039 86.140 18.8107
668.335205 86.161 18.6914
673.178284 86.173 18.5254
678.056396 86.169 18.1254
682.969849 86.131 17.4551
687.918945 86.023 16.7864
692.903870 85.824 16.4546
697.924927 85.556 16.8469
702.982422 85.312 18.1458
708.076477 85.180 19.9858
713.207520 85.169 21.7723
718.375732 85.228 23.2416
723.581360 85.310 24.3010
728.824707 85.392 25.0386
734.106079 85.465 25.6541
739.425720 85.519 26.1338
744.783936 85.559 26.5048
750.180908 85.607 26.9091
755.617065 85.654 27.3154
761.092529 85.686 27.6707
766.607727 85.715 28.0186
772.162903 85.741 28.3718
777.758301 85.767 28.8314
783.394287 85.793 29.2969
789.071045 85.816 29.6151
794.789001 85.836 29.9460
800.548340 85.854 30.3855
806.349487 85.876 30.8575
812.192627 85.903 31.3134
818.078125 85.928 31.7350
824.006226 85.950 32.1546
829.977295 85.971 32.5903
835.991699 85.989 32.9863
842.049622 86.009 33.3381
848.151428 86.036 33.7201
854.297485 86.069 34.1530
860.488098 86.107 34.5908
866.723572 86.140 35.0033
873.004211 86.170 35.3955
879.330322 86.205 35.7928
885.702332 86.242 36.2363
892.120483 86.277 36.6846
898.585144 86.306 37.0556
905.096680 86.331 37.4452
911.655396 86.367 37.8344
918.261597 86.412 38.2045
924.915710 86.455 38.5883
931.618042 86.490 39.0394
938.368896 86.527 39.4932
945.168762 86.569 39.9228
952.017822 86.611 40.3542
958.916504 86.652 40.7838
965.865234 86.695 41.1451
972.864319 86.737 41.4944
979.914062 86.771 41.9317
987.014954 86.809 42.3364
994.167236 86.855 42.7049
1001.371399 86.904 43.0410
1008.627747 86.951 43.2880
1015.936646 87.001 43.5290
1023.298584 87.052 43.8588
1030.713867 87.102 44.2599
1038.182739 87.150 44.6221
1045.705933 87.204 44.9514
1053.283447 87.255 45.2830
1060.916016 87.295 45.5834
1068.603882 87.345 45.8743
1076.347412 87.402 46.1506
1084.147095 87.458 46.3965
1092.003296 87.518 46.6529
1099.916382 87.583 46.9190
1107.886841 87.644 47.1575
1115.915039 87.696 47.3958
1124.001343 87.749 47.6765
1132.146362 87.808 47.9656
1140.350342 87.868 48.2314
1148.613770 87.928 48.4706
1156.937134 87.988 48.6571
1165.320801 88.047 48.8700
1173.765137 88.108 49.1157
1182.270752 88.169 49.3460
1190.838013 88.222 49.5607
1199.467285 88.273 49.7776
1208.159180 88.329 50.0009
1216.913940 88.391 50.2181
1225.732178 88.451 50.4052
1234.614380 88.514 50.5605
1243.560913 88.581 50.6931
1252.572266 88.643 50.8184
1261.648926 88.696 50.9922
1270.791382 88.749 51.1994
1280.000000 88.807 51.3936
1289.275391 88.867 51.5796
1298.618042 88.925 51.7705
1308.028320 88.979 51.9340
1317.506836 89.030 52.0701
1327.054077 89.087 52.2530
1336.670410 89.146 52.4674
1346.356567 89.198 52.6641
1356.112793 89.234 52.8221
1365.939697 89.262 53.0038
1375.837891 89.303 53.2273
1385.807739 89.354 53.4074
1395.849854 89.403 53.5382
1405.964844 89.452 53.7040
1416.152954 89.505 53.8900
1426.415039 89.558 54.0680
1436.751465 89.605 54.2644
1447.162720 89.655 54.4731
1457.649414 89.711 54.6489
1468.212158 89.764 54.8356
1478.851440 89.815 55.0437
1489.567871 89.865 55.2351
1500.361816 89.916 55.4194
1511.234131 89.969 55.6128
1522.185059 90.021 55.8021
1533.215454 90.069 56.0237
1544.325806 90.121 56.2472
1555.516602 90.168 56.4316
1566.788574 90.209 56.6006
1578.142090 90.252 56.7926
1589.578003 90.301 57.0056
1601.096680 90.352 57.2143
1612.698975 90.404 57.4103
1624.385254 90.455 57.6113
1636.156250 90.506 57.8294
1648.012451 90.558 58.0470
1659.954590 90.606 58.2655
1671.983398 90.653 58.4966
1684.099243 90.707 58.7105
1696.302856 90.760 58.9102
1708.594971 90.810 59.1215
1720.976196 90.861 59.3414
1733.447144 90.912 59.5431
1746.008423 90.967 59.7346
1758.660645 91.024 59.9383
1771.404663 91.075 60.1426
1784.240967 91.124 60.3623
1797.170288 91.179 60.5964
1810.193359 91.236 60.8336
1823.310791 91.292 61.0709
1836.523193 91.349 61.2981
1849.831421 91.411 61.5340
1863.236084 91.474 61.7781
1876.737793 91.538 62.0134
1890.337524 91.606 62.2401
1904.035645 91.674 62.4312
1917.833008 91.742 62.5864
1931.730469 91.814 62.7645
1945.728638 91.886 62.9265
1959.828125 91.957 63.0696
1974.029907 92.023 63.1868
1988.334473 92.087 63.2861
2002.742798 92.146 63.3952
2017.255493 92.208 63.4994
2031.873291 92.275 63.6008
2046.597168 92.339 63.7103
2061.427734 92.403 63.7975
2076.365479 92.470 63.8615
2091.411865 92.536 63.9441
2106.566895 92.599 64.0599
2121.832031 92.666 64.1854
2137.207764 92.736 64.2664
2152.694824 92.807 64.3318
2168.294189 92.874 64.3947
2184.006592 92.938 64.4402
2199.832764 93.004 64.4735
2215.773682 93.068 64.5068
2231.830078 93.134 64.5433
2248.002686 93.201 64.5731
2264.292725 93.266 64.5879
2280.700684 93.327 64.5816
2297.227539 93.385 64.5783
2313.874268 93.444 64.5655
2330.641602 93.503 64.5399
2347.530273 93.564 64.5106
2364.541504 93.626 64.4830
2381.676025 93.687 64.4698
2398.934570 93.743 64.4379
2416.318359 93.799 64.3710
2433.827881 93.856 64.3058
2451.464355 93.909 64.2455
2469.228760 93.960 64.1906
2487.121826 94.008 64.1295
2505.144531 94.056 64.0455
2523.297852 94.104 63.9461
2541.582764 94.152 63.8519
2560.000000 94.200 63.7554
2578.550781 94.248 63.6596
2597.236084 94.291 63.5786
2616.056641 94.332 63.4818
2635.013672 94.372 63.3741
2654.108154 94.411 63.2766
2673.340820 94.447 63.1742
2692.713135 94.481 63.0607
2712.225586 94.512 62.9590
2731.879395 94.540 62.8829
2751.675781 94.565 62.8008
2771.615479 94.589 62.6913
2791.699707 94.612 62.5987
2811.929688 94.633 62.5538
2832.305908 94.651 62.5374
2852.830078 94.667 62.5371
2873.502930 94.685 62.5571
2894.325439 94.707 62.6085
2915.298828 94.729 62.6986
2936.424316 94.752 62.8253
2957.702881 94.782 62.9728
2979.135742 94.823 63.1397
3000.723633 94.876 63.3011
3022.468262 94.939 63.4254
3044.370117 95.010 63.4771
3066.430908 95.083 63.4397
3088.651611 95.153 63.3159
3111.033203 95.219 63.1393
3133.577148 95.280 62.9200
3156.284180 95.330 62.6697
3179.156006 95.372 62.4166
3202.193359 95.411 62.1757
3225.397949 95.444 61.9674
3248.770508 95.474 61.7825
3272.312500 95.506 61.6001
3296.024902 95.540 61.4166
3319.909180 95.581 61.2263
3343.966797 95.626 61.0204
3368.198486 95.670 60.7712
3392.605713 95.712 60.4814
3417.189941 95.756 60.1546
3441.952393 95.798 59.7888
3466.894287 95.838 59.3929
3492.016846 95.873 58.9632
3517.321289 95.901 58.5087
3542.809326 95.926 58.0468
3568.481934 95.944 57.5715
3594.340576 95.955 57.0938
3620.386719 95.961 56.6179
3646.621582 95.962 56.1334
3673.046387 95.958 55.6476
3699.662842 95.950 55.1692
3726.472168 95.939 54.6918
3753.475586 95.924 54.2111
3780.675049 95.902 53.7302
3808.071289 95.877 53.2528
3835.666016 95.848 52.7956
3863.460938 95.814 52.3456
3891.457275 95.773 51.8938
3919.656250 95.726 51.4442
3948.059814 95.675 50.9922
3976.668945 95.620 50.5539
4005.485596 95.564 50.1417
4034.510986 95.502 49.7430
4063.746582 95.433 49.3276
4093.194336 95.362 48.9120
4122.855469 95.286 48.5132
4152.730957 95.206 48.1181
4182.823730 95.121 47.7324
4213.133789 95.028 47.3612
4243.664062 94.929 47.0020
