* Measurement data measured by REW V5.20.13
* Source: Microphone (Realtek(R) Audio), MICROPHONE (Master Volume), L, volume: 0.710. Timing signal peak level -37.5 dBFS, measurement signal peak level -37.3 dBFS
* Format: 2M Log Swept Sine, 1 sweep at -12.0 dBFS using an acoustic timing reference
* Dated: Sep 7, 2023 4:28:00 PM
* REW Settings:
*  C-weighting compensation: Off
*  Target level: 75.0 dB
* Note: ; Delay -0.0534 ms (-18 mm, -0.72 in) using estimated IR delay relative to Acoustic reference played from HEADPHONE R with no timing offset Clock adjustment: 120.6 ppm
* Measurement: KZ Krila DDUD R
* Smoothing: 1/24 octave
* Frequency Step: 1/48 octave
* Start Frequency: 20.000 Hz
*
* Freq(Hz) SPL(dB) Phase(degrees)
20.000000 94.646 5.8564
20.299999 94.626 5.3507
20.600000 94.604 4.8646
20.900000 94.584 4.3997
21.200001 94.565 3.9518
21.400000 94.553 3.6584
21.799999 94.532 3.0764
22.000000 94.522 2.7841
22.400000 94.503 2.1930
22.700001 94.487 1.7473
23.000000 94.469 1.3060
23.299999 94.449 0.8765
23.600000 94.426 0.4657
24.000000 94.395 -0.0444
24.299999 94.371 -0.3990
24.700001 94.342 -0.8448
25.000000 94.322 -1.1709
25.400000 94.294 -1.6063
25.799999 94.265 -2.0410
26.200001 94.232 -2.4589
26.500000 94.206 -2.7511
26.900000 94.174 -3.1120
27.200001 94.154 -3.3742
27.600000 94.131 -3.7411
28.000000 94.111 -4.1571
28.500000 94.081 -4.7500
29.000000 94.037 -5.3616
29.500000 93.982 -5.9105
30.000000 93.926 -6.3634
30.400000 93.887 -6.6815
30.700001 93.861 -6.9155
31.100000 93.831 -7.2405
31.500000 93.803 -7.5815
32.000000 93.766 -8.0084
32.500000 93.728 -8.4100
33.000000 93.693 -8.7879
33.500000 93.659 -9.1644
34.000000 93.625 -9.5494
34.500000 93.587 -9.9238
35.000000 93.545 -10.2599
35.500000 93.504 -10.5502
36.000000 93.465 -10.8148
36.500000 93.429 -11.0791
37.000000 93.394 -11.3544
37.500000 93.358 -11.6384
38.200001 93.306 -12.0471
38.700001 93.267 -12.3438
39.500000 93.205 -12.8004
40.000000 93.169 -13.0783
40.599998 93.131 -13.4393
41.200001 93.088 -13.8359
41.799999 93.037 -14.2030
42.500000 92.977 -14.5182
43.099998 92.937 -14.7295
43.700001 92.905 -14.9591
44.400002 92.866 -15.2573
45.000000 92.827 -15.5050
45.500000 92.794 -15.7053
46.200001 92.743 -15.9939
46.799999 92.692 -16.2313
47.500000 92.632 -16.4547
48.200001 92.579 -16.6523
48.700001 92.547 -16.8224
49.400002 92.502 -17.1138
50.000000 92.460 -17.3748
50.799999 92.405 -17.6996
51.500000 92.358 -17.9484
52.200001 92.314 -18.1406
53.000000 92.273 -18.3286
53.799999 92.229 -18.5276
54.500000 92.180 -18.6494
55.200001 92.129 -18.7158
56.000000 92.067 -18.7877
57.000000 91.983 -18.9120
58.000000 91.868 -19.2380
59.000000 91.691 -19.1741
60.000000 91.636 -18.5935
60.799999 91.681 -18.8177
61.500000 91.675 -19.4615
62.200001 91.625 -19.9784
63.000000 91.578 -20.3424
64.000000 91.534 -20.8029
65.000000 91.472 -21.0895
66.000000 91.422 -21.1484
67.000000 91.383 -21.2144
68.000000 91.329 -21.3043
69.000000 91.265 -21.3386
70.000000 91.205 -21.3673
71.000000 91.148 -21.4432
72.000000 91.091 -21.5411
73.000000 91.037 -21.6621
74.000000 90.981 -21.8246
75.000000 90.916 -21.9769
76.199997 90.836 -22.0867
77.500000 90.757 -22.1879
78.800003 90.685 -22.2736
80.000000 90.629 -22.3389
81.199997 90.576 -22.3954
82.500000 90.521 -22.4094
83.800003 90.462 -22.4464
85.000000 90.397 -22.4736
86.199997 90.332 -22.5099
87.500000 90.260 -22.5776
88.500000 90.208 -22.6108
90.000000 90.140 -22.6257
91.199997 90.092 -22.5766
92.500000 90.046 -22.5013
93.800003 89.997 -22.4406
95.000000 89.948 -22.4182
96.199997 89.894 -22.4376
97.500000 89.831 -22.4664
98.800003 89.770 -22.4563
100.000000 89.721 -22.3984
101.500000 89.668 -22.3032
103.000000 89.616 -22.2534
104.400002 89.557 -22.2379
106.000000 89.488 -22.1783
107.500000 89.434 -22.1186
109.000000 89.379 -22.1334
110.599998 89.300 -22.0986
112.000000 89.235 -21.9515
113.800003 89.178 -21.8126
115.000000 89.151 -21.7513
117.199997 89.127 -21.5872
118.000000 89.125 -21.5157
120.599998 89.071 -21.5236
122.000000 88.980 -21.4139
124.099998 88.854 -21.0869
125.000000 88.812 -20.9960
126.500000 88.755 -20.9333
128.000000 88.709 -20.9211
131.500000 88.615 -20.7059
132.000000 88.603 -20.6542
134.000000 88.561 -20.4974
136.000000 88.511 -20.4003
138.000000 88.459 -20.2281
140.000000 88.417 -19.9717
143.000000 88.359 -19.6381
145.000000 88.316 -19.4794
147.500000 88.256 -19.3287
150.000000 88.203 -19.1566
152.500000 88.155 -18.9534
155.000000 88.115 -18.8013
157.500000 88.057 -18.6922
160.000000 87.995 -18.4861
162.500000 87.944 -18.2059
165.000000 87.903 -17.9788
167.500000 87.853 -17.7587
170.000000 87.809 -17.4976
172.500000 87.766 -17.2793
175.000000 87.721 -17.1001
177.500000 87.678 -16.9402
180.000000 87.633 -16.6890
182.500000 87.591 -16.3210
185.000000 87.546 -16.0170
187.500000 87.492 -15.8019
190.000000 87.446 -15.6088
192.500000 87.413 -15.4264
195.000000 87.384 -15.2211
197.500000 87.357 -14.9578
200.000000 87.333 -14.6710
203.000000 87.296 -14.3383
206.000000 87.253 -14.0198
209.000000 87.208 -13.7053
212.000000 87.165 -13.4261
214.000000 87.141 -13.2789
218.000000 87.102 -13.0458
220.000000 87.079 -12.9342
224.000000 87.024 -12.6948
227.000000 86.986 -12.4341
230.000000 86.956 -12.1168
233.000000 86.925 -11.8817
236.000000 86.895 -11.7415
240.000000 86.849 -11.4743
243.000000 86.807 -11.0651
247.000000 86.764 -10.5788
250.000000 86.743 -10.3260
254.000000 86.719 -9.9807
258.000000 86.689 -9.5592
262.000000 86.653 -9.1786
265.000000 86.625 -8.9012
269.000000 86.595 -8.4814
272.000000 86.576 -8.1914
276.000000 86.550 -7.8786
280.000000 86.525 -7.5958
285.000000 86.494 -7.2679
290.000000 86.467 -6.9408
295.000000 86.435 -6.5055
300.000000 86.410 -6.0104
304.000000 86.401 -5.6813
307.000000 86.391 -5.4293
311.000000 86.376 -5.1129
315.000000 86.353 -4.8120
320.000000 86.326 -4.4254
325.000000 86.306 -4.0380
330.000000 86.283 -3.6675
335.000000 86.267 -3.2350
340.000000 86.247 -2.8434
345.000000 86.226 -2.4578
350.000000 86.218 -2.0383
355.000000 86.216 -1.6615
360.000000 86.201 -1.3236
365.000000 86.170 -0.9591
370.000000 86.137 -0.5926
375.000000 86.114 -0.2221
382.000000 86.088 0.3232
387.000000 86.070 0.6964
395.000000 86.049 1.2880
400.000000 86.034 1.6467
406.000000 86.016 2.0763
412.000000 85.995 2.4954
418.000000 85.978 2.9434
425.000000 85.963 3.5026
431.000000 85.951 3.9734
437.000000 85.933 4.4366
444.000000 85.918 4.9224
450.000000 85.911 5.3013
455.000000 85.899 5.6135
462.000000 85.878 6.0730
468.000000 85.867 6.4741
475.000000 85.860 7.0085
482.000000 85.853 7.5610
487.000000 85.845 7.8728
494.000000 85.833 8.3029
500.000000 85.820 8.7770
508.000000 85.805 9.4124
515.000000 85.798 9.8101
522.000000 85.800 10.2395
530.000000 85.813 10.7982
538.000000 85.827 11.3494
545.000000 85.824 11.9243
552.000000 85.815 12.4700
560.000000 85.809 12.9375
570.000000 85.802 13.5642
580.000000 85.817 14.2396
590.000000 85.830 14.8933
600.000000 85.827 15.5917
608.000000 85.842 16.1379
615.000000 85.858 16.5793
622.000000 85.874 17.0025
630.000000 85.892 17.4442
640.000000 85.917 17.8955
650.000000 85.953 18.3221
660.000000 85.991 18.5889
670.000000 86.034 18.5195
680.000000 86.013 17.9140
690.000000 85.819 17.2137
700.000000 85.459 17.8318
710.000000 85.203 20.2372
720.000000 85.200 22.8682
730.000000 85.307 24.6312
740.000000 85.422 25.7595
750.000000 85.518 26.6606
762.000000 85.603 27.5819
775.000000 85.668 28.4961
788.000000 85.720 29.5390
800.000000 85.767 30.4173
812.000000 85.812 31.2280
825.000000 85.871 32.1083
838.000000 85.942 32.9781
850.000000 86.008 33.8399
862.000000 86.063 34.7279
875.000000 86.117 35.6407
885.000000 86.162 36.3369
900.000000 86.241 37.3570
912.000000 86.311 38.1449
925.000000 86.389 38.9398
938.000000 86.464 39.6813
950.000000 86.531 40.3607
962.000000 86.600 41.0609
975.000000 86.680 41.7981
988.000000 86.767 42.4764
1000.000000 86.852 43.0795
1015.000000 86.956 43.7931
1030.000000 87.054 44.5020
1044.000000 87.147 45.1469
1060.000000 87.252 45.8151
1075.000000 87.343 46.4172
1090.000000 87.437 46.9740
1106.000000 87.552 47.5068
1120.000000 87.664 47.9437
1138.000000 87.807 48.4656
1150.000000 87.894 48.7955
1172.000000 88.040 49.3820
1180.000000 88.094 49.6090
1206.000000 88.273 50.3061
1220.000000 88.369 50.6027
1241.000000 88.514 51.0203
1250.000000 88.573 51.1954
1265.000000 88.667 51.4993
1280.000000 88.763 51.8159
1315.000000 88.979 52.4821
1320.000000 89.008 52.5796
1340.000000 89.119 52.9496
1360.000000 89.210 53.3046
1380.000000 89.292 53.6770
1400.000000 89.385 54.0738
1430.000000 89.540 54.6588
1450.000000 89.638 55.0634
1475.000000 89.755 55.5240
1500.000000 89.868 55.9838
1525.000000 89.982 56.4273
1550.000000 90.098 56.8745
1575.000000 90.205 57.3397
1600.000000 90.306 57.7968
1625.000000 90.413 58.2365
1650.000000 90.522 58.7009
1675.000000 90.627 59.1686
1700.000000 90.733 59.6402
1725.000000 90.840 60.0907
1750.000000 90.947 60.5137
1775.000000 91.051 60.9589
1800.000000 91.152 61.4186
1825.000000 91.259 61.8877
1850.000000 91.370 62.3692
1875.000000 91.489 62.8319
1900.000000 91.617 63.2437
1925.000000 91.747 63.5910
1950.000000 91.871 63.8831
1975.000000 91.992 64.1104
2000.000000 92.107 64.2861
2030.000000 92.242 64.4886
2060.000000 92.372 64.7040
2090.000000 92.496 64.9381
2120.000000 92.623 65.1597
2140.000000 92.709 65.3008
2180.000000 92.882 65.5832
2200.000000 92.969 65.6990
2240.000000 93.146 65.8569
2270.000000 93.272 65.8979
2300.000000 93.392 65.8698
2330.000000 93.506 65.8019
2360.000000 93.613 65.7108
2400.000000 93.749 65.5969
2430.000000 93.847 65.5054
2470.000000 93.968 65.3354
2500.000000 94.053 65.1994
2540.000000 94.163 65.0270
2580.000000 94.261 64.8405
2620.000000 94.349 64.6278
2650.000000 94.408 64.4822
2690.000000 94.477 64.3070
2720.000000 94.523 64.1757
2760.000000 94.576 64.0362
2800.000000 94.622 63.9603
2850.000000 94.675 64.0171
2900.000000 94.738 64.2499
2950.000000 94.838 64.5317
3000.000000 94.976 64.6882
3040.000000 95.098 64.5901
3070.000000 95.183 64.3957
3110.000000 95.278 64.0389
3150.000000 95.353 63.6666
3200.000000 95.432 63.2817
3250.000000 95.508 62.9401
3300.000000 95.592 62.5382
3350.000000 95.678 62.0085
3400.000000 95.749 61.3860
3450.000000 95.807 60.7366
3500.000000 95.862 60.0494
3550.000000 95.913 59.2981
3600.000000 95.951 58.4828
3650.000000 95.972 57.6234
3700.000000 95.976 56.7244
3750.000000 95.962 55.8149
3820.000000 95.911 54.5575
3870.000000 95.849 53.6801
3950.000000 95.709 52.3510
4000.000000 95.602 51.5880
4060.000000 95.460 50.7424
4120.000000 95.303 49.9725
4180.000000 95.132 49.2766
4250.000000 94.917 48.5726
4310.000000 94.715 48.0578
4370.000000 94.490 47.6337
4440.000000 94.204 47.2697
4500.000000 93.946 47.0820
4550.000000 93.724 47.0355
4620.000000 93.410 47.1502
4680.000000 93.143 47.3954
4750.000000 92.841 47.8014
4820.000000 92.541 48.2737
4870.000000 92.323 48.6406
4940.000000 92.013 49.2221
5000.000000 91.740 49.8298
5080.000000 91.371 50.8333
5150.000000 91.046 51.9122
5220.000000 90.722 53.1874
5300.000000 90.362 54.8886
5380.000000 90.025 56.8232
5450.000000 89.754 58.6717
5520.000000 89.506 60.6353
5600.000000 89.243 62.9718
5700.000000 88.955 66.0400
5800.000000 88.709 69.2699
5900.000000 88.503 72.5818
6000.000000 88.343 75.9992
6080.000000 88.246 78.7806
6150.000000 88.182 81.2283
6220.000000 88.138 83.6906
6300.000000 88.114 86.5408
6400.000000 88.120 90.1493
6500.000000 88.174 93.8113
6600.000000 88.284 97.5310
6700.000000 88.452 101.2043
6800.000000 88.689 104.8212
6900.000000 89.011 108.3504
7000.000000 89.430 111.7247
7100.000000 89.943 114.8908
7200.000000 90.547 117.7292
7300.000000 91.251 120.0599
7400.000000 92.057 121.6943
7500.000000 92.961 122.3305
7620.000000 94.156 121.2474
7750.000000 95.435 116.9961
7880.000000 96.357 108.9908
8000.000000 96.651 99.0209
8120.000000 96.307 88.7668
8250.000000 95.316 80.0306
8380.000000 93.956 74.9952
8500.000000 92.614 73.3248
8620.000000 91.326 73.7652
8750.000000 90.043 75.8740
8850.000000 89.136 78.3387
9000.000000 87.892 83.3375
9120.000000 87.068 88.3034
9250.000000 86.388 93.8153
9380.000000 85.841 99.1512
9500.000000 85.412 104.0684
9620.000000 85.054 109.0022
9750.000000 84.754 114.2682
9880.000000 84.545 119.3969
10000.000000 84.421 123.9394
10150.000000 84.347 129.2760
10300.000000 84.350 134.1771
10440.000000 84.410 138.2921
10600.000000 84.523 142.3920
10750.000000 84.650 145.6481
10900.000000 84.765 148.3987
11060.000000 84.862 150.9466
11200.000000 84.933 153.0727
11380.000000 85.040 155.8630
11500.000000 85.145 157.6575
11720.000000 85.407 160.4673
11800.000000 85.521 161.3402
12060.000000 85.977 163.4995
12200.000000 86.268 163.9706
12410.000000 86.696 163.3528
12500.000000 86.847 162.5366
12650.000000 87.005 160.5120
12800.000000 87.001 157.9826
13150.000000 86.275 153.1754
13200.000000 86.105 152.8861
13400.000000 85.357 153.1566
13600.000000 84.627 155.5863
13800.000000 84.060 159.5167
14000.000000 83.740 164.0056
14300.000000 83.642 169.5020
14500.000000 83.621 171.0996
14750.000000 83.211 171.0761
15000.000000 82.117 173.4106
15250.000000 81.061 -179.4632
15500.000000 80.508 -171.3871
15750.000000 80.406 -164.1695
16000.000000 80.524 -159.3683
16250.000000 80.640 -157.6408
16500.000000 80.541 -158.7473
16750.000000 80.095 -161.4166
17000.000000 79.392 -165.2003
17250.000000 78.666 -176.3951
17500.000000 78.128 110.2700
17750.000000 77.844 168.0070
18000.000000 77.794 41.3900
18250.000000 77.013 -38.1111
18500.000000 75.463 74.5298
18750.000000 74.150 139.4856
19000.000000 73.207 69.9219
19250.000000 72.811 -120.2908
19500.000000 72.951 -175.4243
19750.000000 73.400 110.9695
20000.000000 73.862 -129.2976
