* Measurement data measured by REW V5.20.13
* Source: Microphone (Realtek(R) Audio), MICROPHONE (Master Volume), L, volume: 0.710. Timing signal peak level -37.4 dBFS, measurement signal peak level -37.2 dBFS
* Format: 2M Log Swept Sine, 1 sweep at -12.0 dBFS using an acoustic timing reference
* Dated: Sep 7, 2023 4:30:03 PM
* REW Settings:
*  C-weighting compensation: Off
*  Target level: 75.0 dB
* Note: ; Delay -0.0536 ms (-18 mm, -0.72 in) using estimated IR delay relative to Acoustic reference played from HEADPHONE R with no timing offset Clock adjustment: 120.7 ppm
* Measurement: KZ Krila DDDD R
* Smoothing: 1/48 octave
* Frequency Step: 1/96 octave
* Start Frequency: 20.000 Hz
*
* Freq(Hz) SPL(dB) Phase(degrees)
20.000000 90.370 16.5292
20.144928 90.385 16.3683
20.290907 90.402 16.1647
20.437943 90.418 15.9281
20.586044 90.429 15.6677
20.735220 90.437 15.3784
20.885475 90.440 15.0823
21.036821 90.436 14.7790
21.189262 90.426 14.4814
21.342808 90.412 14.2155
21.497467 90.392 13.9752
21.653246 90.372 13.7772
21.810154 90.349 13.6274
21.968201 90.328 13.5113
22.127390 90.312 13.4262
22.287735 90.299 13.3662
22.449242 90.292 13.3155
22.611917 90.290 13.2762
22.775772 90.291 13.2240
22.940815 90.296 13.1602
23.107054 90.303 13.0762
23.274498 90.311 12.9656
23.443153 90.318 12.8405
23.613033 90.324 12.7046
23.784142 90.329 12.5613
23.956491 90.332 12.4176
24.130091 90.335 12.2722
24.304947 90.338 12.1291
24.481071 90.340 11.9866
24.658470 90.343 11.8430
24.837156 90.345 11.6971
25.017136 90.347 11.5390
25.198421 90.348 11.3705
25.381020 90.347 11.1970
25.564941 90.343 11.0195
25.750195 90.337 10.8525
25.936790 90.328 10.6958
26.124741 90.318 10.5574
26.314051 90.308 10.4370
26.504732 90.299 10.3392
26.696796 90.293 10.2586
26.890253 90.291 10.1812
27.085112 90.292 10.1002
27.281382 90.295 9.9970
27.479073 90.301 9.8729
27.678198 90.305 9.7222
27.878765 90.308 9.5529
28.080786 90.308 9.3650
28.284271 90.303 9.1787
28.489231 90.295 8.9979
28.695675 90.286 8.8401
28.903616 90.275 8.7040
29.113064 90.266 8.5885
29.324028 90.259 8.4861
29.536524 90.255 8.3913
29.750557 90.253 8.2916
29.966141 90.253 8.1832
30.183289 90.252 8.0600
30.402010 90.250 7.9269
30.622314 90.247 7.7913
30.844217 90.243 7.6588
31.067726 90.238 7.5319
31.292856 90.235 7.4089
31.519617 90.233 7.2855
31.748020 90.232 7.1566
31.978081 90.232 7.0105
32.209808 90.232 6.8453
32.443211 90.229 6.6602
32.678310 90.221 6.4681
32.915108 90.209 6.2773
33.153625 90.191 6.1072
33.393871 90.171 5.9681
33.635857 90.149 5.8699
33.879597 90.131 5.8094
34.125103 90.118 5.7728
34.372387 90.111 5.7468
34.621464 90.110 5.7093
34.872345 90.112 5.6501
35.125042 90.116 5.5605
35.379574 90.119 5.4422
35.635948 90.120 5.3079
35.894180 90.117 5.1676
36.154285 90.112 5.0358
36.416275 90.106 4.9202
36.680161 90.100 4.8206
36.945961 90.097 4.7336
37.213688 90.097 4.6443
37.483353 90.098 4.5451
37.754974 90.101 4.4313
38.028561 90.103 4.3004
38.304131 90.103 4.1593
38.581699 90.099 4.0191
38.861279 90.094 3.8897
39.142883 90.086 3.7797
39.426529 90.078 3.6921
39.712231 90.072 3.6232
40.000000 90.067 3.5657
40.289856 90.065 3.5096
40.581814 90.065 3.4452
40.875885 90.065 3.3650
41.172089 90.064 3.2665
41.470440 90.060 3.1543
41.770950 90.051 3.0395
42.073643 90.037 2.9396
42.378525 90.020 2.8718
42.685616 90.005 2.8406
42.994934 89.995 2.8324
43.306492 89.991 2.8206
43.620308 89.993 2.7746
43.936401 89.995 2.6749
44.254780 89.993 2.5304
44.575470 89.984 2.3768
44.898483 89.972 2.2465
45.223835 89.963 2.1440
45.551544 89.962 2.0408
45.881630 89.967 1.8909
46.214108 89.973 1.6656
46.548996 89.971 1.3865
46.886307 89.957 1.1254
47.226067 89.942 0.9537
47.568283 89.940 0.8690
47.912983 89.964 0.7642
48.260181 90.007 0.4850
48.609894 90.044 -0.0557
48.962143 90.042 -0.7906
49.316940 89.984 -1.4982
49.674313 89.879 -1.9038
50.034271 89.765 -1.8398
50.396843 89.690 -1.3661
50.762039 89.683 -0.7523
51.129883 89.734 -0.3098
51.500389 89.806 -0.1957
51.873581 89.858 -0.3464
52.249481 89.876 -0.5675
52.628101 89.870 -0.6843
53.009464 89.860 -0.6451
53.393593 89.863 -0.5172
53.780506 89.881 -0.4079
54.170223 89.904 -0.3882
54.562763 89.921 -0.4645
54.958145 89.920 -0.5865
55.356396 89.900 -0.6663
55.757530 89.870 -0.6160
56.161572 89.847 -0.4187
56.568542 89.851 -0.1849
56.978462 89.875 -0.1006
57.391350 89.888 -0.2539
57.807232 89.857 -0.4856
58.226128 89.783 -0.4594
58.648056 89.719 0.0382
59.073048 89.734 0.8182
59.501114 89.847 1.3228
59.932281 89.995 1.0796
60.366577 90.081 0.1385
60.804020 90.054 -0.9675
61.244629 89.940 -1.6715
61.688435 89.817 -1.7747
62.135452 89.748 -1.5513
62.585712 89.735 -1.4142
63.039234 89.734 -1.5121
63.496040 89.720 -1.7137
63.956161 89.696 -1.8603
64.419617 89.681 -1.9572
64.886421 89.675 -2.0987
65.356621 89.666 -2.2965
65.830215 89.646 -2.4587
66.307251 89.628 -2.5205
66.787743 89.622 -2.5239
67.271713 89.629 -2.5520
67.759193 89.637 -2.6265
68.250206 89.642 -2.7094
68.744774 89.645 -2.7786
69.242928 89.650 -2.8574
69.744690 89.652 -2.9690
70.250084 89.647 -3.1002
70.759148 89.633 -3.2180
71.271896 89.613 -3.3026
71.788361 89.590 -3.3467
72.308571 89.567 -3.3479
72.832550 89.550 -3.3204
73.360321 89.541 -3.3060
73.891922 89.540 -3.3475
74.427376 89.536 -3.4520
74.966705 89.527 -3.5832
75.509949 89.514 -3.6992
76.057121 89.502 -3.7941
76.608261 89.492 -3.8867
77.163399 89.482 -3.9799
77.722557 89.471 -4.0547
78.285767 89.463 -4.1078
78.853058 89.457 -4.1655
79.424461 89.450 -4.2368
80.000000 89.437 -4.2860
80.579712 89.427 -4.2904
81.163628 89.424 -4.2917
81.751770 89.424 -4.3473
82.344177 89.418 -4.4423
82.940880 89.405 -4.5175
83.541901 89.395 -4.5759
84.147285 89.388 -4.6667
84.757050 89.376 -4.7864
85.371231 89.358 -4.8734
85.989868 89.343 -4.9069
86.612984 89.335 -4.9352
87.240616 89.328 -4.9790
87.872803 89.321 -5.0096
88.509560 89.320 -5.0255
89.150940 89.323 -5.0768
89.796967 89.322 -5.1790
90.447670 89.311 -5.2806
91.103088 89.296 -5.3357
91.763260 89.283 -5.3660
92.428215 89.272 -5.4052
93.097992 89.260 -5.4471
93.772614 89.250 -5.4836
94.452133 89.243 -5.5417
95.136566 89.236 -5.6334
95.825966 89.224 -5.7302
96.520363 89.212 -5.8093
97.219788 89.202 -5.8685
97.924286 89.196 -5.9246
98.633881 89.191 -6.0101
99.348625 89.174 -6.1052
100.068542 89.150 -6.1194
100.793686 89.133 -6.0529
101.524078 89.127 -6.0342
102.259766 89.115 -6.0996
103.000778 89.095 -6.1742
103.747162 89.074 -6.2553
104.498962 89.050 -6.3559
105.256203 89.025 -6.4100
106.018929 89.015 -6.4300
106.787186 89.018 -6.5228
107.561012 89.016 -6.6688
108.340446 89.005 -6.7384
109.125526 89.001 -6.7177
109.916290 89.004 -6.7054
110.712791 88.998 -6.7278
111.515060 88.977 -6.7153
112.323143 88.954 -6.6458
113.137085 88.937 -6.6064
113.956924 88.918 -6.6798
114.782700 88.889 -6.7886
115.614464 88.869 -6.8579
116.452255 88.872 -6.9977
117.296112 88.886 -7.2231
118.146095 88.917 -7.5723
119.002228 88.922 -8.1912
119.864563 88.844 -8.6104
120.733154 88.761 -8.3036
121.608040 88.761 -7.7756
122.489258 88.792 -7.5775
123.376869 88.793 -7.5892
124.270905 88.766 -7.6196
125.171425 88.723 -7.5919
126.078468 88.680 -7.5154
126.992081 88.645 -7.3656
127.912323 88.640 -7.1874
128.839233 88.658 -7.1783
129.772842 88.664 -7.2742
130.713242 88.661 -7.3490
131.660431 88.651 -7.4048
132.614502 88.635 -7.4044
133.575485 88.618 -7.4026
134.543427 88.594 -7.3810
135.518387 88.578 -7.3341
136.500412 88.570 -7.3484
137.489548 88.565 -7.4017
138.485855 88.558 -7.5138
139.489380 88.540 -7.5992
140.500168 88.524 -7.6097
141.518295 88.511 -7.6263
142.543793 88.497 -7.6237
143.576721 88.487 -7.6147
144.617142 88.480 -7.6489
145.665100 88.466 -7.7081
146.720642 88.449 -7.7034
147.783844 88.442 -7.6616
148.854752 88.437 -7.6476
149.933411 88.428 -7.6413
151.019897 88.412 -7.6396
152.114243 88.393 -7.6365
153.216522 88.373 -7.6632
154.326797 88.353 -7.7207
155.445114 88.337 -7.7805
156.571533 88.327 -7.8542
157.706116 88.317 -7.9143
158.848923 88.308 -7.9069
160.000000 88.303 -7.8956
161.159424 88.283 -7.8912
162.327255 88.252 -7.8053
163.503540 88.221 -7.7112
164.688354 88.193 -7.5988
165.881760 88.182 -7.5242
167.083801 88.180 -7.5267
168.294571 88.182 -7.5883
169.514099 88.178 -7.6768
170.742462 88.158 -7.6912
171.979736 88.133 -7.5877
173.225967 88.107 -7.4448
174.481232 88.080 -7.3150
175.745605 88.053 -7.2439
177.019119 88.023 -7.2550
178.301880 87.989 -7.2832
179.593933 87.968 -7.2601
180.895340 87.970 -7.3037
182.206177 87.968 -7.4091
183.526520 87.959 -7.4567
184.856430 87.946 -7.4061
186.195984 87.934 -7.2963
187.545227 87.918 -7.2157
188.904266 87.896 -7.1932
190.273132 87.864 -7.2294
191.651932 87.830 -7.2224
193.040726 87.812 -7.1720
194.439575 87.806 -7.1245
195.848572 87.803 -7.0696
197.267761 87.794 -7.0277
198.697250 87.778 -6.9884
200.137085 87.760 -6.9835
201.587372 87.743 -7.0300
203.048157 87.722 -7.0854
204.519531 87.699 -7.0369
206.001556 87.685 -6.8829
207.494324 87.676 -6.7650
208.997925 87.653 -6.7122
210.512405 87.623 -6.6658
212.037857 87.600 -6.6167
213.574371 87.587 -6.5835
215.122025 87.575 -6.5220
216.680893 87.561 -6.4077
218.251053 87.545 -6.2927
219.832581 87.529 -6.1986
221.425583 87.518 -6.1668
223.030121 87.506 -6.1801
224.646286 87.487 -6.1726
226.274170 87.462 -6.1047
227.913849 87.440 -6.0020
229.565399 87.426 -5.9242
231.228928 87.423 -5.8290
232.904510 87.428 -5.7455
234.592224 87.417 -5.6534
236.292191 87.378 -5.5181
238.004456 87.318 -5.3019
239.729126 87.280 -5.0491
241.466309 87.281 -5.0273
243.216080 87.283 -5.1746
244.978516 87.277 -5.2576
246.753738 87.265 -5.2312
248.541809 87.251 -5.1251
250.342850 87.240 -5.0078
252.156937 87.230 -4.9199
253.984161 87.214 -4.8186
255.824646 87.197 -4.6907
257.678467 87.176 -4.5851
259.545685 87.153 -4.4816
261.426483 87.134 -4.4042
263.320862 87.116 -4.3386
265.229004 87.102 -4.2776
267.150970 87.090 -4.2320
269.086853 87.079 -4.1785
271.036774 87.065 -4.0880
273.000824 87.047 -3.9230
274.979095 87.029 -3.7355
276.971710 87.012 -3.5980
278.978760 86.996 -3.5186
281.000336 86.983 -3.4703
283.036591 86.966 -3.3829
285.087585 86.942 -3.1813
287.153442 86.922 -2.9219
289.234283 86.907 -2.7592
291.330200 86.897 -2.7302
293.441284 86.897 -2.7920
295.567688 86.902 -2.8182
297.709503 86.906 -2.7238
299.866821 86.895 -2.5709
302.039795 86.862 -2.4032
304.228485 86.831 -2.2311
306.433044 86.820 -2.0961
308.653595 86.822 -1.9764
310.890228 86.820 -1.8187
313.143066 86.806 -1.6534
315.412231 86.787 -1.5293
317.697845 86.771 -1.4730
320.000000 86.754 -1.3900
322.318848 86.740 -1.2190
324.654510 86.723 -1.0389
327.007080 86.701 -0.8630
329.376709 86.689 -0.7185
331.763519 86.686 -0.6067
334.167603 86.685 -0.4589
336.589142 86.682 -0.2531
339.028198 86.675 -0.0420
341.484924 86.661 0.1243
343.959473 86.637 0.2670
346.451935 86.615 0.4324
348.962463 86.606 0.5881
351.491211 86.598 0.7390
354.038239 86.576 0.8993
356.603760 86.540 1.0099
359.187866 86.505 1.0925
361.790680 86.495 1.2200
364.412354 86.501 1.3746
367.053040 86.503 1.5704
369.712860 86.501 1.7589
372.391968 86.491 1.9236
375.090454 86.482 2.1327
377.808533 86.482 2.3287
380.546265 86.483 2.4525
383.303864 86.472 2.5352
386.081451 86.451 2.6606
388.879150 86.438 2.8561
391.697144 86.432 3.0795
394.535522 86.414 3.3311
397.394501 86.394 3.5842
400.274170 86.380 3.7422
403.174744 86.368 3.8257
406.096313 86.349 3.9201
409.039062 86.328 4.0712
412.003113 86.316 4.2808
414.988647 86.313 4.5682
417.995850 86.309 4.8782
421.024811 86.304 5.0764
424.075714 86.295 5.1614
427.148743 86.282 5.2874
430.244049 86.266 5.5225
433.361786 86.253 5.7973
436.502106 86.246 5.9968
439.665161 86.240 6.0959
442.851166 86.235 6.1829
446.060242 86.228 6.3545
449.292572 86.218 6.5800
452.548340 86.204 6.8232
455.827698 86.191 7.1035
459.130798 86.183 7.3942
462.457855 86.181 7.6176
465.809021 86.175 7.7928
469.184448 86.165 7.9481
472.584381 86.151 8.0338
476.008911 86.133 8.1319
479.458252 86.123 8.3336
482.932617 86.108 8.6512
486.432159 86.094 9.0109
489.957031 86.094 9.2899
493.507477 86.101 9.5150
497.083618 86.101 9.7512
500.685699 86.093 9.9827
504.313873 86.087 10.2314
507.968323 86.081 10.4853
511.649292 86.067 10.7263
515.356934 86.059 10.9780
519.091370 86.058 11.2467
522.852966 86.054 11.4734
526.641724 86.041 11.6559
530.458008 86.028 11.8893
534.301941 86.021 12.1401
538.173706 86.016 12.3605
542.073547 86.015 12.5989
546.001648 86.021 12.8524
549.958191 86.033 13.1227
553.943420 86.042 13.4032
557.957520 86.044 13.6646
562.000671 86.048 13.9375
566.073181 86.052 14.2136
570.175171 86.048 14.4818
574.306885 86.037 14.7294
578.468567 86.027 14.9421
582.660400 86.028 15.1570
586.882568 86.032 15.4509
591.135376 86.035 15.7979
595.419006 86.042 16.1818
599.733643 86.045 16.4686
604.079590 86.043 16.6118
608.456970 86.038 16.8635
612.866089 86.036 17.2081
617.307190 86.042 17.4657
621.780457 86.060 17.6292
626.286133 86.077 17.7856
630.824463 86.080 18.0146
635.395691 86.085 18.2648
640.000000 86.103 18.4991
644.637695 86.118 18.7620
649.309021 86.120 19.0042
654.014160 86.125 19.1591
658.753418 86.149 19.2792
663.527039 86.187 19.3100
668.335205 86.218 19.2561
673.178284 86.233 19.1421
678.056396 86.231 18.8226
682.969849 86.199 18.2607
687.918945 86.104 17.5998
692.903870 85.915 17.1111
697.924927 85.654 17.3093
702.982422 85.406 18.4839
708.076477 85.269 20.3030
713.207520 85.256 22.1022
718.375732 85.311 23.4802
723.581360 85.370 24.4509
728.824707 85.426 25.2040
734.106079 85.490 25.8996
739.425720 85.557 26.4561
744.783936 85.618 26.8726
750.180908 85.662 27.2850
755.617065 85.698 27.6935
761.092529 85.740 28.0258
766.607727 85.776 28.3369
772.162903 85.798 28.7094
777.758301 85.814 29.1189
783.394287 85.831 29.5695
789.071045 85.856 29.9981
794.789001 85.888 30.4336
800.548340 85.915 30.8996
806.349487 85.931 31.3164
812.192627 85.941 31.7111
818.078125 85.958 32.1609
824.006226 85.984 32.6110
829.977295 86.009 33.0143
835.991699 86.032 33.3991
842.049622 86.060 33.7733
848.151428 86.085 34.1706
854.297485 86.114 34.6305
860.488098 86.153 35.0740
866.723572 86.193 35.4644
873.004211 86.221 35.8676
879.330322 86.245 36.3173
885.702332 86.277 36.7901
892.120483 86.322 37.2281
898.585144 86.363 37.6301
905.096680 86.385 38.0226
911.655396 86.409 38.3977
918.261597 86.445 38.7906
924.915710 86.482 39.1938
931.618042 86.521 39.6176
938.368896 86.561 40.0629
945.168762 86.605 40.4754
952.017822 86.648 40.8802
958.916504 86.688 41.2850
965.865234 86.729 41.6627
972.864319 86.773 42.0408
979.914062 86.817 42.4217
987.014954 86.859 42.7878
994.167236 86.911 43.1251
1001.371399 86.967 43.4283
1008.627747 87.017 43.7570
1015.936646 87.061 44.1209
1023.298584 87.104 44.4511
1030.713867 87.150 44.7695
1038.182739 87.198 45.1297
1045.705933 87.248 45.5196
1053.283447 87.295 45.8312
1060.916016 87.330 46.0992
1068.603882 87.363 46.4174
1076.347412 87.405 46.7566
1084.147095 87.459 47.0660
1092.003296 87.518 47.3479
1099.916382 87.584 47.5874
1107.886841 87.652 47.8385
1115.915039 87.715 48.1070
1124.001343 87.774 48.3672
1132.146362 87.834 48.6553
1140.350342 87.890 48.9376
1148.613770 87.947 49.1338
1156.937134 88.008 49.3500
1165.320801 88.068 49.6089
1173.765137 88.127 49.8480
1182.270752 88.189 50.0454
1190.838013 88.249 50.2450
1199.467285 88.307 50.4383
1208.159180 88.362 50.6418
1216.913940 88.419 50.8611
1225.732178 88.480 51.0594
1234.614380 88.541 51.2513
1243.560913 88.602 51.4563
1252.572266 88.662 51.6738
1261.648926 88.724 51.8784
1270.791382 88.787 52.0463
1280.000000 88.848 52.2105
1289.275391 88.902 52.3717
1298.618042 88.957 52.5304
1308.028320 89.012 52.7372
1317.506836 89.068 52.9730
1327.054077 89.127 53.1282
1336.670410 89.180 53.2864
1346.356567 89.229 53.4794
1356.112793 89.265 53.6781
1365.939697 89.290 53.8882
1375.837891 89.322 54.0723
1385.807739 89.372 54.2282
1395.849854 89.429 54.3789
1405.964844 89.479 54.5395
1416.152954 89.529 54.7286
1426.415039 89.580 54.9336
1436.751465 89.631 55.1434
1447.162720 89.685 55.3365
1457.649414 89.738 55.5273
1468.212158 89.792 55.7331
1478.851440 89.845 55.9343
1489.567871 89.893 56.1202
1500.361816 89.942 56.3127
1511.234131 89.992 56.5017
1522.185059 90.038 56.7032
1533.215454 90.085 56.9196
1544.325806 90.129 57.1126
1555.516602 90.177 57.3209
1566.788574 90.231 57.5637
1578.142090 90.279 57.7988
1589.578003 90.320 58.0250
1601.096680 90.366 58.2374
1612.698975 90.414 58.4475
1624.385254 90.464 58.6608
1636.156250 90.520 58.8842
1648.012451 90.574 59.0877
1659.954590 90.622 59.2757
1671.983398 90.671 59.4501
1684.099243 90.723 59.6465
1696.302856 90.773 59.8762
1708.594971 90.826 60.1080
1720.976196 90.882 60.3406
1733.447144 90.934 60.5606
1746.008423 90.983 60.7996
1758.660645 91.034 61.0405
1771.404663 91.087 61.2436
1784.240967 91.139 61.4408
1797.170288 91.192 61.6735
1810.193359 91.248 61.9317
1823.310791 91.304 62.1758
1836.523193 91.356 62.3934
1849.831421 91.409 62.6163
1863.236084 91.470 62.8658
1876.737793 91.538 63.1320
1890.337524 91.607 63.3884
1904.035645 91.672 63.6208
1917.833008 91.738 63.8169
1931.730469 91.810 64.0278
1945.728638 91.881 64.2413
1959.828125 91.951 64.3943
1974.029907 92.023 64.4865
1988.334473 92.093 64.5995
2002.742798 92.160 64.7463
2017.255493 92.226 64.8666
2031.873291 92.290 64.9713
2046.597168 92.354 65.0807
2061.427734 92.418 65.1751
2076.365479 92.485 65.2490
2091.411865 92.552 65.3309
2106.566895 92.616 65.4300
2121.832031 92.679 65.5322
2137.207764 92.744 65.6274
2152.694824 92.811 65.7310
2168.294189 92.879 65.8473
2184.006592 92.945 65.9465
2199.832764 93.012 66.0058
2215.773682 93.081 66.0702
2231.830078 93.153 66.1456
2248.002686 93.225 66.1810
2264.292725 93.293 66.1883
2280.700684 93.358 66.1942
2297.227539 93.420 66.1868
2313.874268 93.481 66.1759
2330.641602 93.543 66.1505
2347.530273 93.605 66.1120
2364.541504 93.669 66.0691
2381.676025 93.733 66.0240
2398.934570 93.791 65.9839
2416.318359 93.848 65.9377
2433.827881 93.902 65.8740
2451.464355 93.955 65.7864
2469.228760 94.007 65.7142
2487.121826 94.058 65.6520
2505.144531 94.109 65.5688
2523.297852 94.160 65.4788
2541.582764 94.209 65.4051
2560.000000 94.255 65.3221
2578.550781 94.297 65.2395
2597.236084 94.338 65.1663
2616.056641 94.378 65.0760
2635.013672 94.419 64.9663
2654.108154 94.459 64.8497
2673.340820 94.498 64.7501
2692.713135 94.535 64.6631
2712.225586 94.569 64.5580
2731.879395 94.598 64.4430
2751.675781 94.625 64.3393
2771.615479 94.646 64.2497
2791.699707 94.665 64.2064
2811.929688 94.686 64.1852
2832.305908 94.707 64.1636
2852.830078 94.725 64.1531
2873.502930 94.744 64.1838
2894.325439 94.763 64.2545
2915.298828 94.786 64.3679
2936.424316 94.814 64.5068
2957.702881 94.850 64.6422
2979.135742 94.897 64.7723
3000.723633 94.953 64.9008
3022.468262 95.017 64.9955
3044.370117 95.087 65.0197
3066.430908 95.158 64.9623
3088.651611 95.226 64.8374
3111.033203 95.289 64.6533
3133.577148 95.344 64.4079
3156.284180 95.388 64.1436
3179.156006 95.424 63.9034
3202.193359 95.458 63.6750
3225.397949 95.491 63.4633
3248.770508 95.526 63.2896
3272.312500 95.558 63.1223
3296.024902 95.591 62.9383
3319.909180 95.630 62.7373
3343.966797 95.669 62.5139
3368.198486 95.706 62.2642
3392.605713 95.741 61.9875
3417.189941 95.773 61.6884
3441.952393 95.805 61.3718
3466.894287 95.835 61.0453
3492.016846 95.863 60.7075
3517.321289 95.889 60.3521
3542.809326 95.913 59.9734
3568.481934 95.934 59.5885
3594.340576 95.952 59.1833
3620.386719 95.966 58.7342
3646.621582 95.974 58.2693
3673.046387 95.979 57.8098
3699.662842 95.980 57.3386
3726.472168 95.976 56.8585
3753.475586 95.966 56.3814
3780.675049 95.950 55.9015
3808.071289 95.928 55.4303
3835.666016 95.900 54.9575
3863.460938 95.868 54.4834
3891.457275 95.828 54.0126
3919.656250 95.784 53.5392
3948.059814 95.732 53.0731
3976.668945 95.674 52.6265
4005.485596 95.612 52.1849
4034.510986 95.546 51.7530
4063.746582 95.476 51.3526
4093.194336 95.401 50.9635
4122.855469 95.321 50.5896
4152.730957 95.236 50.2396
4182.823730 95.147 49.9071
4213.133789 95.056 49.5922
4243.664062 94.962 49.2884
4274.415527 94.862 48.9928
4305.389648 94.756 48.7163
4336.588379 94.638 48.4683
4368.013184 94.512 48.2436
