* Measurement data measured by REW V5.20.13
* Source: Microphone (Realtek(R) Audio), MICROPHONE (Master Volume), L, volume: 0.710. Timing signal peak level -37.4 dBFS, measurement signal peak level -37.2 dBFS
* Format: 2M Log Swept Sine, 1 sweep at -12.0 dBFS using an acoustic timing reference
* Dated: Sep 7, 2023 4:30:03 PM
* REW Settings:
*  C-weighting compensation: Off
*  Target level: 75.0 dB
* Note: ; Delay -0.0536 ms (-18 mm, -0.72 in) using estimated IR delay relative to Acoustic reference played from HEADPHONE R with no timing offset Clock adjustment: 120.7 ppm
* Measurement: KZ Krila DDDD R
* Smoothing: 1/24 octave
* Frequency Step: 1/48 octave
* Start Frequency: 20.000 Hz
*
* Freq(Hz) SPL(dB) Phase(degrees)
20.000000 90.374 16.4787
20.299999 90.400 16.0998
20.600000 90.422 15.6154
20.900000 90.429 15.0618
21.200001 90.417 14.5124
21.400000 90.400 14.1927
21.799999 90.354 13.7063
22.000000 90.332 13.5444
22.400000 90.302 13.3432
22.700001 90.296 13.2339
23.000000 90.301 13.1016
23.299999 90.311 12.9247
23.600000 90.321 12.7086
24.000000 90.332 12.3865
24.299999 90.337 12.1390
24.700001 90.343 11.8053
25.000000 90.345 11.5450
25.400000 90.342 11.1841
25.799999 90.331 10.8357
26.200001 90.315 10.5425
26.500000 90.303 10.3674
26.900000 90.296 10.1697
27.200001 90.296 10.0132
27.600000 90.301 9.7545
28.000000 90.303 9.4358
28.500000 90.292 9.0213
29.000000 90.273 8.6772
29.500000 90.259 8.4087
30.000000 90.253 8.1513
30.400000 90.249 7.9268
30.700001 90.245 7.7518
31.100000 90.239 7.5210
31.500000 90.235 7.2899
32.000000 90.231 6.9736
32.500000 90.221 6.6113
33.000000 90.198 6.2517
33.500000 90.163 5.9758
34.000000 90.132 5.8150
34.500000 90.116 5.7091
35.000000 90.115 5.5721
35.500000 90.116 5.3670
36.000000 90.113 5.1289
36.500000 90.106 4.9078
37.000000 90.100 4.7150
37.500000 90.100 4.5222
38.200001 90.100 4.2120
38.700001 90.094 3.9836
39.500000 90.078 3.6964
40.000000 90.070 3.5690
40.599998 90.065 3.4234
41.200001 90.060 3.2448
41.799999 90.045 3.0526
42.500000 90.017 2.8912
43.099998 90.000 2.8133
43.700001 89.993 2.6995
44.400002 89.985 2.4628
45.000000 89.974 2.2261
45.500000 89.968 2.0156
46.200001 89.966 1.6332
46.799999 89.960 1.2537
47.500000 89.961 0.8608
48.200001 89.992 0.3033
48.700001 90.000 -0.3395
49.400002 89.927 -1.2369
50.000000 89.814 -1.4277
50.799999 89.744 -0.8605
51.500000 89.794 -0.4662
52.200001 89.849 -0.4912
53.000000 89.868 -0.5579
53.799999 89.886 -0.4850
54.500000 89.903 -0.4958
55.200001 89.896 -0.5466
56.000000 89.871 -0.4439
57.000000 89.861 -0.2686
58.000000 89.817 -0.1788
59.000000 89.809 0.4711
60.000000 89.949 0.3955
60.799999 89.973 -0.6418
61.500000 89.884 -1.3448
62.200001 89.789 -1.5397
63.000000 89.734 -1.6086
64.000000 89.699 -1.8549
65.000000 89.671 -2.1562
66.000000 89.645 -2.4152
67.000000 89.632 -2.5504
68.000000 89.638 -2.6738
69.000000 89.645 -2.8356
70.000000 89.642 -3.0345
71.000000 89.619 -3.2206
72.000000 89.583 -3.3145
73.000000 89.554 -3.3402
74.000000 89.538 -3.4169
75.000000 89.523 -3.5863
76.199997 89.500 -3.8097
77.500000 89.477 -4.0092
78.800003 89.457 -4.1586
80.000000 89.439 -4.2583
81.199997 89.426 -4.3298
82.500000 89.412 -4.4601
83.800003 89.391 -4.6289
85.000000 89.368 -4.7930
86.199997 89.344 -4.9075
87.500000 89.328 -4.9879
88.500000 89.322 -5.0521
90.000000 89.312 -5.2026
91.199997 89.294 -5.3210
92.500000 89.271 -5.4115
93.800003 89.252 -5.5049
95.000000 89.236 -5.6241
96.199997 89.218 -5.7606
97.500000 89.201 -5.8934
98.800003 89.181 -6.0118
100.000000 89.155 -6.0701
101.500000 89.125 -6.0894
103.000000 89.092 -6.1869
104.400002 89.055 -6.3222
106.000000 89.025 -6.4648
107.500000 89.013 -6.6146
109.000000 89.004 -6.7000
110.599998 88.989 -6.7066
112.000000 88.963 -6.6815
113.800003 88.920 -6.7140
115.000000 88.894 -6.8336
117.199997 88.888 -7.3168
118.000000 88.890 -7.6080
120.599998 88.812 -8.1121
122.000000 88.783 -7.8306
124.099998 88.755 -7.6024
125.000000 88.728 -7.5541
126.500000 88.679 -7.4247
128.000000 88.657 -7.2900
131.500000 88.647 -7.3621
132.000000 88.641 -7.3759
134.000000 88.608 -7.3830
136.000000 88.579 -7.3796
138.000000 88.558 -7.4677
140.000000 88.532 -7.5763
143.000000 88.494 -7.6295
145.000000 88.473 -7.6631
147.500000 88.446 -7.6711
150.000000 88.422 -7.6488
152.500000 88.385 -7.6686
155.000000 88.347 -7.7625
157.500000 88.320 -7.8663
160.000000 88.293 -7.8755
162.500000 88.247 -7.7731
165.000000 88.201 -7.6201
167.500000 88.181 -7.5826
170.000000 88.161 -7.6179
172.500000 88.120 -7.5079
175.000000 88.068 -7.3364
177.500000 88.015 -7.2789
180.000000 87.979 -7.3063
182.500000 87.962 -7.3746
185.000000 87.943 -7.3549
187.500000 87.913 -7.2598
190.000000 87.870 -7.2149
192.500000 87.829 -7.1761
195.000000 87.805 -7.1042
197.500000 87.787 -7.0370
200.000000 87.761 -7.0137
203.000000 87.723 -7.0137
206.000000 87.687 -6.8891
209.000000 87.649 -6.7298
212.000000 87.607 -6.6190
214.000000 87.586 -6.5426
218.000000 87.548 -6.3298
220.000000 87.529 -6.2387
224.000000 87.491 -6.1481
227.000000 87.457 -6.0447
230.000000 87.432 -5.8940
233.000000 87.414 -5.7224
236.000000 87.373 -5.4987
240.000000 87.302 -5.1835
243.000000 87.281 -5.1563
247.000000 87.262 -5.1553
250.000000 87.242 -5.0288
254.000000 87.211 -4.8067
258.000000 87.172 -4.5788
262.000000 87.131 -4.3961
265.000000 87.106 -4.2908
269.000000 87.078 -4.1450
272.000000 87.055 -3.9761
276.000000 87.021 -3.6995
280.000000 86.989 -3.4851
285.000000 86.945 -3.1608
290.000000 86.910 -2.8335
295.000000 86.899 -2.7501
300.000000 86.880 -2.5357
304.000000 86.845 -2.2654
307.000000 86.827 -2.0682
311.000000 86.812 -1.8138
315.000000 86.789 -1.5847
320.000000 86.755 -1.3390
325.000000 86.720 -1.0181
330.000000 86.694 -0.6938
335.000000 86.682 -0.3644
340.000000 86.664 0.0038
345.000000 86.631 0.3361
350.000000 86.599 0.6444
355.000000 86.559 0.9187
360.000000 86.516 1.1565
365.000000 86.502 1.4401
370.000000 86.496 1.7734
375.000000 86.486 2.1101
382.000000 86.471 2.4987
387.000000 86.449 2.7677
395.000000 86.410 3.3512
400.000000 86.382 3.6735
406.000000 86.350 3.9599
412.000000 86.322 4.3355
418.000000 86.308 4.8070
425.000000 86.288 5.2277
431.000000 86.265 5.5956
437.000000 86.247 5.9585
444.000000 86.231 6.2911
450.000000 86.213 6.6620
455.000000 86.197 7.0373
462.000000 86.180 7.5413
468.000000 86.165 7.8599
475.000000 86.140 8.1617
482.000000 86.114 8.6107
487.000000 86.102 9.0186
494.000000 86.098 9.5400
500.000000 86.093 9.9450
508.000000 86.078 10.4844
515.000000 86.063 10.9544
522.000000 86.051 11.4008
530.000000 86.032 11.8735
538.000000 86.021 12.3594
545.000000 86.024 12.8010
552.000000 86.035 13.2670
560.000000 86.045 13.8038
570.000000 86.043 14.4522
580.000000 86.032 15.0453
590.000000 86.036 15.7228
600.000000 86.041 16.4135
608.000000 86.041 16.8763
615.000000 86.046 17.2836
622.000000 86.060 17.6279
630.000000 86.079 17.9963
640.000000 86.102 18.5031
650.000000 86.126 18.9636
660.000000 86.164 19.2027
670.000000 86.206 19.0909
680.000000 86.174 18.4913
690.000000 85.970 17.7814
700.000000 85.603 18.4473
710.000000 85.352 20.9255
720.000000 85.348 23.4863
730.000000 85.446 25.2233
740.000000 85.558 26.3920
750.000000 85.653 27.2399
762.000000 85.740 28.0713
775.000000 85.804 28.9478
788.000000 85.855 29.9217
800.000000 85.906 30.8357
812.000000 85.944 31.7171
825.000000 85.990 32.6532
838.000000 86.043 33.5262
850.000000 86.098 34.3291
862.000000 86.162 35.1530
875.000000 86.229 36.0308
885.000000 86.280 36.7215
900.000000 86.361 37.7011
912.000000 86.417 38.4267
925.000000 86.485 39.2152
938.000000 86.561 40.0252
950.000000 86.635 40.7524
962.000000 86.708 41.4418
975.000000 86.788 42.1486
988.000000 86.872 42.8116
1000.000000 86.955 43.3754
1015.000000 87.054 44.0670
1030.000000 87.147 44.7564
1044.000000 87.235 45.4020
1060.000000 87.325 46.0785
1075.000000 87.407 46.6844
1090.000000 87.510 47.2505
1106.000000 87.636 47.7852
1120.000000 87.744 48.2440
1138.000000 87.875 48.8250
1150.000000 87.960 49.1728
1172.000000 88.116 49.7773
1180.000000 88.173 49.9812
1206.000000 88.350 50.5969
1220.000000 88.443 50.9241
1241.000000 88.585 51.4021
1250.000000 88.646 51.6049
1265.000000 88.747 51.9231
1280.000000 88.845 52.2081
1315.000000 89.054 52.8895
1320.000000 89.083 52.9887
1340.000000 89.191 53.3664
1360.000000 89.273 53.7565
1380.000000 89.352 54.1243
1400.000000 89.449 54.4574
1430.000000 89.599 55.0070
1450.000000 89.700 55.3885
1475.000000 89.824 55.8563
1500.000000 89.941 56.3077
1525.000000 90.050 56.7626
1550.000000 90.156 57.2322
1575.000000 90.263 57.7290
1600.000000 90.364 58.2130
1625.000000 90.470 58.6725
1650.000000 90.580 59.1078
1675.000000 90.685 59.5149
1700.000000 90.791 59.9521
1725.000000 90.898 60.4118
1750.000000 91.000 60.8683
1775.000000 91.103 61.3026
1800.000000 91.206 61.7407
1825.000000 91.311 62.1932
1850.000000 91.417 62.6357
1875.000000 91.533 63.0927
1900.000000 91.654 63.5313
1925.000000 91.778 63.9178
1950.000000 91.903 64.2480
1975.000000 92.027 64.4954
2000.000000 92.147 64.7118
2030.000000 92.282 64.9517
2060.000000 92.414 65.1545
2090.000000 92.545 65.3324
2120.000000 92.673 65.5202
2140.000000 92.758 65.6503
2180.000000 92.930 65.9009
2200.000000 93.016 65.9996
2240.000000 93.189 66.1402
2270.000000 93.314 66.1796
2300.000000 93.430 66.1758
2330.000000 93.542 66.1398
2360.000000 93.652 66.0771
2400.000000 93.793 65.9734
2430.000000 93.889 65.8747
2470.000000 94.009 65.7134
2500.000000 94.094 65.5869
2540.000000 94.202 65.4098
2580.000000 94.299 65.2333
2620.000000 94.387 65.0417
2650.000000 94.450 64.8799
2690.000000 94.527 64.6696
2720.000000 94.577 64.5134
2760.000000 94.631 64.3254
2800.000000 94.674 64.2153
2850.000000 94.723 64.1879
2900.000000 94.773 64.3183
2950.000000 94.846 64.5916
3000.000000 94.961 64.8573
3040.000000 95.076 64.9413
3070.000000 95.167 64.8721
3110.000000 95.279 64.6079
3150.000000 95.369 64.2173
3200.000000 95.454 63.7160
3250.000000 95.527 63.2876
3300.000000 95.601 62.8864
3350.000000 95.677 62.4259
3400.000000 95.749 61.8763
3450.000000 95.813 61.2527
3500.000000 95.869 60.5774
3550.000000 95.916 59.8484
3600.000000 95.951 59.0576
3650.000000 95.971 58.2043
3700.000000 95.974 57.3258
3750.000000 95.961 56.4426
3820.000000 95.910 55.2260
3870.000000 95.852 54.3750
3950.000000 95.722 53.0568
4000.000000 95.620 52.2824
4060.000000 95.481 51.4221
4120.000000 95.326 50.6472
4180.000000 95.154 49.9563
4250.000000 94.938 49.2421
4310.000000 94.732 48.7060
4370.000000 94.501 48.2621
4440.000000 94.206 47.8841
4500.000000 93.944 47.7109
4550.000000 93.721 47.6853
4620.000000 93.404 47.8210
4680.000000 93.133 48.0814
4750.000000 92.824 48.5042
4820.000000 92.521 49.0005
4870.000000 92.304 49.3886
4940.000000 91.993 49.9890
5000.000000 91.718 50.5990
5080.000000 91.340 51.6259
5150.000000 91.010 52.7455
5220.000000 90.689 54.0504
5300.000000 90.338 55.7523
5380.000000 90.010 57.6562
5450.000000 89.743 59.4865
5520.000000 89.493 61.4345
5600.000000 89.232 63.7585
5700.000000 88.944 66.8082
5800.000000 88.692 70.0164
5900.000000 88.485 73.3266
6000.000000 88.321 76.7231
6080.000000 88.215 79.4862
6150.000000 88.143 81.9373
6220.000000 88.093 84.4448
6300.000000 88.067 87.3598
6400.000000 88.075 91.0351
6500.000000 88.127 94.7506
6600.000000 88.231 98.4839
6700.000000 88.395 102.1834
6800.000000 88.628 105.8407
6900.000000 88.949 109.3975
7000.000000 89.359 112.7909
7100.000000 89.855 115.9932
7200.000000 90.444 118.8960
7300.000000 91.133 121.3527
7400.000000 91.926 123.1708
7500.000000 92.821 124.0792
7620.000000 94.013 123.4339
7750.000000 95.314 119.7415
7880.000000 96.301 112.2664
8000.000000 96.689 102.5718
8120.000000 96.441 92.2340
8250.000000 95.523 83.0843
8380.000000 94.197 77.5801
8500.000000 92.858 75.5596
8620.000000 91.556 75.7436
8750.000000 90.255 77.6644
8850.000000 89.335 80.0179
9000.000000 88.078 84.8876
9120.000000 87.241 89.7800
9250.000000 86.543 95.2393
9380.000000 85.981 100.5249
9500.000000 85.542 105.4015
9620.000000 85.176 110.3078
9750.000000 84.866 115.5572
9880.000000 84.647 120.6686
10000.000000 84.518 125.2065
10150.000000 84.439 130.5482
10300.000000 84.444 135.4551
10440.000000 84.500 139.5483
10600.000000 84.607 143.6250
10750.000000 84.726 146.8329
10900.000000 84.839 149.5126
11060.000000 84.935 151.9867
11200.000000 84.997 154.0431
11380.000000 85.096 156.7645
11500.000000 85.200 158.5315
11720.000000 85.462 161.3020
11800.000000 85.576 162.1490
12060.000000 86.024 164.1941
12200.000000 86.309 164.6370
12410.000000 86.733 164.0485
12500.000000 86.883 163.2627
12650.000000 87.039 161.2949
12800.000000 87.034 158.8113
13150.000000 86.312 154.0439
13200.000000 86.142 153.7638
13400.000000 85.384 154.0492
13600.000000 84.638 156.4428
13800.000000 84.063 160.3459
14000.000000 83.726 164.8283
14300.000000 83.609 170.4570
14500.000000 83.583 172.1830
14750.000000 83.163 172.2673
15000.000000 82.051 174.7451
15250.000000 80.988 -177.9053
15500.000000 80.436 -169.6977
15750.000000 80.324 -162.1978
16000.000000 80.458 -156.9572
16250.000000 80.629 -154.7284
16500.000000 80.587 -155.4740
16750.000000 80.211 -157.9956
17000.000000 79.560 -161.2965
17250.000000 78.843 -165.7198
17500.000000 78.302 179.1139
17750.000000 78.156 96.9609
18000.000000 78.102 162.2872
18250.000000 77.210 -72.1864
18500.000000 75.724 -123.3115
18750.000000 74.336 170.0537
19000.000000 73.375 -127.0674
19250.000000 72.989 -83.7302
19500.000000 73.152 -159.1724
19750.000000 73.712 176.1001
20000.000000 74.210 100.6516
