* Measurement data measured by REW V5.20.13
* Source: Microphone (Realtek(R) Audio), MICROPHONE (Master Volume), L, volume: 0.710. Timing signal peak level -37.7 dBFS, measurement signal peak level -37.3 dBFS
* Format: 2M Log Swept Sine, 1 sweep at -12.0 dBFS using an acoustic timing reference
* Dated: Sep 7, 2023 3:56:40 PM
* REW Settings:
*  C-weighting compensation: Off
*  Target level: 75.0 dB
* Note: ; Delay -0.0556 ms (-19 mm, -0.75 in) using estimated IR delay relative to Acoustic reference played from HEADPHONE L with no timing offset Clock adjustment: 120.7 ppm
* Measurement: KZ Krila DUDU L
* Smoothing: 1/24 octave
* Frequency Step: 1/48 octave
* Start Frequency: 20.000 Hz
*
* Freq(Hz) SPL(dB) Phase(degrees)
20.000000 92.254 6.4118
20.299999 92.234 6.0447
20.600000 92.219 5.6933
20.900000 92.208 5.3341
21.200001 92.197 4.9490
21.400000 92.187 4.6799
21.799999 92.159 4.1386
22.000000 92.141 3.8830
22.400000 92.100 3.4357
22.700001 92.071 3.1636
23.000000 92.048 2.9288
23.299999 92.033 2.6962
23.600000 92.024 2.4363
24.000000 92.017 2.0187
24.299999 92.008 1.6547
24.700001 91.988 1.1325
25.000000 91.965 0.7433
25.400000 91.926 0.2595
25.799999 91.883 -0.1651
26.200001 91.841 -0.5286
26.500000 91.813 -0.7679
26.900000 91.783 -1.0593
27.200001 91.766 -1.2761
27.600000 91.750 -1.5913
28.000000 91.737 -1.9582
28.500000 91.713 -2.4759
29.000000 91.677 -2.9804
29.500000 91.633 -3.3932
30.000000 91.595 -3.7134
30.400000 91.572 -3.9545
30.700001 91.558 -4.1539
31.100000 91.539 -4.4549
31.500000 91.514 -4.7778
32.000000 91.473 -5.1576
32.500000 91.428 -5.4688
33.000000 91.384 -5.7195
33.500000 91.345 -5.9439
34.000000 91.309 -6.1652
34.500000 91.275 -6.3873
35.000000 91.242 -6.6075
35.500000 91.208 -6.8188
36.000000 91.174 -7.0117
36.500000 91.145 -7.1906
37.000000 91.123 -7.3895
37.500000 91.105 -7.6485
38.200001 91.074 -8.1111
38.700001 91.043 -8.4626
39.500000 90.989 -9.0300
40.000000 90.949 -9.4195
40.599998 90.881 -9.8637
41.200001 90.795 -10.1056
41.799999 90.725 -10.0849
42.500000 90.694 -9.9728
43.099998 90.692 -10.0415
43.700001 90.680 -10.2326
44.400002 90.649 -10.4266
45.000000 90.621 -10.5424
45.500000 90.600 -10.6605
46.200001 90.561 -10.8686
46.799999 90.520 -11.0340
47.500000 90.472 -11.2012
48.200001 90.427 -11.3785
48.700001 90.395 -11.5031
49.400002 90.357 -11.6618
50.000000 90.336 -11.8257
50.799999 90.308 -12.1362
51.500000 90.270 -12.3995
52.200001 90.227 -12.5242
53.000000 90.195 -12.5497
53.799999 90.170 -12.6526
54.500000 90.129 -12.7830
55.200001 90.074 -12.8411
56.000000 90.012 -12.8908
57.000000 89.929 -13.0558
58.000000 89.845 -13.4875
59.000000 89.679 -14.1168
60.000000 89.487 -13.7136
60.799999 89.496 -13.0831
61.500000 89.573 -13.1355
62.200001 89.613 -13.5885
63.000000 89.610 -14.0041
64.000000 89.597 -14.2436
65.000000 89.580 -14.3509
66.000000 89.551 -14.4072
67.000000 89.497 -14.3878
68.000000 89.443 -14.2692
69.000000 89.401 -14.2385
70.000000 89.357 -14.3182
71.000000 89.314 -14.4125
72.000000 89.278 -14.5106
73.000000 89.241 -14.6326
74.000000 89.195 -14.6776
75.000000 89.153 -14.6146
76.199997 89.113 -14.5538
77.500000 89.064 -14.5456
78.800003 89.014 -14.5772
80.000000 88.968 -14.6333
81.199997 88.926 -14.6384
82.500000 88.893 -14.5902
83.800003 88.869 -14.5748
85.000000 88.833 -14.5884
86.199997 88.784 -14.5318
87.500000 88.733 -14.4133
88.500000 88.699 -14.3593
90.000000 88.643 -14.3938
91.199997 88.590 -14.3807
92.500000 88.545 -14.3255
93.800003 88.509 -14.3037
95.000000 88.474 -14.3145
96.199997 88.432 -14.3232
97.500000 88.384 -14.2547
98.800003 88.349 -14.1361
100.000000 88.326 -14.0753
101.500000 88.297 -14.0238
103.000000 88.268 -14.0015
104.400002 88.230 -14.0198
106.000000 88.175 -13.9682
107.500000 88.133 -13.8742
109.000000 88.102 -13.7875
110.599998 88.072 -13.6774
112.000000 88.042 -13.5101
113.800003 88.004 -13.2670
115.000000 87.972 -13.1971
117.199997 87.901 -13.3215
118.000000 87.871 -13.4855
120.599998 87.734 -13.6822
122.000000 87.721 -13.3336
124.099998 87.751 -13.0600
125.000000 87.744 -12.9882
126.500000 87.713 -12.8014
128.000000 87.680 -12.6226
131.500000 87.614 -12.6077
132.000000 87.604 -12.6034
134.000000 87.568 -12.4771
136.000000 87.536 -12.2373
138.000000 87.500 -12.0009
140.000000 87.466 -11.8022
143.000000 87.442 -11.6946
145.000000 87.421 -11.6554
147.500000 87.389 -11.4891
150.000000 87.350 -11.3048
152.500000 87.302 -11.1587
155.000000 87.273 -11.0072
157.500000 87.252 -10.8571
160.000000 87.218 -10.6421
162.500000 87.173 -10.3765
165.000000 87.143 -10.2050
167.500000 87.126 -10.1471
170.000000 87.100 -10.0060
172.500000 87.069 -9.7561
175.000000 87.036 -9.5960
177.500000 87.011 -9.5002
180.000000 86.995 -9.3677
182.500000 86.960 -9.0829
185.000000 86.912 -8.7214
187.500000 86.870 -8.5268
190.000000 86.835 -8.4630
192.500000 86.797 -8.3385
195.000000 86.758 -8.0724
197.500000 86.739 -7.8029
200.000000 86.735 -7.6409
203.000000 86.719 -7.4703
206.000000 86.689 -7.2548
209.000000 86.648 -7.0359
212.000000 86.609 -6.8345
214.000000 86.592 -6.7230
218.000000 86.584 -6.5042
220.000000 86.579 -6.3580
224.000000 86.545 -6.0025
227.000000 86.514 -5.7501
230.000000 86.498 -5.5161
233.000000 86.485 -5.3371
236.000000 86.453 -5.2502
240.000000 86.407 -5.1574
243.000000 86.387 -4.9124
247.000000 86.369 -4.4821
250.000000 86.349 -4.2346
254.000000 86.317 -3.9421
258.000000 86.287 -3.6566
262.000000 86.267 -3.3905
265.000000 86.258 -3.1516
269.000000 86.249 -2.7823
272.000000 86.240 -2.5228
276.000000 86.219 -2.2557
280.000000 86.193 -2.0599
285.000000 86.152 -1.7499
290.000000 86.106 -1.2885
295.000000 86.105 -0.8177
300.000000 86.118 -0.3984
304.000000 86.101 -0.1355
307.000000 86.084 0.0394
311.000000 86.071 0.2907
315.000000 86.061 0.5895
320.000000 86.048 0.9251
325.000000 86.022 1.1892
330.000000 85.989 1.4580
335.000000 85.975 1.8191
340.000000 85.964 2.2137
345.000000 85.945 2.5914
350.000000 85.928 2.9927
355.000000 85.902 3.4026
360.000000 85.873 3.7544
365.000000 85.871 4.0296
370.000000 85.881 4.3241
375.000000 85.885 4.6383
382.000000 85.866 5.0658
387.000000 85.853 5.4114
395.000000 85.842 5.9566
400.000000 85.822 6.2828
406.000000 85.795 6.6567
412.000000 85.773 7.0594
418.000000 85.757 7.4221
425.000000 85.738 7.9691
431.000000 85.724 8.5048
437.000000 85.721 8.9674
444.000000 85.722 9.3547
450.000000 85.718 9.6082
455.000000 85.711 9.9207
462.000000 85.702 10.4555
468.000000 85.692 10.9241
475.000000 85.678 11.3812
482.000000 85.668 11.8490
487.000000 85.666 12.1889
494.000000 85.658 12.6994
500.000000 85.654 13.1203
508.000000 85.655 13.6125
515.000000 85.655 14.0647
522.000000 85.653 14.5470
530.000000 85.660 15.0893
538.000000 85.675 15.6502
545.000000 85.678 16.0856
552.000000 85.677 16.4674
560.000000 85.687 16.9535
570.000000 85.701 17.6017
580.000000 85.714 18.2344
590.000000 85.732 18.8789
600.000000 85.747 19.5085
608.000000 85.765 19.9467
615.000000 85.790 20.3049
622.000000 85.825 20.6383
630.000000 85.862 20.9149
640.000000 85.900 20.9732
650.000000 85.920 20.5653
660.000000 85.822 19.9087
670.000000 85.573 20.0674
680.000000 85.341 21.5998
690.000000 85.269 23.6308
700.000000 85.307 25.2732
710.000000 85.380 26.4143
720.000000 85.443 27.3061
730.000000 85.477 28.0742
740.000000 85.498 28.8144
750.000000 85.504 29.6197
762.000000 85.506 30.7439
775.000000 85.542 32.1240
788.000000 85.610 33.4369
800.000000 85.680 34.4969
812.000000 85.763 35.4109
825.000000 85.848 36.2684
838.000000 85.918 37.1492
850.000000 85.983 37.9716
862.000000 86.053 38.7502
875.000000 86.127 39.5755
885.000000 86.183 40.2550
900.000000 86.273 41.2417
912.000000 86.350 41.9278
925.000000 86.433 42.6808
938.000000 86.514 43.4631
950.000000 86.590 44.1602
962.000000 86.668 44.8144
975.000000 86.756 45.5117
988.000000 86.848 46.2066
1000.000000 86.933 46.8293
1015.000000 87.035 47.6123
1030.000000 87.140 48.3431
1044.000000 87.241 48.9122
1060.000000 87.355 49.5280
1075.000000 87.471 50.0559
1090.000000 87.584 50.5899
1106.000000 87.705 51.1243
1120.000000 87.815 51.5458
1138.000000 87.952 52.0042
1150.000000 88.044 52.3140
1172.000000 88.215 52.9104
1180.000000 88.274 53.1078
1206.000000 88.460 53.6844
1220.000000 88.561 53.9626
1241.000000 88.714 54.3465
1250.000000 88.776 54.5073
1265.000000 88.876 54.7910
1280.000000 88.979 55.0919
1315.000000 89.210 55.6897
1320.000000 89.242 55.7717
1340.000000 89.358 56.1342
1360.000000 89.456 56.4865
1380.000000 89.552 56.8053
1400.000000 89.654 57.1434
1430.000000 89.811 57.6663
1450.000000 89.917 57.9826
1475.000000 90.047 58.3725
1500.000000 90.177 58.7739
1525.000000 90.303 59.1827
1550.000000 90.424 59.6006
1575.000000 90.539 59.9999
1600.000000 90.651 60.3986
1625.000000 90.766 60.7551
1650.000000 90.878 61.1489
1675.000000 90.993 61.5485
1700.000000 91.110 61.9340
1725.000000 91.224 62.3332
1750.000000 91.337 62.6979
1775.000000 91.451 63.0428
1800.000000 91.566 63.4112
1825.000000 91.682 63.7707
1850.000000 91.803 64.0778
1875.000000 91.929 64.3316
1900.000000 92.052 64.5615
1925.000000 92.171 64.7782
1950.000000 92.285 64.9634
1975.000000 92.397 65.1208
2000.000000 92.508 65.2913
2030.000000 92.645 65.4784
2060.000000 92.780 65.6159
2090.000000 92.910 65.7171
2120.000000 93.036 65.7817
2140.000000 93.121 65.8064
2180.000000 93.286 65.8457
2200.000000 93.363 65.8657
2240.000000 93.516 65.8584
2270.000000 93.631 65.8064
2300.000000 93.741 65.7341
2330.000000 93.842 65.6447
2360.000000 93.937 65.5355
2400.000000 94.062 65.3499
2430.000000 94.153 65.1876
2470.000000 94.266 64.9452
2500.000000 94.344 64.7416
2540.000000 94.440 64.4579
2580.000000 94.526 64.1835
2620.000000 94.604 63.8922
2650.000000 94.656 63.6635
2690.000000 94.717 63.3613
2720.000000 94.754 63.1394
2760.000000 94.794 62.8559
2800.000000 94.824 62.6110
2850.000000 94.846 62.3647
2900.000000 94.858 62.2217
2950.000000 94.862 62.2595
3000.000000 94.870 62.4914
3040.000000 94.896 62.8057
3070.000000 94.934 63.0899
3110.000000 95.015 63.4504
3150.000000 95.129 63.6530
3200.000000 95.287 63.5514
3250.000000 95.427 63.0946
3300.000000 95.530 62.4351
3350.000000 95.599 61.7057
3400.000000 95.647 61.0102
3450.000000 95.680 60.3417
3500.000000 95.704 59.6623
3550.000000 95.716 58.9816
3600.000000 95.720 58.3417
3650.000000 95.717 57.7270
3700.000000 95.706 57.1053
3750.000000 95.688 56.4512
3820.000000 95.644 55.4962
3870.000000 95.595 54.8024
3950.000000 95.478 53.7076
4000.000000 95.387 53.0464
4060.000000 95.261 52.2728
4120.000000 95.111 51.5451
4180.000000 94.936 50.9214
4250.000000 94.704 50.3824
4310.000000 94.488 50.1107
4370.000000 94.264 50.0179
4440.000000 94.001 50.0773
4500.000000 93.782 50.2388
4550.000000 93.605 50.4410
4620.000000 93.370 50.7672
4680.000000 93.180 51.0308
4750.000000 92.963 51.2475
4820.000000 92.736 51.3580
4870.000000 92.556 51.4207
4940.000000 92.273 51.5615
5000.000000 92.001 51.8035
5080.000000 91.618 52.4097
5150.000000 91.275 53.2265
5220.000000 90.934 54.2838
5300.000000 90.557 55.7548
5380.000000 90.194 57.4689
5450.000000 89.895 59.1475
5520.000000 89.617 60.9897
5600.000000 89.323 63.2547
5700.000000 88.992 66.2665
5800.000000 88.702 69.4915
5900.000000 88.455 72.8870
6000.000000 88.256 76.3871
6080.000000 88.130 79.2808
6150.000000 88.046 81.8709
6220.000000 87.986 84.4998
6300.000000 87.946 87.5467
6400.000000 87.944 91.3932
6500.000000 87.995 95.2776
6600.000000 88.105 99.1585
6700.000000 88.276 102.9885
6800.000000 88.520 106.7235
6900.000000 88.858 110.3656
7000.000000 89.296 113.8165
7100.000000 89.827 116.9903
7200.000000 90.447 119.8115
7300.000000 91.160 122.1177
7400.000000 91.972 123.6867
7500.000000 92.877 124.2499
7620.000000 94.067 123.0704
7750.000000 95.335 118.7207
7880.000000 96.241 110.6691
8000.000000 96.526 100.7197
8120.000000 96.178 90.5223
8250.000000 95.186 81.8129
8380.000000 93.823 76.8038
8500.000000 92.477 75.1971
8620.000000 91.186 75.7782
8750.000000 89.906 78.1522
8850.000000 89.021 80.8512
9000.000000 87.869 85.9739
9120.000000 87.114 90.7427
9250.000000 86.456 96.2156
9380.000000 85.943 101.8462
9500.000000 85.600 106.9585
9620.000000 85.345 111.8732
9750.000000 85.157 117.0424
9880.000000 85.066 122.0235
10000.000000 85.059 126.3685
10150.000000 85.144 131.3808
10300.000000 85.320 135.7924
10440.000000 85.544 139.2334
10600.000000 85.834 142.3422
10750.000000 86.106 144.4668
10900.000000 86.354 145.9037
11060.000000 86.560 146.9116
11200.000000 86.695 147.6646
11380.000000 86.863 148.6643
11500.000000 86.996 149.2223
11720.000000 87.285 149.7557
11800.000000 87.403 149.7474
12060.000000 87.824 148.5976
12200.000000 88.035 146.9351
12410.000000 88.199 142.6691
12500.000000 88.165 140.2606
12650.000000 87.906 135.8755
12800.000000 87.372 131.7602
13150.000000 85.313 127.2611
13200.000000 84.971 127.3727
13400.000000 83.612 129.5498
13600.000000 82.379 133.9276
13800.000000 81.355 139.6657
14000.000000 80.556 146.0367
14300.000000 79.718 155.6731
14500.000000 79.317 161.6635
14750.000000 78.880 168.6193
15000.000000 78.461 175.4744
15250.000000 78.138 -178.0537
15500.000000 77.931 -172.1664
15750.000000 77.920 -167.1411
16000.000000 78.015 -164.0873
16250.000000 78.058 -163.5278
16500.000000 77.883 -164.9974
16750.000000 77.451 -167.1580
17000.000000 76.932 -169.5129
17250.000000 76.605 -179.3574
17500.000000 76.700 113.5353
17750.000000 77.331 -133.1285
18000.000000 78.103 133.7801
18250.000000 78.305 41.8131
18500.000000 77.824 107.3295
18750.000000 76.660 -175.8512
19000.000000 75.099 -71.8069
19250.000000 73.506 -177.7070
19500.000000 72.125 166.5959
19750.000000 71.426 172.3379
20000.000000 71.138 -178.4597
