* Measurement data measured by REW V5.20.13
* Source: Microphone (Realtek(R) Audio), MICROPHONE (Master Volume), L, volume: 0.710. Timing signal peak level -37.4 dBFS, measurement signal peak level -37.3 dBFS
* Format: 2M Log Swept Sine, 1 sweep at -12.0 dBFS using an acoustic timing reference
* Dated: Sep 7, 2023 3:55:34 PM
* REW Settings:
*  C-weighting compensation: Off
*  Target level: 75.0 dB
* Note: ; Delay -0.0555 ms (-19 mm, -0.75 in) using estimated IR delay relative to Acoustic reference played from HEADPHONE L with no timing offset Clock adjustment: 120.9 ppm
* Measurement: KZ Krila DUUD L
* Smoothing: 1/48 octave
* Frequency Step: 1/96 octave
* Start Frequency: 20.000 Hz
*
* Freq(Hz) SPL(dB) Phase(degrees)
20.000000 94.519 3.2446
20.144928 94.514 2.9836
20.290907 94.507 2.7145
20.437943 94.498 2.4427
20.586044 94.487 2.1833
20.735220 94.474 1.9339
20.885475 94.461 1.6950
21.036821 94.447 1.4688
21.189262 94.434 1.2525
21.342808 94.423 1.0448
21.497467 94.412 0.8460
21.653246 94.404 0.6449
21.810154 94.397 0.4440
21.968201 94.392 0.2306
22.127390 94.388 -0.0061
22.287735 94.384 -0.2598
22.449242 94.378 -0.5286
22.611917 94.371 -0.8125
22.775772 94.360 -1.0997
22.940815 94.344 -1.3923
23.107054 94.326 -1.6756
23.274498 94.304 -1.9493
23.443153 94.279 -2.2012
23.613033 94.252 -2.4205
23.784142 94.226 -2.6134
23.956491 94.202 -2.7787
24.130091 94.180 -2.9227
24.304947 94.162 -3.0582
24.481071 94.148 -3.1866
24.658470 94.137 -3.3248
24.837156 94.129 -3.4726
25.017136 94.122 -3.6465
25.198421 94.116 -3.8439
25.381020 94.107 -4.0585
25.564941 94.096 -4.2891
25.750195 94.082 -4.5184
25.936790 94.065 -4.7464
26.124741 94.046 -4.9621
26.314051 94.025 -5.1655
26.504732 94.006 -5.3485
26.696796 93.987 -5.5158
26.890253 93.970 -5.6769
27.085112 93.956 -5.8375
27.281382 93.945 -6.0126
27.479073 93.934 -6.2015
27.678198 93.923 -6.4084
27.878765 93.911 -6.6287
28.080786 93.896 -6.8630
28.284271 93.879 -7.0961
28.489231 93.859 -7.3253
28.695675 93.838 -7.5363
28.903616 93.816 -7.7301
29.113064 93.796 -7.9080
29.324028 93.778 -8.0763
29.536524 93.764 -8.2394
29.750557 93.751 -8.4095
29.966141 93.739 -8.5904
30.183289 93.727 -8.7906
30.402010 93.714 -9.0054
30.622314 93.697 -9.2289
30.844217 93.679 -9.4515
31.067726 93.658 -9.6685
31.292856 93.635 -9.8711
31.519617 93.612 -10.0581
31.748020 93.589 -10.2260
31.978081 93.568 -10.3827
32.209808 93.547 -10.5312
32.443211 93.528 -10.6780
32.678310 93.509 -10.8233
32.915108 93.490 -10.9678
33.153625 93.470 -11.1107
33.393871 93.450 -11.2489
33.635857 93.429 -11.3797
33.879597 93.411 -11.5071
34.125103 93.395 -11.6384
34.372387 93.379 -11.7805
34.621464 93.362 -11.9382
34.872345 93.343 -12.1084
35.125042 93.320 -12.2880
35.379574 93.294 -12.4610
35.635948 93.264 -12.6133
35.894180 93.232 -12.7368
36.154285 93.203 -12.8287
36.416275 93.177 -12.9056
36.680161 93.157 -12.9852
36.945961 93.142 -13.0895
37.213688 93.129 -13.2411
37.483353 93.114 -13.4344
37.754974 93.095 -13.6582
38.028561 93.070 -13.8904
38.304131 93.041 -14.1066
38.581699 93.012 -14.3035
38.861279 92.986 -14.4892
39.142883 92.963 -14.6864
39.426529 92.942 -14.9253
39.712231 92.916 -15.2063
40.000000 92.882 -15.5084
40.289856 92.836 -15.7914
40.581814 92.780 -15.9921
40.875885 92.723 -16.0701
41.172089 92.676 -16.0360
41.470440 92.648 -15.9361
41.770950 92.641 -15.8445
42.073643 92.651 -15.8453
42.378525 92.666 -15.9793
42.685616 92.673 -16.2216
42.994934 92.666 -16.5130
43.306492 92.643 -16.7844
43.620308 92.611 -16.9821
43.936401 92.580 -17.0940
44.254780 92.555 -17.1583
44.575470 92.539 -17.2295
44.898483 92.526 -17.3423
45.223835 92.510 -17.4972
45.551544 92.486 -17.6637
45.881630 92.455 -17.8003
46.214108 92.421 -17.8802
46.548996 92.393 -17.9100
46.886307 92.374 -17.9284
47.226067 92.364 -17.9877
47.568283 92.357 -18.1199
47.912983 92.344 -18.3184
48.260181 92.318 -18.5413
48.609894 92.281 -18.7319
48.962143 92.239 -18.8484
49.316940 92.199 -18.8855
49.674313 92.170 -18.8761
50.034271 92.152 -18.8738
50.396843 92.142 -18.9241
50.762039 92.132 -19.0422
51.129883 92.117 -19.2104
51.500389 92.092 -19.3936
51.873581 92.060 -19.5587
52.249481 92.024 -19.6885
52.628101 91.988 -19.7823
53.009464 91.955 -19.8575
53.393593 91.928 -19.9440
53.780506 91.901 -20.0699
54.170223 91.872 -20.2410
54.562763 91.836 -20.4305
54.958145 91.795 -20.5959
55.356396 91.756 -20.7192
55.757530 91.725 -20.8340
56.161572 91.701 -21.0012
56.568542 91.674 -21.2361
56.978462 91.634 -21.4611
57.391350 91.591 -21.5614
57.807232 91.570 -21.5242
58.226128 91.590 -21.5248
58.648056 91.637 -21.8162
59.073048 91.662 -22.4951
59.501114 91.618 -23.3419
59.932281 91.497 -23.9168
60.366577 91.351 -23.8885
60.804020 91.253 -23.3301
61.244629 91.241 -22.6650
61.688435 91.284 -22.3150
62.135452 91.320 -22.3552
62.585712 91.314 -22.5300
63.039234 91.278 -22.5789
63.496040 91.245 -22.4745
63.956161 91.228 -22.3717
64.419617 91.211 -22.3817
64.886421 91.178 -22.4476
65.356621 91.133 -22.4558
65.830215 91.092 -22.3855
66.307251 91.064 -22.3322
66.787743 91.043 -22.3795
67.271713 91.014 -22.5158
67.759193 90.973 -22.6647
68.250206 90.926 -22.7744
68.744774 90.881 -22.8423
69.242928 90.838 -22.8836
69.744690 90.801 -22.9073
70.250084 90.772 -22.9307
70.759148 90.748 -22.9856
71.271896 90.723 -23.0853
71.788361 90.690 -23.1971
72.308571 90.651 -23.2707
72.832550 90.614 -23.2934
73.360321 90.583 -23.3011
73.891922 90.556 -23.3278
74.427376 90.529 -23.3721
74.966705 90.503 -23.4198
75.509949 90.479 -23.4791
76.057121 90.454 -23.5655
76.608261 90.425 -23.6616
77.163399 90.391 -23.7280
77.722557 90.357 -23.7475
78.285767 90.327 -23.7380
78.853058 90.301 -23.7210
79.424461 90.275 -23.7005
80.000000 90.251 -23.6788
80.579712 90.228 -23.6689
81.163628 90.204 -23.6826
81.751770 90.176 -23.7186
82.344177 90.142 -23.7648
82.940880 90.102 -23.8032
83.541901 90.059 -23.8204
84.147285 90.018 -23.8146
84.757050 89.980 -23.7976
85.371231 89.948 -23.7844
85.989868 89.920 -23.7890
86.612984 89.895 -23.8196
87.240616 89.869 -23.8707
87.872803 89.841 -23.9292
88.509560 89.811 -23.9891
89.150940 89.777 -24.0405
89.796967 89.737 -24.0538
90.447670 89.698 -24.0084
91.103088 89.667 -23.9409
91.763260 89.639 -23.9131
92.428215 89.607 -23.9214
93.097992 89.568 -23.9039
93.772614 89.532 -23.8436
94.452133 89.503 -23.7990
95.136566 89.475 -23.8004
95.825966 89.442 -23.8113
96.520363 89.406 -23.7981
97.219788 89.371 -23.7529
97.924286 89.339 -23.6771
98.633881 89.311 -23.5884
99.348625 89.285 -23.5004
100.068542 89.262 -23.4082
100.793686 89.243 -23.3483
101.524078 89.220 -23.3671
102.259766 89.183 -23.4065
103.000778 89.139 -23.3863
103.747162 89.101 -23.3402
104.498962 89.066 -23.3251
105.256203 89.027 -23.3182
106.018929 88.990 -23.2820
106.787186 88.959 -23.2252
107.561012 88.933 -23.1749
108.340446 88.907 -23.1204
109.125526 88.887 -23.0427
109.916290 88.874 -23.0243
110.712791 88.849 -23.1193
111.515060 88.796 -23.1438
112.323143 88.750 -22.9858
113.137085 88.732 -22.8663
113.956924 88.719 -22.9230
114.782700 88.690 -23.0404
115.614464 88.652 -23.0981
116.452255 88.616 -23.0217
117.296112 88.599 -22.8586
118.146095 88.594 -22.6535
119.002228 88.614 -22.4061
119.864563 88.653 -22.4404
120.733154 88.629 -22.7577
121.608040 88.537 -22.7176
122.489258 88.472 -22.3337
123.376869 88.433 -22.1054
124.270905 88.378 -21.9751
125.171425 88.323 -21.8195
126.078468 88.276 -21.7016
126.992081 88.235 -21.6117
127.912323 88.201 -21.5329
128.839233 88.177 -21.4540
129.772842 88.162 -21.4275
130.713242 88.142 -21.4623
131.660431 88.115 -21.4707
132.614502 88.085 -21.4483
133.575485 88.053 -21.3897
134.543427 88.025 -21.2786
135.518387 88.005 -21.1634
136.500412 87.987 -21.0710
137.489548 87.967 -20.9761
138.485855 87.944 -20.8662
139.489380 87.917 -20.7554
140.500168 87.886 -20.6142
141.518295 87.860 -20.4525
142.543793 87.839 -20.3330
143.576721 87.815 -20.2615
144.617142 87.785 -20.1900
145.665100 87.753 -20.0739
146.720642 87.728 -19.8998
147.783844 87.716 -19.7597
148.854752 87.700 -19.6780
149.933411 87.678 -19.6018
151.019897 87.649 -19.5044
152.114243 87.618 -19.3686
153.216522 87.588 -19.1879
154.326797 87.566 -18.9865
155.445114 87.548 -18.8628
156.571533 87.519 -18.7757
157.706116 87.490 -18.6533
158.848923 87.466 -18.5512
160.000000 87.440 -18.4375
161.159424 87.427 -18.2588
162.327255 87.426 -18.1476
163.503540 87.414 -18.0820
164.688354 87.392 -17.9784
165.881760 87.364 -17.8467
167.083801 87.332 -17.7089
168.294571 87.293 -17.5817
169.514099 87.257 -17.4158
170.742462 87.232 -17.2859
171.979736 87.208 -17.2115
173.225967 87.180 -17.1470
174.481232 87.143 -17.0640
175.745605 87.104 -16.8913
177.019119 87.074 -16.7088
178.301880 87.045 -16.6148
179.593933 87.005 -16.5086
180.895340 86.980 -16.3136
182.206177 86.976 -16.1630
183.526520 86.978 -16.0510
184.856430 86.976 -15.9488
186.195984 86.956 -15.7802
187.545227 86.926 -15.4911
188.904266 86.899 -15.1881
190.273132 86.871 -14.9872
191.651932 86.841 -14.8851
193.040726 86.813 -14.8196
194.439575 86.793 -14.7324
195.848572 86.783 -14.6161
197.267761 86.769 -14.4463
198.697250 86.754 -14.2269
200.137085 86.735 -14.0724
201.587372 86.703 -14.0156
203.048157 86.663 -13.9349
204.519531 86.637 -13.8070
206.001556 86.624 -13.6479
207.494324 86.623 -13.4447
208.997925 86.622 -13.2653
210.512405 86.611 -13.1173
212.037857 86.589 -12.9708
213.574371 86.566 -12.8042
215.122025 86.547 -12.6095
216.680893 86.531 -12.4366
218.251053 86.505 -12.2488
219.832581 86.477 -12.0124
221.425583 86.456 -11.8095
223.030121 86.437 -11.6666
224.646286 86.416 -11.5545
226.274170 86.395 -11.4227
227.913849 86.378 -11.2958
229.565399 86.360 -11.1822
231.228928 86.344 -11.0534
232.904510 86.337 -10.8904
234.592224 86.336 -10.7242
236.292191 86.322 -10.5548
238.004456 86.285 -10.2974
239.729126 86.249 -9.8976
241.466309 86.245 -9.5833
243.216080 86.248 -9.5473
244.978516 86.236 -9.5639
246.753738 86.222 -9.5294
248.541809 86.201 -9.4412
250.342850 86.170 -9.2113
252.156937 86.150 -8.8202
253.984161 86.152 -8.4600
255.824646 86.150 -8.2619
257.678467 86.128 -8.1562
259.545685 86.102 -8.0826
261.426483 86.081 -8.0118
263.320862 86.071 -7.8375
265.229004 86.069 -7.5777
267.150970 86.062 -7.3071
269.086853 86.046 -7.1010
271.036774 86.026 -6.9796
273.000824 86.009 -6.8596
274.979095 85.999 -6.6648
276.971710 85.991 -6.4253
278.978760 85.979 -6.1533
281.000336 85.971 -5.9032
283.036591 85.965 -5.7459
285.087585 85.957 -5.6529
287.153442 85.943 -5.5436
289.234283 85.932 -5.3541
291.330200 85.923 -5.1253
293.441284 85.907 -4.9133
295.567688 85.889 -4.7727
297.709503 85.883 -4.6943
299.866821 85.891 -4.6097
302.039795 85.898 -4.3355
304.228485 85.906 -3.8912
306.433044 85.907 -3.5245
308.653595 85.887 -3.3387
310.890228 85.859 -3.2148
313.143066 85.851 -3.0582
315.412231 85.859 -2.8667
317.697845 85.861 -2.6008
320.000000 85.851 -2.3202
322.318848 85.832 -2.1285
324.654510 85.815 -2.0319
327.007080 85.805 -1.9398
329.376709 85.794 -1.7491
331.763519 85.782 -1.4204
334.167603 85.778 -1.0907
336.589142 85.772 -0.8705
339.028198 85.759 -0.7470
341.484924 85.747 -0.6167
343.959473 85.744 -0.3999
346.451935 85.742 -0.1155
348.962463 85.736 0.1467
351.491211 85.728 0.3346
354.038239 85.724 0.5740
356.603760 85.715 0.8940
359.187866 85.687 1.1963
361.790680 85.664 1.3550
364.412354 85.664 1.3695
367.053040 85.679 1.4774
369.712860 85.689 1.7469
372.391968 85.679 2.0417
375.090454 85.661 2.2444
377.808533 85.651 2.3876
380.546265 85.644 2.6205
383.303864 85.641 2.9984
386.081451 85.642 3.3749
388.879150 85.641 3.6387
391.697144 85.633 3.8190
394.535522 85.625 3.9817
397.394501 85.622 4.1371
400.274170 85.619 4.2727
403.174744 85.614 4.4414
406.096313 85.607 4.6659
409.039062 85.600 4.9050
412.003113 85.588 5.1350
414.988647 85.575 5.3289
417.995850 85.574 5.4464
421.024811 85.576 5.6043
424.075714 85.566 5.9985
427.148743 85.549 6.4506
430.244049 85.540 6.7493
433.361786 85.547 6.9930
436.502106 85.555 7.2641
439.665161 85.554 7.4940
442.851166 85.545 7.6542
446.060242 85.527 7.8353
449.292572 85.506 8.0546
452.548340 85.495 8.2755
455.827698 85.492 8.4647
459.130798 85.486 8.6879
462.457855 85.484 9.0225
465.809021 85.492 9.3996
469.184448 85.503 9.7322
472.584381 85.510 9.9677
476.008911 85.500 10.1475
479.458252 85.489 10.3153
482.932617 85.493 10.5702
486.432159 85.503 10.8903
489.957031 85.500 11.1524
493.507477 85.489 11.3622
497.083618 85.484 11.6178
500.685699 85.487 11.9292
504.313873 85.490 12.2394
507.968323 85.495 12.4911
511.649292 85.499 12.7004
515.356934 85.495 12.9250
519.091370 85.484 13.1706
522.852966 85.485 13.4964
526.641724 85.504 13.8391
530.458008 85.519 14.1176
534.301941 85.514 14.3805
538.173706 85.493 14.6658
542.073547 85.482 14.9829
546.001648 85.500 15.2344
549.958191 85.520 15.4776
553.943420 85.539 15.7624
557.957520 85.555 16.0247
562.000671 85.564 16.2260
566.073181 85.565 16.4455
570.175171 85.562 16.7268
574.306885 85.564 16.9916
578.468567 85.577 17.2960
582.660400 85.589 17.6324
586.882568 85.590 17.9553
591.135376 85.597 18.3044
595.419006 85.625 18.6544
599.733643 85.661 18.9545
604.079590 85.679 19.1918
608.456970 85.676 19.3932
612.866089 85.683 19.5950
617.307190 85.705 19.8041
621.780457 85.728 20.0163
626.286133 85.745 20.2243
630.824463 85.760 20.4053
635.395691 85.778 20.5365
640.000000 85.802 20.5710
644.637695 85.829 20.4988
649.309021 85.851 20.3271
654.014160 85.860 20.0472
658.753418 85.831 19.6911
663.527039 85.726 19.3062
668.335205 85.551 19.1138
673.178284 85.361 19.5429
678.056396 85.215 20.5392
682.969849 85.149 21.7757
687.918945 85.149 22.9571
692.903870 85.176 23.9546
697.924927 85.219 24.7950
702.982422 85.278 25.4689
708.076477 85.331 25.9869
713.207520 85.371 26.3931
718.375732 85.404 26.7282
723.581360 85.420 27.0858
728.824707 85.417 27.4930
734.106079 85.411 27.8821
739.425720 85.415 28.3039
744.783936 85.429 28.7300
750.180908 85.433 29.1404
755.617065 85.422 29.6026
761.092529 85.418 30.1389
766.607727 85.429 30.7479
772.162903 85.449 31.3507
777.758301 85.474 31.8407
783.394287 85.499 32.3814
789.071045 85.534 33.0659
794.789001 85.585 33.6740
800.548340 85.638 34.1567
806.349487 85.678 34.5742
812.192627 85.708 35.0046
818.078125 85.738 35.4536
824.006226 85.773 35.9250
829.977295 85.818 36.3576
835.991699 85.859 36.7105
842.049622 85.892 37.1057
848.151428 85.928 37.5214
854.297485 85.966 37.9067
860.488098 85.997 38.3568
866.723572 86.029 38.8200
873.004211 86.067 39.2926
879.330322 86.106 39.7618
885.702332 86.143 40.1718
892.120483 86.182 40.5311
898.585144 86.224 40.8930
905.096680 86.268 41.2979
911.655396 86.312 41.7656
918.261597 86.355 42.2527
924.915710 86.394 42.7106
931.618042 86.432 43.0843
938.368896 86.471 43.4072
945.168762 86.519 43.7569
952.017822 86.577 44.1457
958.916504 86.630 44.5541
965.865234 86.673 44.9755
972.864319 86.716 45.3816
979.914062 86.766 45.7854
987.014954 86.820 46.1579
994.167236 86.875 46.4861
1001.371399 86.928 46.8189
1008.627747 86.971 47.1823
1015.936646 87.008 47.5274
1023.298584 87.050 47.8480
1030.713867 87.109 48.1573
1038.182739 87.177 48.4607
1045.705933 87.240 48.7560
1053.283447 87.300 49.0593
1060.916016 87.358 49.3405
1068.603882 87.407 49.6143
1076.347412 87.453 49.9267
1084.147095 87.502 50.2667
1092.003296 87.564 50.5647
1099.916382 87.636 50.8383
1107.886841 87.701 51.0793
1115.915039 87.759 51.2944
1124.001343 87.830 51.5405
1132.146362 87.913 51.7797
1140.350342 87.992 52.0303
1148.613770 88.054 52.3142
1156.937134 88.105 52.5420
1165.320801 88.163 52.7115
1173.765137 88.226 52.8892
1182.270752 88.288 53.0684
1190.838013 88.351 53.2730
1199.467285 88.415 53.5156
1208.159180 88.472 53.7367
1216.913940 88.533 53.9243
1225.732178 88.606 54.0900
1234.614380 88.678 54.2717
1243.560913 88.741 54.4452
1252.572266 88.803 54.6217
1261.648926 88.865 54.8045
1270.791382 88.926 54.9301
1280.000000 88.987 55.0593
1289.275391 89.052 55.2391
1298.618042 89.115 55.4321
1308.028320 89.174 55.6099
1317.506836 89.236 55.7688
1327.054077 89.298 55.9350
1336.670410 89.356 56.1152
1346.356567 89.410 56.2789
1356.112793 89.452 56.4378
1365.939697 89.486 56.6071
1375.837891 89.535 56.7691
1385.807739 89.589 56.9079
1395.849854 89.640 57.0583
1405.964844 89.698 57.2392
1416.152954 89.759 57.4336
1426.415039 89.816 57.6121
1436.751465 89.871 57.7868
1447.162720 89.925 57.9371
1457.649414 89.977 58.0660
1468.212158 90.032 58.2253
1478.851440 90.090 58.4285
1489.567871 90.147 58.6228
1500.361816 90.201 58.8311
1511.234131 90.255 59.0384
1522.185059 90.310 59.2202
1533.215454 90.362 59.3934
1544.325806 90.415 59.5592
1555.516602 90.472 59.7151
1566.788574 90.527 59.8738
1578.142090 90.577 60.0466
1589.578003 90.628 60.2276
1601.096680 90.678 60.4397
1612.698975 90.729 60.6635
1624.385254 90.780 60.8572
1636.156250 90.831 61.0289
1648.012451 90.884 61.2153
1659.954590 90.940 61.4129
1671.983398 90.998 61.5986
1684.099243 91.051 61.7686
1696.302856 91.106 61.9318
1708.594971 91.165 62.1006
1720.976196 91.223 62.2772
1733.447144 91.278 62.4809
1746.008423 91.334 62.6940
1758.660645 91.394 62.8990
1771.404663 91.456 63.0826
1784.240967 91.517 63.2739
1797.170288 91.576 63.4687
1810.193359 91.634 63.6764
1823.310791 91.695 63.8752
1836.523193 91.762 64.0636
1849.831421 91.835 64.2448
1863.236084 91.907 64.4017
1876.737793 91.974 64.5498
1890.337524 92.036 64.6801
1904.035645 92.099 64.7996
1917.833008 92.162 64.9084
1931.730469 92.227 65.0039
1945.728638 92.292 65.0847
1959.828125 92.359 65.1679
1974.029907 92.427 65.2463
1988.334473 92.493 65.3209
2002.742798 92.561 65.4258
2017.255493 92.628 65.5290
2031.873291 92.693 65.5911
2046.597168 92.760 65.6429
2061.427734 92.825 65.6773
2076.365479 92.890 65.7251
2091.411865 92.957 65.8022
2106.566895 93.024 65.8536
2121.832031 93.089 65.8714
2137.207764 93.152 65.8818
2152.694824 93.218 65.8978
2168.294189 93.286 65.9280
2184.006592 93.349 65.9537
2199.832764 93.408 65.9538
2215.773682 93.468 65.9288
2231.830078 93.531 65.9195
2248.002686 93.588 65.9222
2264.292725 93.644 65.9013
2280.700684 93.704 65.8669
2297.227539 93.765 65.8151
2313.874268 93.824 65.7460
2330.641602 93.879 65.6688
2347.530273 93.931 65.5963
2364.541504 93.987 65.5457
2381.676025 94.044 65.4916
2398.934570 94.100 65.4255
2416.318359 94.156 65.3555
2433.827881 94.208 65.2668
2451.464355 94.258 65.1743
2469.228760 94.306 65.0824
2487.121826 94.352 64.9572
2505.144531 94.397 64.8212
2523.297852 94.442 64.7026
2541.582764 94.487 64.5648
2560.000000 94.531 64.4133
2578.550781 94.569 64.2689
2597.236084 94.602 64.1342
2616.056641 94.635 64.0116
2635.013672 94.673 63.8968
2654.108154 94.708 63.7835
2673.340820 94.738 63.6532
2692.713135 94.764 63.5144
2712.225586 94.787 63.3826
2731.879395 94.808 63.2321
2751.675781 94.828 63.0796
2771.615479 94.844 62.9557
2791.699707 94.860 62.8487
2811.929688 94.873 62.7412
2832.305908 94.881 62.6520
2852.830078 94.885 62.5936
2873.502930 94.889 62.5537
2894.325439 94.893 62.5377
2915.298828 94.895 62.5631
2936.424316 94.896 62.6234
2957.702881 94.899 62.7111
2979.135742 94.908 62.8430
3000.723633 94.921 63.0261
3022.468262 94.944 63.2640
3044.370117 94.979 63.5375
3066.430908 95.024 63.7822
3088.651611 95.080 63.9748
3111.033203 95.148 64.1031
3133.577148 95.227 64.1422
3156.284180 95.307 64.0834
3179.156006 95.384 63.9153
3202.193359 95.454 63.6683
3225.397949 95.516 63.3705
3248.770508 95.568 63.0286
3272.312500 95.610 62.6797
3296.024902 95.644 62.3526
3319.909180 95.674 62.0343
3343.966797 95.698 61.7151
3368.198486 95.718 61.3908
3392.605713 95.734 61.0678
3417.189941 95.750 60.7490
3441.952393 95.767 60.4268
3466.894287 95.782 60.0872
3492.016846 95.793 59.7491
3517.321289 95.799 59.4372
3542.809326 95.806 59.1305
3568.481934 95.811 58.8103
3594.340576 95.813 58.4860
3620.386719 95.813 58.1753
3646.621582 95.813 57.8673
3673.046387 95.810 57.5402
3699.662842 95.805 57.2110
3726.472168 95.798 56.8871
3753.475586 95.789 56.5412
3780.675049 95.776 56.1810
3808.071289 95.759 55.8194
3835.666016 95.737 55.4395
3863.460938 95.709 55.0397
3891.457275 95.676 54.6476
3919.656250 95.637 54.2717
3948.059814 95.593 53.8953
