* Measurement data measured by REW V5.20.13
* Source: Microphone (Realtek(R) Audio), MICROPHONE (Master Volume), L, volume: 0.710. Timing signal peak level -37.4 dBFS, measurement signal peak level -37.3 dBFS
* Format: 2M Log Swept Sine, 1 sweep at -12.0 dBFS using an acoustic timing reference
* Dated: Sep 7, 2023 4:29:00 PM
* REW Settings:
*  C-weighting compensation: Off
*  Target level: 75.0 dB
* Note: ; Delay -0.0533 ms (-18 mm, -0.72 in) using estimated IR delay relative to Acoustic reference played from HEADPHONE R with no timing offset Clock adjustment: 120.6 ppm
* Measurement: KZ Krila DDDU R
* Smoothing: 1/48 octave
* Frequency Step: 1/96 octave
* Start Frequency: 20.000 Hz
*
* Freq(Hz) SPL(dB) Phase(degrees)
20.000000 90.447 16.3558
20.144928 90.442 16.1505
20.290907 90.435 15.9630
20.437943 90.428 15.7910
20.586044 90.423 15.6367
20.735220 90.420 15.5024
20.885475 90.419 15.3685
21.036821 90.421 15.2311
21.189262 90.425 15.0871
21.342808 90.429 14.9237
21.497467 90.435 14.7441
21.653246 90.439 14.5496
21.810154 90.440 14.3372
21.968201 90.439 14.1174
22.127390 90.434 13.8905
22.287735 90.425 13.6666
22.449242 90.413 13.4702
22.611917 90.398 13.2970
22.775772 90.383 13.1579
22.940815 90.368 13.0557
23.107054 90.356 12.9739
23.274498 90.349 12.9150
23.443153 90.347 12.8595
23.613033 90.350 12.8003
23.784142 90.358 12.7250
23.956491 90.370 12.6120
24.130091 90.383 12.4659
24.304947 90.395 12.2779
24.481071 90.405 12.0550
24.658470 90.408 11.8152
24.837156 90.407 11.5598
25.017136 90.399 11.3134
25.198421 90.387 11.0759
25.381020 90.371 10.8725
25.564941 90.352 10.7014
25.750195 90.334 10.5675
25.936790 90.318 10.4680
26.124741 90.306 10.3833
26.314051 90.298 10.3124
26.504732 90.295 10.2381
26.696796 90.295 10.1589
26.890253 90.298 10.0603
27.085112 90.302 9.9444
27.281382 90.305 9.8071
27.479073 90.307 9.6571
27.678198 90.308 9.5013
27.878765 90.307 9.3440
28.080786 90.305 9.1881
28.284271 90.303 9.0357
28.489231 90.300 8.8876
28.695675 90.298 8.7423
28.903616 90.296 8.5980
29.113064 90.294 8.4483
29.324028 90.291 8.2953
29.536524 90.287 8.1392
29.750557 90.282 7.9849
29.966141 90.275 7.8341
30.183289 90.265 7.6910
30.402010 90.254 7.5582
30.622314 90.242 7.4416
30.844217 90.230 7.3379
31.067726 90.220 7.2460
31.292856 90.211 7.1580
31.519617 90.204 7.0714
31.748020 90.199 6.9827
31.978081 90.196 6.8858
32.209808 90.192 6.7792
32.443211 90.189 6.6622
32.678310 90.185 6.5384
32.915108 90.179 6.4097
33.153625 90.173 6.2798
33.393871 90.165 6.1535
33.635857 90.156 6.0351
33.879597 90.149 5.9254
34.125103 90.144 5.8200
34.372387 90.141 5.7148
34.621464 90.140 5.6044
34.872345 90.139 5.4847
35.125042 90.139 5.3524
35.379574 90.138 5.2089
35.635948 90.136 5.0622
35.894180 90.132 4.9185
36.154285 90.126 4.7861
36.416275 90.120 4.6685
36.680161 90.115 4.5632
36.945961 90.112 4.4650
37.213688 90.111 4.3590
37.483353 90.111 4.2401
37.754974 90.110 4.1072
38.028561 90.106 3.9630
38.304131 90.098 3.8212
38.581699 90.087 3.6947
38.861279 90.074 3.5926
39.142883 90.061 3.5184
39.426529 90.050 3.4640
39.712231 90.042 3.4173
40.000000 90.036 3.3676
40.289856 90.033 3.3062
40.581814 90.030 3.2323
40.875885 90.026 3.1497
41.172089 90.023 3.0592
41.470440 90.021 2.9591
41.770950 90.018 2.8466
42.073643 90.014 2.7181
42.378525 90.009 2.5775
42.685616 90.001 2.4377
42.994934 89.992 2.3114
43.306492 89.983 2.2059
43.620308 89.976 2.1193
43.936401 89.972 2.0401
44.254780 89.970 1.9525
44.575470 89.969 1.8551
44.898483 89.966 1.7603
45.223835 89.963 1.6852
45.551544 89.961 1.6391
45.881630 89.964 1.6129
46.214108 89.973 1.5781
46.548996 89.987 1.5010
46.886307 89.998 1.3655
47.226067 90.002 1.1868
47.568283 89.994 1.0095
47.912983 89.976 0.8820
48.260181 89.954 0.8305
48.609894 89.936 0.8469
48.962143 89.928 0.8916
49.316940 89.930 0.9120
49.674313 89.937 0.8660
50.034271 89.944 0.7383
50.396843 89.942 0.5470
50.762039 89.928 0.3394
51.129883 89.903 0.1721
51.500389 89.877 0.0801
51.873581 89.859 0.0497
52.249481 89.855 0.0187
52.628101 89.860 -0.0796
53.009464 89.862 -0.2612
53.393593 89.852 -0.4665
53.780506 89.830 -0.5984
54.170223 89.809 -0.6053
54.562763 89.805 -0.5335
54.958145 89.818 -0.4905
55.356396 89.835 -0.5417
55.757530 89.840 -0.6435
56.161572 89.832 -0.6927
56.568542 89.825 -0.6549
56.978462 89.828 -0.6252
57.391350 89.826 -0.7184
57.807232 89.791 -0.8782
58.226128 89.713 -0.8364
58.648056 89.629 -0.3358
59.073048 89.610 0.5577
59.501114 89.697 1.3543
59.932281 89.849 1.4837
60.366577 89.973 0.7958
60.804020 89.993 -0.3106
61.244629 89.910 -1.2364
61.688435 89.784 -1.6057
62.135452 89.694 -1.5123
62.585712 89.669 -1.3558
63.039234 89.682 -1.4313
63.496040 89.692 -1.7371
63.956161 89.679 -2.0956
64.419617 89.655 -2.3671
64.886421 89.632 -2.5317
65.356621 89.618 -2.6202
65.830215 89.612 -2.6560
66.307251 89.617 -2.6668
66.787743 89.629 -2.6975
67.271713 89.640 -2.7759
67.759193 89.642 -2.8731
68.250206 89.635 -2.9362
68.744774 89.625 -2.9507
69.242928 89.617 -2.9533
69.744690 89.608 -2.9752
70.250084 89.598 -3.0054
70.759148 89.588 -3.0234
71.271896 89.586 -3.0543
71.788361 89.589 -3.1616
72.308571 89.585 -3.3616
72.832550 89.565 -3.5726
73.360321 89.537 -3.6796
73.891922 89.519 -3.6664
74.427376 89.522 -3.6468
74.966705 89.536 -3.7317
75.509949 89.539 -3.9037
76.057121 89.525 -4.0503
76.608261 89.505 -4.1033
77.163399 89.492 -4.1060
77.722557 89.483 -4.1302
78.285767 89.469 -4.1808
78.853058 89.450 -4.2181
79.424461 89.431 -4.2297
80.000000 89.418 -4.2414
80.579712 89.409 -4.2824
81.163628 89.404 -4.3630
81.751770 89.398 -4.4728
82.344177 89.392 -4.5949
82.940880 89.385 -4.7163
83.541901 89.378 -4.8285
84.147285 89.373 -4.9212
84.757050 89.371 -5.0048
85.371231 89.372 -5.1196
85.989868 89.365 -5.2777
86.612984 89.340 -5.3968
87.240616 89.311 -5.3886
87.872803 89.296 -5.2948
88.509560 89.298 -5.2577
89.150940 89.299 -5.3148
89.796967 89.294 -5.3890
90.447670 89.292 -5.4528
91.103088 89.293 -5.5537
91.763260 89.291 -5.6854
92.428215 89.288 -5.8278
93.097992 89.280 -6.0145
93.772614 89.252 -6.2066
94.452133 89.207 -6.2464
95.136566 89.173 -6.1039
95.825966 89.163 -5.9531
96.520363 89.163 -5.9110
97.219788 89.158 -5.9495
97.924286 89.148 -6.0332
98.633881 89.130 -6.1367
99.348625 89.106 -6.2025
100.068542 89.087 -6.2099
100.793686 89.080 -6.2119
101.524078 89.078 -6.2729
102.259766 89.071 -6.3883
103.000778 89.054 -6.4680
103.747162 89.041 -6.4605
104.498962 89.042 -6.4722
105.256203 89.043 -6.6050
106.018929 89.025 -6.7652
106.787186 89.000 -6.8276
107.561012 88.984 -6.8294
108.340446 88.976 -6.8506
109.125526 88.968 -6.8956
109.916290 88.957 -6.9312
110.712791 88.944 -6.9439
111.515060 88.931 -6.9495
112.323143 88.919 -6.9727
113.137085 88.903 -7.0521
113.956924 88.873 -7.1658
114.782700 88.839 -7.1657
115.614464 88.841 -7.1615
116.452255 88.855 -7.4534
117.296112 88.839 -7.8089
118.146095 88.834 -8.0414
119.002228 88.830 -8.4657
119.864563 88.764 -8.7604
120.733154 88.703 -8.4547
121.608040 88.712 -8.0410
122.489258 88.731 -7.8562
123.376869 88.738 -7.7101
124.270905 88.741 -7.6532
125.171425 88.721 -7.6733
126.078468 88.688 -7.6190
126.992081 88.662 -7.5318
127.912323 88.643 -7.4547
128.839233 88.635 -7.3907
129.772842 88.633 -7.3771
130.713242 88.629 -7.3917
131.660431 88.623 -7.4146
132.614502 88.612 -7.4496
133.575485 88.598 -7.4917
134.543427 88.582 -7.5613
135.518387 88.562 -7.6513
136.500412 88.541 -7.7126
137.489548 88.526 -7.7172
138.485855 88.525 -7.7041
139.489380 88.531 -7.7247
140.500168 88.535 -7.7763
141.518295 88.531 -7.8556
142.543793 88.513 -7.9329
143.576721 88.485 -7.9507
144.617142 88.457 -7.9178
145.665100 88.435 -7.8553
146.720642 88.425 -7.8180
147.783844 88.419 -7.8615
148.854752 88.405 -7.9224
149.933411 88.390 -7.9609
151.019897 88.373 -8.0129
152.114243 88.349 -8.0437
153.216522 88.327 -8.0327
154.326797 88.307 -8.0171
155.445114 88.288 -7.9901
156.571533 88.269 -7.9559
157.706116 88.248 -7.8691
158.848923 88.242 -7.7553
160.000000 88.248 -7.7993
161.159424 88.234 -7.9780
162.327255 88.201 -8.0673
163.503540 88.178 -8.0159
164.688354 88.171 -7.9317
165.881760 88.170 -7.8427
167.083801 88.168 -7.7639
168.294571 88.157 -7.7074
169.514099 88.139 -7.6750
170.742462 88.120 -7.6822
171.979736 88.101 -7.7826
173.225967 88.074 -7.8930
174.481232 88.049 -7.8686
175.745605 88.042 -7.7670
177.019119 88.037 -7.6947
178.301880 88.020 -7.6437
179.593933 87.990 -7.6030
180.895340 87.957 -7.5913
182.206177 87.926 -7.6405
183.526520 87.901 -7.6940
184.856430 87.889 -7.7092
186.195984 87.885 -7.7032
187.545227 87.880 -7.6846
188.904266 87.862 -7.6749
190.273132 87.832 -7.6201
191.651932 87.807 -7.5416
193.040726 87.790 -7.5004
194.439575 87.774 -7.4763
195.848572 87.760 -7.4000
197.267761 87.752 -7.2995
198.697250 87.741 -7.2368
200.137085 87.721 -7.1958
201.587372 87.697 -7.1825
203.048157 87.669 -7.1579
204.519531 87.645 -7.0891
206.001556 87.629 -6.9819
207.494324 87.621 -6.8960
208.997925 87.609 -6.8671
210.512405 87.587 -6.8310
212.037857 87.567 -6.7444
213.574371 87.557 -6.6673
215.122025 87.550 -6.6293
216.680893 87.541 -6.6063
218.251053 87.528 -6.5617
219.832581 87.514 -6.5462
221.425583 87.488 -6.5389
223.030121 87.460 -6.4752
224.646286 87.442 -6.4201
226.274170 87.427 -6.4060
227.913849 87.409 -6.3746
229.565399 87.395 -6.2853
231.228928 87.383 -6.1921
232.904510 87.363 -6.0566
234.592224 87.343 -5.8293
236.292191 87.324 -5.5496
238.004456 87.310 -5.2596
239.729126 87.306 -5.1287
241.466309 87.291 -5.2233
243.216080 87.264 -5.3745
244.978516 87.239 -5.4332
246.753738 87.229 -5.3848
248.541809 87.223 -5.3167
250.342850 87.203 -5.2695
252.156937 87.163 -5.1712
253.984161 87.129 -4.9428
255.824646 87.120 -4.6981
257.678467 87.118 -4.5828
259.545685 87.103 -4.5417
261.426483 87.083 -4.5209
263.320862 87.063 -4.4737
265.229004 87.050 -4.3607
267.150970 87.040 -4.2219
269.086853 87.024 -4.0642
271.036774 87.012 -3.9057
273.000824 87.007 -3.8219
274.979095 86.997 -3.7989
276.971710 86.981 -3.7733
278.978760 86.962 -3.7538
281.000336 86.941 -3.6789
283.036591 86.930 -3.5310
285.087585 86.921 -3.3976
287.153442 86.901 -3.2868
289.234283 86.878 -3.2016
291.330200 86.856 -3.1654
293.441284 86.832 -3.0835
295.567688 86.817 -2.9530
297.709503 86.801 -2.8476
299.866821 86.788 -2.7069
302.039795 86.791 -2.5875
304.228485 86.785 -2.5037
306.433044 86.763 -2.3162
308.653595 86.743 -2.0781
310.890228 86.735 -1.9023
313.143066 86.734 -1.7707
315.412231 86.731 -1.6143
317.697845 86.719 -1.4159
320.000000 86.703 -1.2700
322.318848 86.689 -1.2461
324.654510 86.678 -1.2311
327.007080 86.675 -1.1181
329.376709 86.670 -0.9445
331.763519 86.659 -0.7869
334.167603 86.640 -0.6758
336.589142 86.620 -0.5274
339.028198 86.603 -0.3130
341.484924 86.587 -0.0726
343.959473 86.578 0.1316
346.451935 86.570 0.2483
348.962463 86.553 0.3550
351.491211 86.541 0.4928
354.038239 86.542 0.6156
356.603760 86.546 0.7545
359.187866 86.535 0.9307
361.790680 86.504 1.1935
364.412354 86.482 1.4353
367.053040 86.464 1.5494
369.712860 86.447 1.6081
372.391968 86.431 1.6691
375.090454 86.414 1.8224
377.808533 86.401 2.0465
380.546265 86.392 2.2100
383.303864 86.381 2.3572
386.081451 86.368 2.5811
388.879150 86.350 2.8630
391.697144 86.340 3.0969
394.535522 86.342 3.2233
397.394501 86.340 3.3532
400.274170 86.332 3.4940
403.174744 86.315 3.6229
406.096313 86.299 3.7736
409.039062 86.285 3.9320
412.003113 86.274 4.1497
414.988647 86.267 4.4828
417.995850 86.261 4.8530
421.024811 86.253 5.0413
424.075714 86.244 5.0906
427.148743 86.241 5.1739
430.244049 86.233 5.3367
433.361786 86.215 5.5071
436.502106 86.195 5.6459
439.665161 86.178 5.8022
442.851166 86.163 6.0920
446.060242 86.152 6.4313
449.292572 86.137 6.6658
452.548340 86.121 6.8382
455.827698 86.107 6.9835
459.130798 86.095 7.1384
462.457855 86.095 7.3118
465.809021 86.097 7.5014
469.184448 86.085 7.7561
472.584381 86.075 8.0119
476.008911 86.078 8.1525
479.458252 86.081 8.2654
482.932617 86.066 8.4831
486.432159 86.047 8.7356
489.957031 86.033 9.0167
493.507477 86.026 9.3788
497.083618 86.024 9.7055
500.685699 86.027 9.9103
504.313873 86.031 10.0981
507.968323 86.027 10.3195
511.649292 86.023 10.5206
515.356934 86.018 10.7458
519.091370 86.009 11.0336
522.852966 86.003 11.3462
526.641724 85.990 11.5973
530.458008 85.966 11.7788
534.301941 85.955 12.0464
538.173706 85.957 12.4068
542.073547 85.969 12.6363
546.001648 85.981 12.7530
549.958191 85.982 12.9049
553.943420 85.973 13.0995
557.957520 85.974 13.3543
562.000671 85.984 13.6482
566.073181 85.987 13.9435
570.175171 85.983 14.2469
574.306885 85.982 14.5267
578.468567 85.984 14.7919
582.660400 85.980 15.0332
586.882568 85.978 15.2438
591.135376 85.985 15.4981
595.419006 85.982 15.7647
599.733643 85.977 16.0440
604.079590 85.972 16.3705
608.456970 85.965 16.6652
612.866089 85.969 16.9121
617.307190 85.992 17.1913
621.780457 86.015 17.4865
626.286133 86.026 17.7239
630.824463 86.033 17.8903
635.395691 86.042 18.0669
640.000000 86.056 18.2714
644.637695 86.064 18.4893
649.309021 86.068 18.7534
654.014160 86.068 19.0127
658.753418 86.083 19.1810
663.527039 86.122 19.2239
668.335205 86.164 19.1406
673.178284 86.189 18.9245
678.056396 86.188 18.5520
682.969849 86.157 18.0117
687.918945 86.061 17.3437
692.903870 85.867 16.8222
697.924927 85.592 17.0239
702.982422 85.330 18.2037
708.076477 85.191 19.9421
713.207520 85.187 21.6691
718.375732 85.245 23.0794
723.581360 85.317 24.2068
728.824707 85.388 25.0932
734.106079 85.452 25.7428
739.425720 85.508 26.2498
744.783936 85.560 26.6986
750.180908 85.607 27.1067
755.617065 85.646 27.4992
761.092529 85.679 27.8742
766.607727 85.704 28.2157
772.162903 85.712 28.6192
777.758301 85.715 29.0329
783.394287 85.744 29.3488
789.071045 85.783 29.7106
794.789001 85.812 30.1614
800.548340 85.835 30.6360
806.349487 85.860 31.0698
812.192627 85.889 31.4956
818.078125 85.915 31.9485
824.006226 85.939 32.3783
829.977295 85.968 32.7950
835.991699 86.007 33.1848
842.049622 86.042 33.5491
848.151428 86.063 33.9254
854.297485 86.080 34.3474
860.488098 86.097 34.7871
866.723572 86.116 35.2439
873.004211 86.144 35.6747
879.330322 86.175 36.0374
885.702332 86.208 36.3644
892.120483 86.238 36.7596
898.585144 86.269 37.2511
905.096680 86.306 37.7646
911.655396 86.350 38.1937
918.261597 86.393 38.5726
924.915710 86.435 38.9448
931.618042 86.474 39.3382
938.368896 86.510 39.7657
945.168762 86.548 40.2112
952.017822 86.587 40.6513
958.916504 86.627 41.0818
965.865234 86.669 41.4286
972.864319 86.717 41.7542
979.914062 86.765 42.1373
987.014954 86.805 42.5061
994.167236 86.845 42.8794
1001.371399 86.886 43.2832
1008.627747 86.932 43.7010
1015.936646 86.982 44.1033
1023.298584 87.032 44.3927
1030.713867 87.083 44.6272
1038.182739 87.133 44.9082
1045.705933 87.177 45.2302
1053.283447 87.221 45.5485
1060.916016 87.274 45.8781
1068.603882 87.329 46.1956
1076.347412 87.376 46.4684
1084.147095 87.422 46.7627
1092.003296 87.478 47.0742
1099.916382 87.537 47.3454
1107.886841 87.598 47.5872
1115.915039 87.659 47.8422
1124.001343 87.720 48.1152
1132.146362 87.786 48.3805
1140.350342 87.854 48.6268
1148.613770 87.909 48.8737
1156.937134 87.956 49.1205
1165.320801 88.013 49.3770
1173.765137 88.074 49.5991
1182.270752 88.135 49.7913
1190.838013 88.195 49.9781
1199.467285 88.250 50.1389
1208.159180 88.304 50.3207
1216.913940 88.363 50.5271
1225.732178 88.423 50.7421
1234.614380 88.481 50.9553
1243.560913 88.536 51.1466
1252.572266 88.592 51.3499
1261.648926 88.648 51.5570
1270.791382 88.708 51.7267
1280.000000 88.775 51.8906
1289.275391 88.839 52.0814
1298.618042 88.901 52.2732
1308.028320 88.959 52.4797
1317.506836 89.016 52.6510
1327.054077 89.071 52.8175
1336.670410 89.127 53.0134
1346.356567 89.179 53.1693
1356.112793 89.213 53.3222
1365.939697 89.242 53.5138
1375.837891 89.283 53.6881
1385.807739 89.332 53.8645
1395.849854 89.381 54.0437
1405.964844 89.428 54.1897
1416.152954 89.479 54.3513
1426.415039 89.532 54.5771
1436.751465 89.582 54.8212
1447.162720 89.636 55.0406
1457.649414 89.693 55.2589
1468.212158 89.740 55.4592
1478.851440 89.783 55.6306
1489.567871 89.829 55.8181
1500.361816 89.880 56.0099
1511.234131 89.934 56.2071
1522.185059 89.990 56.4368
1533.215454 90.045 56.6816
1544.325806 90.095 56.9140
1555.516602 90.145 57.1376
1566.788574 90.192 57.3343
1578.142090 90.236 57.5375
1589.578003 90.281 57.7401
1601.096680 90.325 57.9337
1612.698975 90.371 58.1277
1624.385254 90.421 58.3407
1636.156250 90.475 58.5707
1648.012451 90.531 58.7967
1659.954590 90.585 59.0079
1671.983398 90.635 59.2150
1684.099243 90.682 59.4244
1696.302856 90.734 59.6370
1708.594971 90.788 59.8413
1720.976196 90.842 60.0516
1733.447144 90.892 60.2615
1746.008423 90.944 60.4822
1758.660645 90.997 60.6989
1771.404663 91.048 60.9070
1784.240967 91.101 61.1066
1797.170288 91.155 61.3229
1810.193359 91.209 61.5471
1823.310791 91.266 61.7645
1836.523193 91.322 62.0130
1849.831421 91.375 62.2724
1863.236084 91.434 62.4914
1876.737793 91.496 62.7013
1890.337524 91.556 62.9396
1904.035645 91.619 63.1849
1917.833008 91.688 63.4090
1931.730469 91.756 63.6209
1945.728638 91.826 63.8242
1959.828125 91.901 63.9921
1974.029907 91.970 64.1199
1988.334473 92.034 64.2449
2002.742798 92.105 64.3622
2017.255493 92.174 64.4573
2031.873291 92.242 64.5601
2046.597168 92.310 64.6699
2061.427734 92.373 64.7498
2076.365479 92.434 64.8253
2091.411865 92.496 64.9176
2106.566895 92.561 65.0149
2121.832031 92.627 65.1368
2137.207764 92.694 65.2688
2152.694824 92.759 65.3849
2168.294189 92.826 65.4763
2184.006592 92.896 65.5787
2199.832764 92.965 65.6736
2215.773682 93.034 65.7071
2231.830078 93.101 65.7132
2248.002686 93.169 65.7316
2264.292725 93.236 65.7542
2280.700684 93.301 65.7720
2297.227539 93.368 65.7867
2313.874268 93.432 65.7677
2330.641602 93.494 65.7274
2347.530273 93.554 65.6854
2364.541504 93.611 65.6363
2381.676025 93.668 65.5866
2398.934570 93.727 65.5382
2416.318359 93.788 65.4948
2433.827881 93.844 65.4398
2451.464355 93.896 65.3692
2469.228760 93.948 65.3056
2487.121826 94.000 65.2468
2505.144531 94.054 65.1755
2523.297852 94.105 65.0824
2541.582764 94.154 64.9865
2560.000000 94.202 64.8909
2578.550781 94.246 64.7949
2597.236084 94.288 64.7005
2616.056641 94.328 64.6125
2635.013672 94.369 64.5257
2654.108154 94.408 64.4118
2673.340820 94.446 64.2860
2692.713135 94.482 64.1749
2712.225586 94.515 64.0638
2731.879395 94.544 63.9572
2751.675781 94.571 63.8617
2771.615479 94.599 63.7765
2791.699707 94.623 63.6843
2811.929688 94.644 63.5920
2832.305908 94.663 63.5232
2852.830078 94.682 63.4725
2873.502930 94.698 63.4324
2894.325439 94.711 63.4216
2915.298828 94.724 63.4544
2936.424316 94.742 63.5377
2957.702881 94.763 63.6386
2979.135742 94.789 63.7724
3000.723633 94.822 63.9396
3022.468262 94.867 64.1113
3044.370117 94.924 64.2634
3066.430908 94.990 64.3597
3088.651611 95.060 64.3738
3111.033203 95.132 64.3019
3133.577148 95.201 64.1424
3156.284180 95.263 63.9197
3179.156006 95.317 63.6722
3202.193359 95.365 63.4160
3225.397949 95.404 63.1524
3248.770508 95.438 62.9076
3272.312500 95.470 62.6915
3296.024902 95.502 62.4834
3319.909180 95.536 62.2663
3343.966797 95.572 62.0232
3368.198486 95.609 61.7629
3392.605713 95.647 61.4755
3417.189941 95.685 61.1586
3441.952393 95.721 60.8172
3466.894287 95.754 60.4600
3492.016846 95.785 60.1035
3517.321289 95.813 59.7234
3542.809326 95.837 59.3046
3568.481934 95.856 58.8713
3594.340576 95.870 58.4324
3620.386719 95.882 57.9784
3646.621582 95.889 57.5148
3673.046387 95.889 57.0549
3699.662842 95.882 56.5825
3726.472168 95.872 56.0938
3753.475586 95.860 55.5957
3780.675049 95.843 55.0947
3808.071289 95.820 54.6131
3835.666016 95.791 54.1530
3863.460938 95.756 53.6988
3891.457275 95.717 53.2344
3919.656250 95.672 52.7614
3948.059814 95.621 52.2912
3976.668945 95.565 51.8279
4005.485596 95.506 51.3795
4034.510986 95.441 50.9520
4063.746582 95.369 50.5427
4093.194336 95.293 50.1427
4122.855469 95.214 49.7433
4152.730957 95.132 49.3502
4182.823730 95.046 48.9830
4213.133789 94.955 48.6342
4243.664062 94.858 48.2864
4274.415527 94.754 47.9450
4305.389648 94.643 47.6285
4336.588379 94.525 47.3546
4368.013184 94.399 47.1146
