* Measurement data measured by REW V5.20.13
* Source: Microphone (Realtek(R) Audio), MICROPHONE (Master Volume), L, volume: 0.710. Timing signal peak level -37.5 dBFS, measurement signal peak level -37.3 dBFS
* Format: 2M Log Swept Sine, 1 sweep at -12.0 dBFS using an acoustic timing reference
* Dated: Sep 7, 2023 3:50:13 PM
* REW Settings:
*  C-weighting compensation: Off
*  Target level: 75.0 dB
* Note: ; Delay -0.0563 ms (-19 mm, -0.76 in) using estimated IR delay relative to Acoustic reference played from HEADPHONE L with no timing offset Clock adjustment: 120.6 ppm
* Measurement: KZ Krila UDDD L
* Smoothing: 1/24 octave
* Frequency Step: 1/48 octave
* Start Frequency: 20.000 Hz
*
* Freq(Hz) SPL(dB) Phase(degrees)
20.000000 91.042 9.4372
20.299999 91.020 9.1717
20.600000 91.011 8.9167
20.900000 91.014 8.6204
21.200001 91.020 8.2483
21.400000 91.020 7.9637
21.799999 91.007 7.3606
22.000000 90.993 7.0746
22.400000 90.956 6.5979
22.700001 90.930 6.3356
23.000000 90.913 6.1235
23.299999 90.906 5.9037
23.600000 90.904 5.6373
24.000000 90.899 5.1932
24.299999 90.884 4.8310
24.700001 90.848 4.3929
25.000000 90.816 4.1418
25.400000 90.779 3.9068
25.799999 90.758 3.7057
26.200001 90.748 3.4435
26.500000 90.741 3.1862
26.900000 90.724 2.7908
27.200001 90.704 2.4937
27.600000 90.671 2.1355
28.000000 90.637 1.8248
28.500000 90.599 1.4670
29.000000 90.562 1.1330
29.500000 90.525 0.8705
30.000000 90.499 0.7007
30.400000 90.492 0.5822
30.700001 90.495 0.4634
31.100000 90.502 0.2311
31.500000 90.505 -0.0820
32.000000 90.492 -0.5245
32.500000 90.459 -0.9332
33.000000 90.413 -1.2432
33.500000 90.364 -1.4360
34.000000 90.323 -1.5374
34.500000 90.298 -1.6295
35.000000 90.284 -1.8079
35.500000 90.264 -2.0978
36.000000 90.227 -2.4091
36.500000 90.184 -2.6390
37.000000 90.154 -2.8091
37.500000 90.143 -3.0535
38.200001 90.121 -3.6053
38.700001 90.085 -3.9658
39.500000 90.056 -4.2579
40.000000 90.076 -4.5479
40.599998 90.086 -5.2464
41.200001 90.017 -5.9559
41.799999 89.900 -6.1038
42.500000 89.826 -5.5943
43.099998 89.848 -5.2280
43.700001 89.882 -5.2393
44.400002 89.877 -5.4666
45.000000 89.846 -5.6112
45.500000 89.814 -5.6984
46.200001 89.764 -5.8066
46.799999 89.721 -5.8727
47.500000 89.683 -5.9597
48.200001 89.655 -6.1289
48.700001 89.635 -6.2841
49.400002 89.609 -6.4915
50.000000 89.590 -6.6479
50.799999 89.570 -6.8287
51.500000 89.551 -6.9347
52.200001 89.532 -6.9702
53.000000 89.514 -6.9662
53.799999 89.493 -7.0110
54.500000 89.460 -7.0866
55.200001 89.420 -7.1523
56.000000 89.375 -7.2845
57.000000 89.313 -7.5123
58.000000 89.298 -7.8474
59.000000 89.266 -8.8691
60.000000 89.091 -9.3926
60.799999 89.017 -8.8196
61.500000 89.064 -8.4029
62.200001 89.121 -8.4474
63.000000 89.132 -8.6038
64.000000 89.117 -8.5000
65.000000 89.112 -8.3552
66.000000 89.096 -8.3345
67.000000 89.057 -8.3777
68.000000 89.016 -8.4096
69.000000 88.984 -8.5363
70.000000 88.942 -8.7087
71.000000 88.902 -8.7650
72.000000 88.877 -8.7581
73.000000 88.858 -8.7721
74.000000 88.833 -8.7837
75.000000 88.802 -8.7922
76.199997 88.762 -8.7686
77.500000 88.734 -8.7935
78.800003 88.707 -8.9619
80.000000 88.677 -9.1084
81.199997 88.650 -9.2056
82.500000 88.619 -9.2849
83.800003 88.575 -9.2685
85.000000 88.537 -9.1592
86.199997 88.509 -9.0472
87.500000 88.485 -9.0158
88.500000 88.465 -9.0478
90.000000 88.429 -9.0812
91.199997 88.405 -9.0653
92.500000 88.382 -9.0667
93.800003 88.350 -9.0901
95.000000 88.314 -9.0606
96.199997 88.292 -9.0133
97.500000 88.283 -9.0883
98.800003 88.267 -9.2289
100.000000 88.247 -9.2610
101.500000 88.230 -9.1642
103.000000 88.207 -9.0447
104.400002 88.168 -8.9701
106.000000 88.108 -8.9416
107.500000 88.065 -8.9436
109.000000 88.048 -9.0358
110.599998 88.039 -9.1180
112.000000 88.025 -9.1079
113.800003 87.987 -8.9697
115.000000 87.957 -8.8724
117.199997 87.941 -8.9440
118.000000 87.948 -9.1635
120.599998 87.874 -9.9203
122.000000 87.820 -9.5851
124.099998 87.803 -8.8914
125.000000 87.796 -8.6874
126.500000 87.771 -8.4929
128.000000 87.736 -8.4174
131.500000 87.679 -8.3763
132.000000 87.673 -8.3690
134.000000 87.652 -8.3398
136.000000 87.627 -8.3546
138.000000 87.601 -8.3436
140.000000 87.583 -8.3032
143.000000 87.555 -8.2092
145.000000 87.531 -8.1564
147.500000 87.491 -8.0302
150.000000 87.460 -7.8270
152.500000 87.437 -7.6910
155.000000 87.414 -7.5997
157.500000 87.386 -7.3900
160.000000 87.361 -7.2166
162.500000 87.324 -7.2302
165.000000 87.287 -7.2180
167.500000 87.273 -7.0737
170.000000 87.262 -6.9056
172.500000 87.237 -6.8025
175.000000 87.203 -6.6539
177.500000 87.178 -6.3990
180.000000 87.163 -6.1481
182.500000 87.139 -6.0806
185.000000 87.096 -6.0421
187.500000 87.057 -5.9410
190.000000 87.024 -5.8760
192.500000 86.999 -5.8530
195.000000 86.982 -5.8198
197.500000 86.959 -5.7158
200.000000 86.925 -5.4878
203.000000 86.899 -5.2286
206.000000 86.890 -5.1114
209.000000 86.872 -4.9819
212.000000 86.835 -4.7548
214.000000 86.809 -4.6101
218.000000 86.771 -4.3596
220.000000 86.756 -4.2195
224.000000 86.723 -3.9825
227.000000 86.702 -3.8051
230.000000 86.682 -3.6184
233.000000 86.640 -3.5104
236.000000 86.601 -3.4778
240.000000 86.588 -3.4680
243.000000 86.572 -3.2720
247.000000 86.540 -2.8412
250.000000 86.517 -2.5377
254.000000 86.492 -2.1248
258.000000 86.468 -1.7815
262.000000 86.444 -1.6403
265.000000 86.431 -1.6055
269.000000 86.421 -1.4805
272.000000 86.406 -1.2911
276.000000 86.375 -0.9913
280.000000 86.345 -0.7378
285.000000 86.339 -0.4611
290.000000 86.329 -0.0515
295.000000 86.303 0.3018
300.000000 86.297 0.7253
304.000000 86.275 1.0153
307.000000 86.252 1.1951
311.000000 86.241 1.4297
315.000000 86.243 1.6910
320.000000 86.237 2.0599
325.000000 86.216 2.3446
330.000000 86.189 2.5381
335.000000 86.163 2.8231
340.000000 86.141 3.2386
345.000000 86.127 3.6271
350.000000 86.108 3.9134
355.000000 86.082 4.2194
360.000000 86.060 4.6125
365.000000 86.056 4.9107
370.000000 86.046 5.1267
375.000000 86.038 5.3942
382.000000 86.022 5.8210
387.000000 86.007 6.1883
395.000000 85.965 6.8110
400.000000 85.947 7.0852
406.000000 85.945 7.3793
412.000000 85.938 7.7116
418.000000 85.915 8.0491
425.000000 85.891 8.5315
431.000000 85.888 9.0211
437.000000 85.882 9.4575
444.000000 85.864 9.9026
450.000000 85.849 10.2457
455.000000 85.836 10.5146
462.000000 85.823 10.9464
468.000000 85.817 11.3837
475.000000 85.814 11.9315
482.000000 85.812 12.5088
487.000000 85.807 12.8282
494.000000 85.794 13.2098
500.000000 85.789 13.5552
508.000000 85.793 14.0392
515.000000 85.793 14.5472
522.000000 85.785 14.9939
530.000000 85.781 15.4075
538.000000 85.788 15.8792
545.000000 85.800 16.3319
552.000000 85.815 16.8173
560.000000 85.822 17.3661
570.000000 85.822 18.0803
580.000000 85.839 18.7102
590.000000 85.864 19.2926
600.000000 85.892 19.9200
608.000000 85.916 20.3749
615.000000 85.938 20.7594
622.000000 85.958 21.1157
630.000000 85.986 21.3840
640.000000 86.031 21.4990
650.000000 86.055 21.2413
660.000000 85.967 20.6484
670.000000 85.709 20.6561
680.000000 85.452 22.0291
690.000000 85.367 24.0298
700.000000 85.406 25.6740
710.000000 85.480 26.8057
720.000000 85.542 27.6354
730.000000 85.585 28.3714
740.000000 85.600 29.1076
750.000000 85.601 29.8895
762.000000 85.611 31.0237
775.000000 85.648 32.5380
788.000000 85.718 33.8759
800.000000 85.791 34.8028
812.000000 85.862 35.6822
825.000000 85.937 36.6298
838.000000 86.015 37.5026
850.000000 86.086 38.3321
862.000000 86.154 39.1331
875.000000 86.225 39.9393
885.000000 86.280 40.5466
900.000000 86.371 41.4640
912.000000 86.443 42.2444
925.000000 86.520 43.0871
938.000000 86.601 43.9039
950.000000 86.673 44.6281
962.000000 86.748 45.3284
975.000000 86.840 45.9985
988.000000 86.934 46.6318
1000.000000 87.020 47.2249
1015.000000 87.126 47.9307
1030.000000 87.226 48.6364
1044.000000 87.322 49.2763
1060.000000 87.439 49.8947
1075.000000 87.550 50.4325
1090.000000 87.664 50.9650
1106.000000 87.790 51.4985
1120.000000 87.900 51.9480
1138.000000 88.037 52.4567
1150.000000 88.130 52.7594
1172.000000 88.305 53.3241
1180.000000 88.367 53.5306
1206.000000 88.551 54.1536
1220.000000 88.648 54.4459
1241.000000 88.803 54.8357
1250.000000 88.869 55.0104
1265.000000 88.976 55.3125
1280.000000 89.079 55.5994
1315.000000 89.297 56.2516
1320.000000 89.327 56.3383
1340.000000 89.440 56.6709
1360.000000 89.537 57.0070
1380.000000 89.632 57.3300
1400.000000 89.740 57.6356
1430.000000 89.903 58.1229
1450.000000 90.008 58.4817
1475.000000 90.137 58.9167
1500.000000 90.266 59.3415
1525.000000 90.389 59.7581
1550.000000 90.501 60.1577
1575.000000 90.619 60.5754
1600.000000 90.737 60.9768
1625.000000 90.853 61.3412
1650.000000 90.966 61.7236
1675.000000 91.081 62.1360
1700.000000 91.194 62.5296
1725.000000 91.305 62.8991
1750.000000 91.417 63.2524
1775.000000 91.532 63.5980
1800.000000 91.646 63.9461
1825.000000 91.765 64.3093
1850.000000 91.886 64.6572
1875.000000 92.007 64.9535
1900.000000 92.130 65.2141
1925.000000 92.251 65.4366
1950.000000 92.368 65.6173
1975.000000 92.481 65.7817
2000.000000 92.594 65.9435
2030.000000 92.729 66.1242
2060.000000 92.862 66.2494
2090.000000 92.992 66.3448
2120.000000 93.118 66.4371
2140.000000 93.200 66.4893
2180.000000 93.364 66.5638
2200.000000 93.443 66.5875
2240.000000 93.599 66.5722
2270.000000 93.714 66.5434
2300.000000 93.822 66.4879
2330.000000 93.925 66.4025
2360.000000 94.026 66.2950
2400.000000 94.154 66.1192
2430.000000 94.244 65.9674
2470.000000 94.358 65.7373
2500.000000 94.438 65.5539
2540.000000 94.534 65.2860
2580.000000 94.620 65.0079
2620.000000 94.703 64.7141
2650.000000 94.760 64.4825
2690.000000 94.822 64.1913
2720.000000 94.859 63.9811
2760.000000 94.901 63.7108
2800.000000 94.932 63.4643
2850.000000 94.957 63.2133
2900.000000 94.972 63.0760
2950.000000 94.980 63.0877
3000.000000 94.987 63.2969
3040.000000 95.008 63.6145
3070.000000 95.043 63.9057
3110.000000 95.121 64.2818
3150.000000 95.232 64.5101
3200.000000 95.390 64.4320
3250.000000 95.531 63.9888
3300.000000 95.632 63.3341
3350.000000 95.697 62.6276
3400.000000 95.741 61.9561
3450.000000 95.774 61.3080
3500.000000 95.799 60.6844
3550.000000 95.815 60.0746
3600.000000 95.822 59.4698
3650.000000 95.821 58.8690
3700.000000 95.813 58.2639
3750.000000 95.797 57.6376
3820.000000 95.756 56.7169
3870.000000 95.707 56.0435
3950.000000 95.593 54.9876
4000.000000 95.503 54.3445
4060.000000 95.377 53.6041
4120.000000 95.227 52.9162
4180.000000 95.054 52.3234
4250.000000 94.824 51.8212
4310.000000 94.612 51.5873
4370.000000 94.390 51.5283
4440.000000 94.126 51.6308
4500.000000 93.907 51.8241
4550.000000 93.730 52.0421
4620.000000 93.496 52.3967
4680.000000 93.306 52.7102
4750.000000 93.088 53.0048
4820.000000 92.859 53.1968
4870.000000 92.679 53.3001
4940.000000 92.396 53.4988
5000.000000 92.127 53.8102
5080.000000 91.744 54.5128
5150.000000 91.402 55.3916
5220.000000 91.061 56.4894
5300.000000 90.681 58.0296
5380.000000 90.320 59.8332
5450.000000 90.022 61.5832
5520.000000 89.742 63.4671
5600.000000 89.447 65.7766
5700.000000 89.114 68.8730
5800.000000 88.819 72.1611
5900.000000 88.568 75.6066
6000.000000 88.363 79.1945
6080.000000 88.230 82.1757
6150.000000 88.138 84.8174
6220.000000 88.073 87.4764
6300.000000 88.029 90.5750
6400.000000 88.018 94.4996
6500.000000 88.063 98.4433
6600.000000 88.166 102.3717
6700.000000 88.328 106.2419
6800.000000 88.560 110.0699
6900.000000 88.884 113.7957
7000.000000 89.309 117.3397
7100.000000 89.825 120.6354
7200.000000 90.431 123.5815
7300.000000 91.133 126.0273
7400.000000 91.931 127.7785
7500.000000 92.828 128.5842
7620.000000 94.019 127.8339
7750.000000 95.312 124.0777
7880.000000 96.293 116.6235
8000.000000 96.684 107.0085
8120.000000 96.455 96.7446
8250.000000 95.568 87.5934
8380.000000 94.270 81.9669
8500.000000 92.947 79.8425
8620.000000 91.654 80.0184
8750.000000 90.364 82.0595
8850.000000 89.471 84.5951
9000.000000 88.308 89.5730
9120.000000 87.543 94.2316
9250.000000 86.874 99.5810
9380.000000 86.352 105.1676
9500.000000 85.998 110.2910
9620.000000 85.738 115.1947
9750.000000 85.552 120.3597
9880.000000 85.460 125.3758
10000.000000 85.454 129.7837
10150.000000 85.538 134.8792
10300.000000 85.704 139.3708
10440.000000 85.919 142.9350
10600.000000 86.208 146.2000
10750.000000 86.479 148.4708
10900.000000 86.716 150.0855
11060.000000 86.909 151.3240
11200.000000 87.034 152.2990
11380.000000 87.190 153.5456
11500.000000 87.316 154.2417
11720.000000 87.585 154.9549
11800.000000 87.692 155.0089
12060.000000 88.085 154.0506
12200.000000 88.288 152.4649
12410.000000 88.433 148.2747
12500.000000 88.390 145.8734
12650.000000 88.126 141.4750
12800.000000 87.594 137.2967
13150.000000 85.516 132.4391
13200.000000 85.168 132.4823
13400.000000 83.788 134.3599
13600.000000 82.539 138.4016
13800.000000 81.506 143.8625
14000.000000 80.704 150.0105
14300.000000 79.866 159.3165
14500.000000 79.485 165.1468
14750.000000 79.070 171.8404
15000.000000 78.682 178.5641
15250.000000 78.421 -174.8225
15500.000000 78.307 -168.8290
15750.000000 78.354 -163.5469
16000.000000 78.510 -159.6511
16250.000000 78.657 -157.7300
16500.000000 78.636 -157.8317
16750.000000 78.369 -158.9412
17000.000000 77.955 -160.4554
17250.000000 77.626 -170.8706
17500.000000 77.598 113.0456
17750.000000 78.039 -141.4162
18000.000000 78.708 -134.6790
18250.000000 78.588 143.2028
18500.000000 77.692 158.1045
18750.000000 76.306 72.5835
19000.000000 74.628 158.2900
19250.000000 72.935 168.6423
19500.000000 71.517 -125.6162
19750.000000 70.895 -167.9697
20000.000000 70.751 -168.3159
