* Measurement data measured by REW V5.20.13
* Source: Microphone (Realtek(R) Audio), MICROPHONE (Master Volume), L, volume: 0.710. Timing signal peak level -37.7 dBFS, measurement signal peak level -37.3 dBFS
* Format: 2M Log Swept Sine, 1 sweep at -12.0 dBFS using an acoustic timing reference
* Dated: Sep 7, 2023 4:14:42 PM
* REW Settings:
*  C-weighting compensation: Off
*  Target level: 75.0 dB
* Note: ; Delay -0.0532 ms (-18 mm, -0.72 in) using estimated IR delay relative to Acoustic reference played from HEADPHONE R with no timing offset Clock adjustment: 120.6 ppm
* Measurement: KZ Krila UDUD R
* Smoothing: 1/48 octave
* Frequency Step: 1/96 octave
* Start Frequency: 20.000 Hz
*
* Freq(Hz) SPL(dB) Phase(degrees)
20.000000 94.888 5.1971
20.144928 94.878 4.9812
20.290907 94.869 4.7636
20.437943 94.861 4.5454
20.586044 94.854 4.3248
20.735220 94.846 4.1025
20.885475 94.838 3.8754
21.036821 94.830 3.6399
21.189262 94.820 3.4014
21.342808 94.809 3.1658
21.497467 94.797 2.9317
21.653246 94.785 2.7063
21.810154 94.772 2.4923
21.968201 94.760 2.2819
22.127390 94.749 2.0721
22.287735 94.740 1.8626
22.449242 94.732 1.6501
22.611917 94.725 1.4347
22.775772 94.719 1.2067
22.940815 94.714 0.9664
23.107054 94.707 0.7117
23.274498 94.699 0.4381
23.443153 94.689 0.1587
23.613033 94.676 -0.1215
23.784142 94.660 -0.3978
23.956491 94.642 -0.6618
24.130091 94.623 -0.9130
24.304947 94.603 -1.1438
24.481071 94.583 -1.3561
24.658470 94.564 -1.5491
24.837156 94.548 -1.7255
25.017136 94.534 -1.9010
25.198421 94.522 -2.0747
25.381020 94.512 -2.2563
25.564941 94.505 -2.4451
25.750195 94.497 -2.6439
25.936790 94.490 -2.8525
26.124741 94.481 -3.0716
26.314051 94.473 -3.2993
26.504732 94.462 -3.5254
26.696796 94.451 -3.7509
26.890253 94.439 -3.9735
27.085112 94.427 -4.1952
27.281382 94.414 -4.4191
27.479073 94.401 -4.6433
27.678198 94.386 -4.8666
27.878765 94.370 -5.0888
28.080786 94.353 -5.3102
28.284271 94.334 -5.5242
28.489231 94.314 -5.7293
28.695675 94.293 -5.9181
28.903616 94.273 -6.0918
29.113064 94.254 -6.2536
29.324028 94.237 -6.4081
29.536524 94.222 -6.5588
29.750557 94.210 -6.7162
29.966141 94.198 -6.8836
30.183289 94.186 -7.0696
30.402010 94.172 -7.2706
30.622314 94.157 -7.4817
30.844217 94.138 -7.6940
31.067726 94.118 -7.9033
31.292856 94.096 -8.0997
31.519617 94.074 -8.2823
31.748020 94.052 -8.4468
31.978081 94.033 -8.6040
32.209808 94.016 -8.7586
32.443211 94.002 -8.9225
32.678310 93.988 -9.0997
32.915108 93.975 -9.2930
33.153625 93.959 -9.5012
33.393871 93.941 -9.7145
33.635857 93.919 -9.9246
33.879597 93.897 -10.1205
34.125103 93.875 -10.3018
34.372387 93.853 -10.4680
34.621464 93.832 -10.6232
34.872345 93.814 -10.7740
35.125042 93.797 -10.9262
35.379574 93.780 -11.0853
35.635948 93.765 -11.2497
35.894180 93.749 -11.4193
36.154285 93.732 -11.5940
36.416275 93.716 -11.7758
36.680161 93.699 -11.9673
36.945961 93.681 -12.1720
37.213688 93.660 -12.3917
37.483353 93.635 -12.6149
37.754974 93.605 -12.8291
38.028561 93.571 -13.0164
38.304131 93.536 -13.1610
38.581699 93.502 -13.2631
38.861279 93.474 -13.3325
39.142883 93.454 -13.3928
39.426529 93.442 -13.4808
39.712231 93.433 -13.6168
40.000000 93.424 -13.8064
40.289856 93.409 -14.0406
40.581814 93.387 -14.2870
40.875885 93.357 -14.5081
41.172089 93.323 -14.6844
41.470440 93.290 -14.8122
41.770950 93.262 -14.9045
42.073643 93.241 -14.9909
42.378525 93.225 -15.1002
42.685616 93.210 -15.2410
42.994934 93.194 -15.4070
43.306492 93.175 -15.5824
43.620308 93.153 -15.7495
43.936401 93.129 -15.8991
44.254780 93.106 -16.0379
44.575470 93.085 -16.1787
44.898483 93.063 -16.3304
45.223835 93.040 -16.4912
45.551544 93.014 -16.6490
45.881630 92.986 -16.7889
46.214108 92.958 -16.9047
46.548996 92.933 -17.0049
46.886307 92.912 -17.1103
47.226067 92.894 -17.2416
47.568283 92.875 -17.4018
47.912983 92.851 -17.5711
48.260181 92.822 -17.7199
48.609894 92.792 -17.8282
48.962143 92.766 -17.9034
49.316940 92.747 -17.9784
49.674313 92.732 -18.0889
50.034271 92.716 -18.2468
50.396843 92.692 -18.4289
50.762039 92.659 -18.5908
51.129883 92.621 -18.6989
51.500389 92.586 -18.7548
51.873581 92.555 -18.7904
52.249481 92.529 -18.8387
52.628101 92.504 -18.9058
53.009464 92.478 -18.9783
53.393593 92.454 -19.0552
53.780506 92.434 -19.1638
54.170223 92.412 -19.3367
54.562763 92.382 -19.5645
54.958145 92.339 -19.7809
55.356396 92.290 -19.9120
55.757530 92.250 -19.9541
56.161572 92.230 -20.0000
56.568542 92.222 -20.1580
56.978462 92.205 -20.4266
57.391350 92.171 -20.6700
57.807232 92.137 -20.7560
58.226128 92.136 -20.7420
58.648056 92.174 -20.8855
59.073048 92.219 -21.4228
59.501114 92.209 -22.2966
59.932281 92.111 -23.1024
60.366577 91.955 -23.3698
60.804020 91.818 -22.9649
61.244629 91.766 -22.2275
61.688435 91.797 -21.6950
62.135452 91.845 -21.6337
62.585712 91.850 -21.8528
63.039234 91.810 -21.9911
63.496040 91.761 -21.8898
63.956161 91.738 -21.6852
64.419617 91.734 -21.6040
64.886421 91.724 -21.6988
65.356621 91.690 -21.8436
65.830215 91.642 -21.9015
66.307251 91.600 -21.8703
66.787743 91.572 -21.8457
67.271713 91.552 -21.9066
67.759193 91.528 -22.0475
68.250206 91.494 -22.2101
68.744774 91.455 -22.3415
69.242928 91.416 -22.4282
69.744690 91.382 -22.4922
70.250084 91.353 -22.5638
70.759148 91.324 -22.6487
71.271896 91.291 -22.7216
71.788361 91.257 -22.7535
72.308571 91.226 -22.7488
72.832550 91.203 -22.7494
73.360321 91.183 -22.7989
73.891922 91.158 -22.8994
74.427376 91.124 -23.0082
74.966705 91.084 -23.0794
75.509949 91.046 -23.1070
76.057121 91.014 -23.1308
76.608261 90.985 -23.1909
77.163399 90.953 -23.2799
77.722557 90.916 -23.3571
78.285767 90.876 -23.3975
78.853058 90.839 -23.4021
79.424461 90.806 -23.3811
80.000000 90.779 -23.3518
80.579712 90.756 -23.3421
81.163628 90.733 -23.3669
81.751770 90.708 -23.4088
82.344177 90.679 -23.4554
82.940880 90.647 -23.5186
83.541901 90.609 -23.5863
84.147285 90.565 -23.6083
84.757050 90.527 -23.5742
85.371231 90.498 -23.5472
85.989868 90.471 -23.5680
86.612984 90.439 -23.5903
87.240616 90.407 -23.5774
87.872803 90.382 -23.5590
88.509560 90.358 -23.5617
89.150940 90.334 -23.5647
89.796967 90.311 -23.5740
90.447670 90.288 -23.6225
91.103088 90.256 -23.6852
91.763260 90.218 -23.7054
92.428215 90.185 -23.7002
93.097992 90.153 -23.7214
93.772614 90.116 -23.7599
94.452133 90.074 -23.7659
95.136566 90.034 -23.7202
95.825966 90.000 -23.6399
96.520363 89.975 -23.5677
97.219788 89.953 -23.5305
97.924286 89.928 -23.4937
98.633881 89.906 -23.4312
99.348625 89.890 -23.3992
100.068542 89.870 -23.4292
100.793686 89.840 -23.4655
101.524078 89.806 -23.4894
102.259766 89.766 -23.5166
103.000778 89.719 -23.4935
103.747162 89.679 -23.3976
104.498962 89.654 -23.3350
105.256203 89.627 -23.3586
106.018929 89.592 -23.3728
106.787186 89.558 -23.3383
107.561012 89.527 -23.3201
108.340446 89.489 -23.2834
109.125526 89.456 -23.1606
109.916290 89.442 -23.0797
110.712791 89.423 -23.1554
111.515060 89.383 -23.2450
112.323143 89.339 -23.2339
113.137085 89.304 -23.1840
113.956924 89.277 -23.1160
114.782700 89.259 -23.0623
115.614464 89.237 -23.0405
116.452255 89.204 -22.9137
117.296112 89.179 -22.6883
118.146095 89.153 -22.4171
119.002228 89.140 -22.0151
119.864563 89.167 -21.8031
120.733154 89.166 -22.0622
121.608040 89.090 -22.3098
122.489258 89.004 -22.2444
123.376869 88.947 -22.1346
124.270905 88.904 -22.0874
125.171425 88.876 -22.0677
126.078468 88.860 -22.1229
126.992081 88.837 -22.2352
127.912323 88.801 -22.2841
128.839233 88.760 -22.1880
129.772842 88.731 -21.9990
130.713242 88.712 -21.8403
131.660431 88.689 -21.7537
132.614502 88.663 -21.6762
133.575485 88.641 -21.6348
134.543427 88.615 -21.6698
135.518387 88.580 -21.6901
136.500412 88.544 -21.6275
137.489548 88.518 -21.5055
138.485855 88.501 -21.4017
139.489380 88.484 -21.3364
140.500168 88.463 -21.2747
141.518295 88.440 -21.2033
142.543793 88.417 -21.0694
143.576721 88.406 -20.9033
144.617142 88.397 -20.7934
145.665100 88.378 -20.6990
146.720642 88.350 -20.5873
147.783844 88.316 -20.4672
148.854752 88.277 -20.3711
149.933411 88.232 -20.2746
151.019897 88.197 -20.1407
152.114243 88.178 -20.0804
153.216522 88.161 -20.0698
154.326797 88.144 -20.0249
155.445114 88.129 -19.9364
156.571533 88.112 -19.7955
157.706116 88.095 -19.6209
158.848923 88.075 -19.4950
160.000000 88.042 -19.3946
161.159424 88.009 -19.2853
162.327255 87.982 -19.2444
163.503540 87.950 -19.2643
164.688354 87.913 -19.2270
165.881760 87.883 -19.1154
167.083801 87.860 -18.9310
168.294571 87.847 -18.7188
169.514099 87.836 -18.5160
170.742462 87.826 -18.3367
171.979736 87.810 -18.2327
173.225967 87.777 -18.1581
174.481232 87.740 -18.0240
175.745605 87.713 -17.9050
177.019119 87.687 -17.8345
178.301880 87.661 -17.7531
179.593933 87.639 -17.6597
180.895340 87.618 -17.5351
182.206177 87.595 -17.4011
183.526520 87.566 -17.2296
184.856430 87.541 -17.0402
186.195984 87.519 -16.9025
187.545227 87.497 -16.8313
188.904266 87.469 -16.7604
190.273132 87.448 -16.6263
191.651932 87.433 -16.5110
193.040726 87.410 -16.4268
194.439575 87.374 -16.2894
195.848572 87.345 -16.0916
197.267761 87.331 -15.9773
198.697250 87.311 -15.9327
200.137085 87.289 -15.7803
201.587372 87.280 -15.5704
203.048157 87.268 -15.3972
204.519531 87.245 -15.2414
206.001556 87.216 -15.1035
207.494324 87.191 -14.9851
208.997925 87.170 -14.8732
210.512405 87.152 -14.7247
212.037857 87.135 -14.5149
213.574371 87.116 -14.2760
215.122025 87.096 -14.0830
216.680893 87.070 -13.9822
218.251053 87.037 -13.9139
219.832581 87.008 -13.7914
221.425583 86.998 -13.5882
223.030121 87.002 -13.4373
224.646286 86.997 -13.3374
226.274170 86.981 -13.2463
227.913849 86.955 -13.1295
229.565399 86.924 -12.9405
231.228928 86.897 -12.6844
232.904510 86.875 -12.4315
234.592224 86.851 -12.2458
236.292191 86.824 -12.1610
238.004456 86.791 -12.1823
239.729126 86.754 -12.1960
241.466309 86.734 -12.0812
243.216080 86.736 -11.9199
244.978516 86.742 -11.7151
246.753738 86.743 -11.4570
248.541809 86.732 -11.1849
250.342850 86.711 -10.9455
252.156937 86.686 -10.7687
253.984161 86.663 -10.6323
255.824646 86.647 -10.4664
257.678467 86.638 -10.2498
259.545685 86.628 -10.0438
261.426483 86.605 -9.8707
263.320862 86.581 -9.7228
265.229004 86.564 -9.5911
267.150970 86.556 -9.3900
269.086853 86.557 -9.1433
271.036774 86.550 -8.9392
273.000824 86.534 -8.7660
274.979095 86.517 -8.6334
276.971710 86.496 -8.4947
278.978760 86.473 -8.3284
281.000336 86.444 -8.1673
283.036591 86.417 -8.0378
285.087585 86.400 -7.8753
287.153442 86.403 -7.6652
289.234283 86.409 -7.4978
291.330200 86.401 -7.3402
293.441284 86.390 -7.1622
295.567688 86.387 -6.9623
297.709503 86.386 -6.6930
299.866821 86.385 -6.4029
302.039795 86.373 -6.2375
304.228485 86.347 -6.1436
306.433044 86.325 -6.0595
308.653595 86.298 -5.9239
310.890228 86.267 -5.6528
313.143066 86.251 -5.3570
315.412231 86.248 -5.1534
317.697845 86.247 -4.9663
320.000000 86.250 -4.7447
322.318848 86.255 -4.5755
324.654510 86.248 -4.4718
327.007080 86.228 -4.3146
329.376709 86.214 -4.0838
331.763519 86.213 -3.8729
334.167603 86.210 -3.6617
336.589142 86.194 -3.4119
339.028198 86.169 -3.1860
341.484924 86.154 -3.0041
343.959473 86.159 -2.8210
346.451935 86.165 -2.5916
348.962463 86.156 -2.3500
351.491211 86.140 -2.1419
354.038239 86.127 -1.9762
356.603760 86.110 -1.8461
359.187866 86.088 -1.7720
361.790680 86.067 -1.6238
364.412354 86.066 -1.3205
367.053040 86.069 -1.0440
369.712860 86.057 -0.8735
372.391968 86.041 -0.7358
375.090454 86.029 -0.5545
377.808533 86.022 -0.3319
380.546265 86.027 -0.1075
383.303864 86.036 0.0958
386.081451 86.026 0.3291
388.879150 86.003 0.5976
391.697144 85.984 0.7841
394.535522 85.972 0.9313
397.394501 85.968 1.1731
400.274170 85.971 1.4898
403.174744 85.971 1.7792
406.096313 85.963 2.0444
409.039062 85.946 2.3020
412.003113 85.929 2.5027
414.988647 85.922 2.6581
417.995850 85.917 2.8923
421.024811 85.907 3.2227
424.075714 85.896 3.4306
427.148743 85.887 3.5425
430.244049 85.883 3.7415
433.361786 85.876 3.9974
436.502106 85.865 4.2093
439.665161 85.860 4.4009
442.851166 85.859 4.6531
446.060242 85.855 4.9412
449.292572 85.845 5.1823
452.548340 85.835 5.4035
455.827698 85.831 5.6462
459.130798 85.822 5.9395
462.457855 85.807 6.2604
465.809021 85.797 6.4881
469.184448 85.792 6.6433
472.584381 85.793 6.8543
476.008911 85.802 7.1144
479.458252 85.815 7.3555
482.932617 85.812 7.5584
486.432159 85.789 7.7567
489.957031 85.771 7.9657
493.507477 85.774 8.2119
497.083618 85.781 8.5182
500.685699 85.785 8.8309
504.313873 85.782 9.1119
507.968323 85.770 9.3698
511.649292 85.755 9.5982
515.356934 85.747 9.8078
519.091370 85.747 10.0248
522.852966 85.750 10.2737
526.641724 85.755 10.6216
530.458008 85.760 10.9603
534.301941 85.761 11.1661
538.173706 85.761 11.2983
542.073547 85.761 11.5084
546.001648 85.751 11.8339
549.958191 85.738 12.1843
553.943420 85.735 12.5353
557.957520 85.740 12.8475
562.000671 85.744 13.1131
566.073181 85.748 13.3843
570.175171 85.756 13.6577
574.306885 85.763 13.8947
578.468567 85.765 14.1250
582.660400 85.772 14.3616
586.882568 85.783 14.5583
591.135376 85.795 14.8003
595.419006 85.804 15.1562
599.733643 85.803 15.5191
604.079590 85.793 15.7948
608.456970 85.794 16.0149
612.866089 85.807 16.2365
617.307190 85.819 16.5322
621.780457 85.824 16.9347
626.286133 85.829 17.3179
630.824463 85.839 17.5768
635.395691 85.846 17.7901
640.000000 85.854 17.9987
644.637695 85.875 18.1687
649.309021 85.909 18.3853
654.014160 85.939 18.5368
658.753418 85.949 18.5028
663.527039 85.962 18.4889
668.335205 85.994 18.5515
673.178284 86.028 18.4689
678.056396 86.039 18.1367
682.969849 86.001 17.5401
687.918945 85.895 16.8500
692.903870 85.694 16.4839
697.924927 85.423 16.8234
702.982422 85.173 18.0593
708.076477 85.036 19.8557
713.207520 85.023 21.6119
718.375732 85.069 23.0338
723.581360 85.133 24.0825
728.824707 85.214 24.8127
734.106079 85.299 25.4264
739.425720 85.367 25.9455
744.783936 85.420 26.3639
750.180908 85.479 26.8043
755.617065 85.534 27.2655
761.092529 85.572 27.6840
766.607727 85.591 28.0626
772.162903 85.603 28.4733
777.758301 85.619 28.9354
783.394287 85.639 29.3726
789.071045 85.665 29.7365
794.789001 85.699 30.0752
800.548340 85.734 30.4806
806.349487 85.760 30.9668
812.192627 85.779 31.4138
818.078125 85.798 31.7998
824.006226 85.826 32.1662
829.977295 85.856 32.5689
835.991699 85.879 33.0364
842.049622 85.903 33.4888
848.151428 85.934 33.8968
854.297485 85.965 34.3067
860.488098 85.992 34.7421
866.723572 86.022 35.2022
873.004211 86.061 35.6249
879.330322 86.102 35.9853
885.702332 86.130 36.3531
892.120483 86.154 36.7901
898.585144 86.177 37.2789
905.096680 86.205 37.7246
911.655396 86.248 38.0846
918.261597 86.297 38.4538
924.915710 86.340 38.8705
931.618042 86.374 39.3234
938.368896 86.406 39.7873
945.168762 86.449 40.2180
952.017822 86.497 40.5898
958.916504 86.543 40.9916
965.865234 86.594 41.4249
972.864319 86.640 41.8084
979.914062 86.678 42.1819
987.014954 86.721 42.5502
994.167236 86.772 42.8946
1001.371399 86.813 43.2289
1008.627747 86.851 43.5849
1015.936646 86.907 43.9454
1023.298584 86.964 44.2786
1030.713867 87.006 44.5945
1038.182739 87.050 44.9191
1045.705933 87.098 45.2570
1053.283447 87.147 45.5566
1060.916016 87.203 45.8921
1068.603882 87.258 46.2666
1076.347412 87.311 46.5972
1084.147095 87.361 46.8843
1092.003296 87.413 47.1599
1099.916382 87.470 47.4255
1107.886841 87.532 47.6612
1115.915039 87.592 47.8957
1124.001343 87.649 48.1727
1132.146362 87.709 48.4662
1140.350342 87.767 48.7296
1148.613770 87.826 48.9515
1156.937134 87.886 49.1153
1165.320801 87.946 49.2939
1173.765137 88.007 49.5349
1182.270752 88.064 49.7944
1190.838013 88.119 50.0130
1199.467285 88.171 50.1614
1208.159180 88.224 50.3615
1216.913940 88.287 50.6156
1225.732178 88.356 50.8346
1234.614380 88.425 51.0034
1243.560913 88.487 51.1618
1252.572266 88.543 51.3438
1261.648926 88.602 51.5443
1270.791382 88.663 51.7298
1280.000000 88.719 51.8800
1289.275391 88.772 52.0524
1298.618042 88.830 52.2618
1308.028320 88.887 52.4781
1317.506836 88.943 52.6561
1327.054077 88.999 52.7959
1336.670410 89.051 52.9413
1346.356567 89.098 53.1206
1356.112793 89.134 53.2825
1365.939697 89.161 53.4379
1375.837891 89.198 53.6435
1385.807739 89.250 53.8625
1395.849854 89.308 54.0679
1405.964844 89.369 54.2628
1416.152954 89.426 54.4470
1426.415039 89.474 54.6240
1436.751465 89.519 54.7901
1447.162720 89.569 54.9718
1457.649414 89.618 55.1967
1468.212158 89.662 55.4129
1478.851440 89.708 55.6085
1489.567871 89.760 55.7998
1500.361816 89.813 55.9932
1511.234131 89.864 56.1670
1522.185059 89.911 56.3589
1533.215454 89.957 56.5700
1544.325806 90.001 56.7873
1555.516602 90.046 57.0170
1566.788574 90.093 57.2520
1578.142090 90.142 57.4832
1589.578003 90.190 57.7080
1601.096680 90.236 57.9173
1612.698975 90.280 58.0938
1624.385254 90.329 58.2659
1636.156250 90.379 58.4851
1648.012451 90.426 58.7292
1659.954590 90.471 58.9906
1671.983398 90.516 59.2455
1684.099243 90.565 59.4937
1696.302856 90.618 59.7485
1708.594971 90.667 60.0197
1720.976196 90.710 60.3003
1733.447144 90.753 60.5587
1746.008423 90.797 60.8483
1758.660645 90.843 61.1763
1771.404663 90.895 61.4986
1784.240967 90.955 61.8351
1797.170288 91.017 62.2052
1810.193359 91.082 62.5571
1823.310791 91.158 62.8706
1836.523193 91.242 63.1859
1849.831421 91.328 63.4330
1863.236084 91.416 63.5964
1876.737793 91.501 63.7399
1890.337524 91.580 63.8815
1904.035645 91.655 63.9865
1917.833008 91.728 64.0546
1931.730469 91.800 64.1062
1945.728638 91.870 64.1464
1959.828125 91.938 64.2085
1974.029907 91.998 64.2924
1988.334473 92.054 64.3861
2002.742798 92.115 64.5050
2017.255493 92.178 64.6057
2031.873291 92.236 64.6553
2046.597168 92.291 64.7244
2061.427734 92.349 64.8293
2076.365479 92.409 64.9494
2091.411865 92.468 65.0862
2106.566895 92.523 65.2021
2121.832031 92.573 65.2915
2137.207764 92.628 65.3892
2152.694824 92.689 65.5037
2168.294189 92.747 65.6375
2184.006592 92.802 65.7679
2199.832764 92.856 65.8923
2215.773682 92.910 66.0225
2231.830078 92.969 66.1706
2248.002686 93.035 66.3519
2264.292725 93.103 66.5177
2280.700684 93.175 66.6621
2297.227539 93.253 66.7918
2313.874268 93.334 66.8951
2330.641602 93.415 66.9460
2347.530273 93.498 66.9370
2364.541504 93.580 66.8951
2381.676025 93.656 66.8254
2398.934570 93.725 66.7329
2416.318359 93.787 66.6214
2433.827881 93.845 66.5138
2451.464355 93.903 66.4291
2469.228760 93.960 66.3677
2487.121826 94.014 66.3065
2505.144531 94.070 66.2299
2523.297852 94.126 66.1393
2541.582764 94.182 66.0524
2560.000000 94.235 65.9840
2578.550781 94.285 65.9179
2597.236084 94.334 65.8201
2616.056641 94.380 65.7213
2635.013672 94.421 65.6285
2654.108154 94.462 65.5298
2673.340820 94.502 65.4380
2692.713135 94.538 65.3630
2712.225586 94.576 65.3130
2731.879395 94.616 65.3044
2751.675781 94.654 65.3335
2771.615479 94.694 65.3744
2791.699707 94.742 65.4134
2811.929688 94.801 65.4234
2832.305908 94.862 65.3787
2852.830078 94.923 65.2802
2873.502930 94.986 65.1464
2894.325439 95.045 64.9679
2915.298828 95.099 64.7417
2936.424316 95.147 64.4944
2957.702881 95.187 64.2236
2979.135742 95.221 63.9377
3000.723633 95.249 63.6627
3022.468262 95.272 63.4087
3044.370117 95.293 63.1832
3066.430908 95.309 62.9843
3088.651611 95.318 62.8133
3111.033203 95.328 62.6832
3133.577148 95.339 62.5864
3156.284180 95.350 62.5207
3179.156006 95.365 62.4926
3202.193359 95.386 62.4870
3225.397949 95.415 62.5003
3248.770508 95.455 62.5090
3272.312500 95.502 62.4895
3296.024902 95.555 62.4247
3319.909180 95.612 62.2930
3343.966797 95.669 62.0844
3368.198486 95.722 61.8239
3392.605713 95.770 61.4901
3417.189941 95.814 61.0980
3441.952393 95.856 60.6735
3466.894287 95.894 60.2235
3492.016846 95.923 59.7615
3517.321289 95.943 59.3030
3542.809326 95.954 58.8588
3568.481934 95.959 58.4262
3594.340576 95.962 57.9898
3620.386719 95.964 57.5605
3646.621582 95.961 57.1435
3673.046387 95.954 56.7335
3699.662842 95.948 56.3196
3726.472168 95.940 55.9067
3753.475586 95.927 55.4843
3780.675049 95.906 55.0522
3808.071289 95.883 54.6282
3835.666016 95.855 54.2126
3863.460938 95.822 53.7942
3891.457275 95.786 53.3613
3919.656250 95.748 52.9057
3948.059814 95.705 52.4541
3976.668945 95.655 52.0416
