* Measurement data measured by REW V5.20.13
* Source: Microphone (Realtek(R) Audio), MICROPHONE (Master Volume), L, volume: 0.710. Timing signal peak level -37.5 dBFS, measurement signal peak level -37.2 dBFS
* Format: 2M Log Swept Sine, 1 sweep at -12.0 dBFS using an acoustic timing reference
* Dated: Sep 7, 2023 3:41:47 PM
* REW Settings:
*  C-weighting compensation: Off
*  Target level: 75.0 dB
* Note: ; Delay -0.0551 ms (-19 mm, -0.74 in) using estimated IR delay relative to Acoustic reference played from HEADPHONE L with no timing offset Clock adjustment: 120.8 ppm
* Measurement: KZ Krila UUDD L
* Smoothing: 1/48 octave
* Frequency Step: 1/96 octave
* Start Frequency: 20.000 Hz
*
* Freq(Hz) SPL(dB) Phase(degrees)
20.000000 92.882 5.4920
20.144928 92.873 5.2668
20.290907 92.863 5.0397
20.437943 92.852 4.8135
20.586044 92.841 4.5945
20.735220 92.829 4.3821
20.885475 92.817 4.1734
21.036821 92.805 3.9671
21.189262 92.792 3.7648
21.342808 92.779 3.5676
21.497467 92.766 3.3756
21.653246 92.753 3.1898
21.810154 92.741 3.0119
21.968201 92.728 2.8364
22.127390 92.717 2.6591
22.287735 92.707 2.4826
22.449242 92.697 2.3096
22.611917 92.688 2.1392
22.775772 92.680 1.9666
22.940815 92.672 1.7929
23.107054 92.665 1.6108
23.274498 92.659 1.4176
23.443153 92.652 1.2165
23.613033 92.645 1.0085
23.784142 92.636 0.7941
23.956491 92.627 0.5732
24.130091 92.616 0.3486
24.304947 92.603 0.1257
24.481071 92.589 -0.0946
24.658470 92.573 -0.3026
24.837156 92.556 -0.5004
25.017136 92.539 -0.6902
25.198421 92.522 -0.8720
25.381020 92.506 -1.0477
25.564941 92.491 -1.2177
25.750195 92.476 -1.3867
25.936790 92.462 -1.5550
26.124741 92.448 -1.7298
26.314051 92.435 -1.9092
26.504732 92.420 -2.0870
26.696796 92.406 -2.2634
26.890253 92.391 -2.4357
27.085112 92.377 -2.6053
27.281382 92.363 -2.7738
27.479073 92.349 -2.9422
27.678198 92.336 -3.1104
27.878765 92.324 -3.2848
28.080786 92.313 -3.4690
28.284271 92.300 -3.6625
28.489231 92.287 -3.8654
28.695675 92.271 -4.0683
28.903616 92.254 -4.2695
29.113064 92.234 -4.4615
29.324028 92.214 -4.6410
29.536524 92.194 -4.8016
29.750557 92.174 -4.9471
29.966141 92.156 -5.0781
30.183289 92.139 -5.2075
30.402010 92.123 -5.3373
30.622314 92.109 -5.4732
30.844217 92.095 -5.6177
31.067726 92.081 -5.7722
31.292856 92.067 -5.9334
31.519617 92.052 -6.0972
31.748020 92.035 -6.2572
31.978081 92.019 -6.4130
32.209808 92.003 -6.5651
32.443211 91.987 -6.7161
32.678310 91.972 -6.8693
32.915108 91.956 -7.0271
33.153625 91.940 -7.1935
33.393871 91.923 -7.3641
33.635857 91.904 -7.5355
33.879597 91.885 -7.7032
34.125103 91.867 -7.8687
34.372387 91.849 -8.0335
34.621464 91.831 -8.2016
34.872345 91.812 -8.3770
35.125042 91.793 -8.5626
35.379574 91.771 -8.7556
35.635948 91.746 -8.9428
35.894180 91.718 -9.1138
36.154285 91.687 -9.2539
36.416275 91.659 -9.3596
36.680161 91.635 -9.4394
36.945961 91.617 -9.5078
37.213688 91.605 -9.6002
37.483353 91.598 -9.7326
37.754974 91.589 -9.9101
38.028561 91.576 -10.1249
38.304131 91.554 -10.3380
38.581699 91.527 -10.5145
38.861279 91.498 -10.6328
39.142883 91.475 -10.6881
39.426529 91.465 -10.7241
39.712231 91.468 -10.8013
40.000000 91.477 -10.9671
40.289856 91.484 -11.2504
40.581814 91.475 -11.6292
40.875885 91.444 -12.0184
41.172089 91.391 -12.3289
41.470440 91.326 -12.4918
41.770950 91.263 -12.4774
42.073643 91.217 -12.3238
42.378525 91.196 -12.1389
42.685616 91.197 -12.0205
42.994934 91.206 -12.0210
43.306492 91.211 -12.1378
43.620308 91.202 -12.3164
43.936401 91.178 -12.4798
44.254780 91.146 -12.5756
44.575470 91.116 -12.6067
44.898483 91.092 -12.6132
45.223835 91.075 -12.6382
45.551544 91.059 -12.7012
45.881630 91.040 -12.7903
46.214108 91.016 -12.8776
46.548996 90.993 -12.9464
46.886307 90.974 -13.0114
47.226067 90.961 -13.1121
47.568283 90.949 -13.2780
47.912983 90.929 -13.4976
48.260181 90.896 -13.7205
48.609894 90.854 -13.8851
48.962143 90.811 -13.9578
49.316940 90.778 -13.9556
49.674313 90.759 -13.9345
50.034271 90.753 -13.9563
50.396843 90.752 -14.0530
50.762039 90.747 -14.2121
51.129883 90.734 -14.3905
51.500389 90.713 -14.5413
51.873581 90.690 -14.6389
52.249481 90.670 -14.6906
52.628101 90.655 -14.7257
53.009464 90.644 -14.7779
53.393593 90.632 -14.8619
53.780506 90.612 -14.9592
54.170223 90.585 -15.0321
54.562763 90.555 -15.0578
54.958145 90.528 -15.0560
55.356396 90.505 -15.0764
55.757530 90.479 -15.1466
56.161572 90.442 -15.2298
56.568542 90.395 -15.2512
56.978462 90.354 -15.1911
57.391350 90.333 -15.1518
57.807232 90.323 -15.2925
58.226128 90.291 -15.6534
58.648056 90.208 -16.0420
59.073048 90.080 -16.1217
59.501114 89.960 -15.6799
59.932281 89.917 -14.8925
60.366577 89.973 -14.2601
60.804020 90.078 -14.1955
61.244629 90.154 -14.6934
61.688435 90.160 -15.3877
62.135452 90.112 -15.8774
62.585712 90.059 -16.0451
63.039234 90.037 -16.0691
63.496040 90.037 -16.1691
63.956161 90.033 -16.4007
64.419617 90.009 -16.6496
64.886421 89.970 -16.8001
65.356621 89.932 -16.8365
65.830215 89.901 -16.8085
66.307251 89.876 -16.7601
66.787743 89.857 -16.7154
67.271713 89.840 -16.7000
67.759193 89.819 -16.7208
68.250206 89.791 -16.7396
68.744774 89.759 -16.7085
69.242928 89.735 -16.6469
69.744690 89.720 -16.6380
70.250084 89.703 -16.7274
70.759148 89.669 -16.8390
71.271896 89.624 -16.8552
71.788361 89.588 -16.7580
72.308571 89.572 -16.6634
72.832550 89.566 -16.6844
73.360321 89.549 -16.7971
73.891922 89.518 -16.8923
74.427376 89.486 -16.9163
74.966705 89.460 -16.9122
75.509949 89.437 -16.9217
76.057121 89.414 -16.9299
76.608261 89.395 -16.9323
77.163399 89.380 -16.9740
77.722557 89.360 -17.0750
78.285767 89.326 -17.1705
78.853058 89.286 -17.1791
79.424461 89.253 -17.1055
80.000000 89.233 -17.0235
80.579712 89.223 -16.9990
81.163628 89.210 -17.0566
81.751770 89.186 -17.1526
82.344177 89.149 -17.1931
82.940880 89.113 -17.1237
83.541901 89.093 -17.0221
84.147285 89.084 -17.0075
84.757050 89.066 -17.0835
85.371231 89.034 -17.1440
85.989868 88.999 -17.1133
86.612984 88.974 -17.0305
87.240616 88.959 -16.9849
87.872803 88.944 -17.0162
88.509560 88.917 -17.0677
89.150940 88.884 -17.0579
89.796967 88.858 -16.9907
90.447670 88.842 -16.9425
91.103088 88.827 -16.9476
91.763260 88.806 -16.9625
92.428215 88.783 -16.9539
93.097992 88.761 -16.9298
93.772614 88.737 -16.8939
94.452133 88.714 -16.8336
95.136566 88.694 -16.7661
95.825966 88.674 -16.7321
96.520363 88.647 -16.7249
97.219788 88.613 -16.6965
97.924286 88.579 -16.6367
98.633881 88.550 -16.5789
99.348625 88.526 -16.5620
100.068542 88.502 -16.6160
100.793686 88.466 -16.6879
101.524078 88.425 -16.6435
102.259766 88.406 -16.4915
103.000778 88.412 -16.4268
103.747162 88.411 -16.4995
104.498962 88.389 -16.5299
105.256203 88.365 -16.4264
106.018929 88.349 -16.3015
106.787186 88.329 -16.2401
107.561012 88.291 -16.1603
108.340446 88.253 -16.0008
109.125526 88.228 -15.8888
109.916290 88.202 -15.9111
110.712791 88.164 -15.9671
111.515060 88.126 -16.0030
112.323143 88.090 -16.0115
113.137085 88.061 -15.9370
113.956924 88.046 -15.8423
114.782700 88.031 -15.7582
115.614464 88.016 -15.6172
116.452255 88.003 -15.4949
117.296112 87.982 -15.4365
118.146095 87.946 -15.4649
119.002228 87.868 -15.4820
119.864563 87.780 -15.0658
120.733154 87.783 -14.4815
121.608040 87.836 -14.4661
122.489258 87.837 -14.7194
123.376869 87.824 -14.7694
124.270905 87.828 -14.7890
125.171425 87.828 -14.8447
126.078468 87.817 -14.8848
126.992081 87.792 -14.8568
127.912323 87.768 -14.7397
128.839233 87.752 -14.6440
129.772842 87.734 -14.5761
130.713242 87.722 -14.5124
131.660431 87.715 -14.5120
132.614502 87.697 -14.5464
133.575485 87.666 -14.4771
134.543427 87.644 -14.3068
135.518387 87.628 -14.1845
136.500412 87.603 -14.0754
137.489548 87.581 -13.9377
138.485855 87.565 -13.8840
139.489380 87.543 -13.8745
140.500168 87.524 -13.8428
141.518295 87.509 -13.8314
142.543793 87.490 -13.7957
143.576721 87.472 -13.6683
144.617142 87.461 -13.5348
145.665100 87.445 -13.4059
146.720642 87.433 -13.2490
147.783844 87.427 -13.1710
148.854752 87.411 -13.1180
149.933411 87.397 -12.9967
151.019897 87.392 -12.8930
152.114243 87.379 -12.8303
153.216522 87.355 -12.7303
154.326797 87.328 -12.5833
155.445114 87.309 -12.4440
156.571533 87.293 -12.4109
157.706116 87.266 -12.4212
158.848923 87.239 -12.3416
160.000000 87.228 -12.2149
161.159424 87.226 -12.1010
162.327255 87.221 -11.9967
163.503540 87.209 -11.8791
164.688354 87.192 -11.7884
165.881760 87.161 -11.7099
167.083801 87.128 -11.5536
168.294571 87.112 -11.3721
169.514099 87.107 -11.2420
170.742462 87.103 -11.1386
171.979736 87.089 -11.0328
173.225967 87.066 -10.8764
174.481232 87.044 -10.7049
175.745605 87.028 -10.6244
177.019119 87.009 -10.7088
178.301880 86.976 -10.8724
179.593933 86.934 -10.9311
180.895340 86.907 -10.7922
182.206177 86.901 -10.5728
183.526520 86.900 -10.3164
184.856430 86.902 -10.0391
186.195984 86.902 -9.8501
187.545227 86.890 -9.7693
188.904266 86.868 -9.7377
190.273132 86.845 -9.7433
191.651932 86.818 -9.7626
193.040726 86.786 -9.6973
194.439575 86.759 -9.5205
195.848572 86.742 -9.2981
197.267761 86.732 -9.0736
198.697250 86.723 -8.8860
200.137085 86.714 -8.7110
201.587372 86.709 -8.5570
203.048157 86.705 -8.4136
204.519531 86.703 -8.2946
206.001556 86.695 -8.2029
207.494324 86.679 -8.0642
208.997925 86.667 -7.9191
210.512405 86.649 -7.8293
212.037857 86.623 -7.7046
213.574371 86.606 -7.5340
215.122025 86.595 -7.3667
216.680893 86.586 -7.1818
218.251053 86.576 -7.0365
219.832581 86.558 -6.9527
221.425583 86.533 -6.8914
223.030121 86.511 -6.7990
224.646286 86.505 -6.6561
226.274170 86.507 -6.5297
227.913849 86.497 -6.4000
229.565399 86.474 -6.2584
231.228928 86.441 -6.1404
232.904510 86.413 -6.0147
234.592224 86.402 -5.9186
236.292191 86.389 -5.8372
238.004456 86.364 -5.6188
239.729126 86.349 -5.2973
241.466309 86.356 -5.1527
243.216080 86.357 -5.2619
244.978516 86.347 -5.3605
246.753738 86.345 -5.2887
248.541809 86.351 -5.0936
250.342850 86.352 -4.8915
252.156937 86.336 -4.7578
253.984161 86.304 -4.6496
255.824646 86.272 -4.4939
257.678467 86.251 -4.2767
259.545685 86.246 -4.0397
261.426483 86.249 -3.8771
263.320862 86.251 -3.7951
265.229004 86.247 -3.7514
267.150970 86.233 -3.6679
269.086853 86.217 -3.5168
271.036774 86.202 -3.3629
273.000824 86.185 -3.2259
274.979095 86.167 -3.0599
276.971710 86.158 -2.8453
278.978760 86.160 -2.6264
281.000336 86.167 -2.4309
283.036591 86.169 -2.2571
285.087585 86.159 -2.1129
287.153442 86.135 -1.9554
289.234283 86.118 -1.7803
291.330200 86.112 -1.6525
293.441284 86.104 -1.4720
295.567688 86.096 -1.2155
297.709503 86.088 -1.0307
299.866821 86.070 -0.9839
302.039795 86.052 -0.9126
304.228485 86.052 -0.7692
306.433044 86.056 -0.5813
308.653595 86.053 -0.3780
310.890228 86.044 -0.2084
313.143066 86.032 -0.0442
315.412231 86.025 0.1456
317.697845 86.023 0.3287
320.000000 86.023 0.4572
322.318848 86.024 0.5861
324.654510 86.030 0.7396
327.007080 86.025 0.8849
329.376709 86.005 1.0534
331.763519 85.990 1.2479
334.167603 85.993 1.4450
336.589142 86.003 1.6555
339.028198 86.005 1.8957
341.484924 85.993 2.1319
343.959473 85.971 2.3378
346.451935 85.958 2.5136
348.962463 85.952 2.6733
351.491211 85.944 2.8281
354.038239 85.929 2.9272
356.603760 85.920 3.0283
359.187866 85.938 3.2208
361.790680 85.954 3.4337
364.412354 85.941 3.6755
367.053040 85.921 3.8689
369.712860 85.905 3.9894
372.391968 85.889 4.1626
375.090454 85.880 4.3915
377.808533 85.878 4.5940
380.546265 85.878 4.7741
383.303864 85.872 4.9605
386.081451 85.863 5.1683
388.879150 85.852 5.3731
391.697144 85.838 5.5767
394.535522 85.828 5.7837
397.394501 85.829 5.9987
400.274170 85.832 6.1877
403.174744 85.823 6.3299
406.096313 85.808 6.4700
409.039062 85.799 6.6672
412.003113 85.802 6.9205
414.988647 85.805 7.2172
417.995850 85.798 7.5623
421.024811 85.782 7.8411
424.075714 85.763 7.9696
427.148743 85.750 8.0762
430.244049 85.740 8.2570
433.361786 85.732 8.4838
436.502106 85.738 8.6940
439.665161 85.747 8.9084
442.851166 85.746 9.1468
446.060242 85.726 9.4016
449.292572 85.702 9.6842
452.548340 85.695 9.9103
455.827698 85.700 10.0398
459.130798 85.707 10.1763
462.457855 85.711 10.3851
465.809021 85.710 10.6486
469.184448 85.709 10.9400
472.584381 85.711 11.2174
476.008911 85.716 11.3921
479.458252 85.722 11.4848
482.932617 85.713 11.6849
486.432159 85.693 12.0181
489.957031 85.681 12.2827
493.507477 85.679 12.4999
497.083618 85.681 12.7412
500.685699 85.686 13.0103
504.313873 85.692 13.2998
507.968323 85.693 13.5698
511.649292 85.685 13.7930
515.356934 85.677 14.0082
519.091370 85.678 14.2478
522.852966 85.690 14.4890
526.641724 85.695 14.7485
530.458008 85.690 15.0363
534.301941 85.689 15.3707
538.173706 85.689 15.7692
542.073547 85.687 16.0613
546.001648 85.692 16.1520
549.958191 85.702 16.2770
553.943420 85.710 16.5590
557.957520 85.722 16.8604
562.000671 85.730 17.1376
566.073181 85.734 17.4339
570.175171 85.739 17.6994
574.306885 85.743 17.9408
578.468567 85.756 18.1688
582.660400 85.765 18.4001
586.882568 85.760 18.6710
591.135376 85.749 18.9668
595.419006 85.756 19.2358
599.733643 85.781 19.4402
604.079590 85.810 19.6635
608.456970 85.838 19.9531
612.866089 85.857 20.2437
617.307190 85.867 20.5222
621.780457 85.883 20.7700
626.286133 85.912 20.9405
630.824463 85.942 21.0732
635.395691 85.964 21.1832
640.000000 85.979 21.2552
644.637695 85.996 21.2464
649.309021 86.021 21.1213
654.014160 86.033 20.8352
658.753418 86.007 20.3653
663.527039 85.919 19.8617
668.335205 85.765 19.6467
673.178284 85.581 19.9828
678.056396 85.418 20.8726
682.969849 85.321 22.0786
687.918945 85.292 23.2599
692.903870 85.308 24.2284
697.924927 85.337 25.0022
702.982422 85.376 25.6959
708.076477 85.417 26.3676
713.207520 85.447 26.9386
718.375732 85.470 27.3957
723.581360 85.501 27.7750
728.824707 85.527 28.0645
734.106079 85.544 28.3462
739.425720 85.561 28.6525
744.783936 85.570 28.9832
750.180908 85.567 29.4201
755.617065 85.554 29.8981
761.092529 85.541 30.4154
766.607727 85.541 31.0517
772.162903 85.561 31.7646
777.758301 85.598 32.4965
783.394287 85.641 33.1755
789.071045 85.671 33.6939
794.789001 85.702 34.1450
800.548340 85.741 34.5736
806.349487 85.783 34.9866
812.192627 85.827 35.4053
818.078125 85.864 35.8218
824.006226 85.888 36.2726
829.977295 85.913 36.6621
835.991699 85.954 36.9878
842.049622 86.005 37.3699
848.151428 86.044 37.8105
854.297485 86.077 38.2696
860.488098 86.109 38.7418
866.723572 86.133 39.1612
873.004211 86.164 39.5445
879.330322 86.203 39.9548
885.702332 86.240 40.3598
892.120483 86.278 40.7560
898.585144 86.312 41.1343
905.096680 86.351 41.5260
911.655396 86.400 41.9513
918.261597 86.440 42.4207
924.915710 86.479 42.8982
931.618042 86.528 43.3701
938.368896 86.583 43.7796
945.168762 86.630 44.0653
952.017822 86.671 44.3678
958.916504 86.712 44.7578
965.865234 86.756 45.1813
972.864319 86.806 45.6153
979.914062 86.853 46.0554
987.014954 86.898 46.4595
994.167236 86.952 46.7718
1001.371399 87.010 47.0639
1008.627747 87.066 47.3817
1015.936646 87.124 47.7097
1023.298584 87.179 48.0462
1030.713867 87.226 48.3504
1038.182739 87.269 48.6457
1045.705933 87.318 48.9734
1053.283447 87.373 49.3208
1060.916016 87.429 49.6395
1068.603882 87.480 49.9084
1076.347412 87.529 50.1154
1084.147095 87.584 50.3532
1092.003296 87.652 50.6814
1099.916382 87.721 51.0332
1107.886841 87.787 51.3395
1115.915039 87.855 51.5958
1124.001343 87.922 51.8160
1132.146362 87.986 52.0383
1140.350342 88.046 52.2713
1148.613770 88.107 52.4730
1156.937134 88.171 52.6734
1165.320801 88.240 52.8961
1173.765137 88.305 53.1259
1182.270752 88.363 53.3467
1190.838013 88.428 53.5343
1199.467285 88.491 53.6864
1208.159180 88.548 53.8406
1216.913940 88.607 54.0024
1225.732178 88.675 54.1847
1234.614380 88.744 54.3945
1243.560913 88.812 54.6239
1252.572266 88.874 54.8253
1261.648926 88.929 54.9872
1270.791382 88.988 55.1368
1280.000000 89.052 55.3075
1289.275391 89.114 55.4970
1298.618042 89.173 55.6492
1308.028320 89.237 55.8091
1317.506836 89.306 55.9982
1327.054077 89.369 56.1368
1336.670410 89.432 56.2669
1346.356567 89.487 56.4100
1356.112793 89.526 56.5491
1365.939697 89.560 56.7154
1375.837891 89.605 56.8871
1385.807739 89.657 57.0371
1395.849854 89.708 57.1948
1405.964844 89.766 57.3844
1416.152954 89.827 57.5926
1426.415039 89.884 57.7710
1436.751465 89.936 57.9257
1447.162720 89.984 58.0913
1457.649414 90.038 58.2741
1468.212158 90.097 58.4611
1478.851440 90.155 58.6235
1489.567871 90.211 58.7721
1500.361816 90.268 58.9229
1511.234131 90.326 59.1318
1522.185059 90.386 59.3564
1533.215454 90.441 59.5508
1544.325806 90.490 59.7057
1555.516602 90.540 59.8688
1566.788574 90.589 60.0733
1578.142090 90.638 60.2535
1589.578003 90.690 60.4021
1601.096680 90.744 60.5718
1612.698975 90.801 60.7711
1624.385254 90.856 60.9734
1636.156250 90.904 61.1388
1648.012451 90.957 61.2857
1659.954590 91.015 61.4512
1671.983398 91.076 61.6359
1684.099243 91.137 61.8182
1696.302856 91.191 62.0108
1708.594971 91.244 62.2098
1720.976196 91.299 62.3877
1733.447144 91.354 62.5655
1746.008423 91.412 62.7410
1758.660645 91.470 62.9037
1771.404663 91.527 63.0785
1784.240967 91.585 63.2758
1797.170288 91.644 63.4644
1810.193359 91.704 63.6249
1823.310791 91.764 63.7960
1836.523193 91.826 64.0069
1849.831421 91.888 64.1977
1863.236084 91.951 64.3228
1876.737793 92.018 64.4441
1890.337524 92.082 64.5737
1904.035645 92.147 64.6963
1917.833008 92.216 64.8094
1931.730469 92.281 64.9176
1945.728638 92.346 65.0273
1959.828125 92.411 65.1507
1974.029907 92.475 65.2646
1988.334473 92.540 65.3491
2002.742798 92.605 65.4338
2017.255493 92.674 65.5296
2031.873291 92.742 65.6282
2046.597168 92.805 65.7031
2061.427734 92.867 65.7549
2076.365479 92.931 65.7860
2091.411865 92.999 65.8131
2106.566895 93.069 65.8534
2121.832031 93.134 65.9031
2137.207764 93.195 65.9540
2152.694824 93.258 65.9972
2168.294189 93.323 66.0204
2184.006592 93.389 66.0312
2199.832764 93.454 66.0534
2215.773682 93.516 66.0540
2231.830078 93.577 66.0283
2248.002686 93.642 66.0108
2264.292725 93.703 65.9796
2280.700684 93.761 65.9325
2297.227539 93.819 65.8881
2313.874268 93.879 65.8550
2330.641602 93.938 65.8115
2347.530273 93.997 65.7366
2364.541504 94.053 65.6608
2381.676025 94.108 65.5826
2398.934570 94.161 65.4899
2416.318359 94.214 65.4007
2433.827881 94.267 65.3182
2451.464355 94.317 65.2129
2469.228760 94.364 65.0943
2487.121826 94.413 64.9704
2505.144531 94.463 64.8370
2523.297852 94.511 64.7013
2541.582764 94.554 64.5659
2560.000000 94.593 64.4336
2578.550781 94.633 64.3078
2597.236084 94.675 64.1707
2616.056641 94.719 64.0036
2635.013672 94.755 63.8263
2654.108154 94.788 63.6511
2673.340820 94.822 63.4886
2692.713135 94.854 63.3366
2712.225586 94.883 63.1818
2731.879395 94.910 63.0255
2751.675781 94.934 62.8583
2771.615479 94.955 62.6798
2791.699707 94.973 62.5107
2811.929688 94.991 62.3497
2832.305908 95.007 62.2006
2852.830078 95.018 62.0724
2873.502930 95.028 61.9554
2894.325439 95.035 61.8430
2915.298828 95.037 61.7424
2936.424316 95.038 61.6724
2957.702881 95.038 61.6208
2979.135742 95.038 61.6009
3000.723633 95.037 61.6130
3022.468262 95.033 61.6379
3044.370117 95.034 61.7043
3066.430908 95.040 61.8262
3088.651611 95.050 62.0096
3111.033203 95.068 62.2243
3133.577148 95.097 62.4344
3156.284180 95.140 62.6400
3179.156006 95.196 62.8215
3202.193359 95.263 62.9530
3225.397949 95.338 62.9882
3248.770508 95.414 62.9037
3272.312500 95.487 62.7268
3296.024902 95.556 62.4665
3319.909180 95.613 62.1203
3343.966797 95.658 61.7180
3368.198486 95.695 61.3288
3392.605713 95.724 60.9705
3417.189941 95.745 60.6179
3441.952393 95.762 60.2575
3466.894287 95.780 59.8854
3492.016846 95.796 59.5242
3517.321289 95.809 59.1767
3542.809326 95.819 58.8424
3568.481934 95.825 58.5023
3594.340576 95.828 58.1466
3620.386719 95.829 57.8004
3646.621582 95.829 57.4697
3673.046387 95.828 57.1307
3699.662842 95.826 56.7909
3726.472168 95.823 56.4426
3753.475586 95.818 56.0709
3780.675049 95.808 55.6829
3808.071289 95.791 55.2787
3835.666016 95.766 54.8665
3863.460938 95.735 54.4578
3891.457275 95.698 54.0370
3919.656250 95.658 53.6166
3948.059814 95.611 53.2144
3976.668945 95.560 52.8309
4005.485596 95.503 52.4496
4034.510986 95.440 52.0678
