* Measurement data measured by REW V5.20.13
* Source: Microphone (Realtek(R) Audio), MICROPHONE (Master Volume), L, volume: 0.710. Timing signal peak level -37.4 dBFS, measurement signal peak level -37.3 dBFS
* Format: 2M Log Swept Sine, 1 sweep at -12.0 dBFS using an acoustic timing reference
* Dated: Sep 7, 2023 4:29:00 PM
* REW Settings:
*  C-weighting compensation: Off
*  Target level: 75.0 dB
* Note: ; Delay -0.0533 ms (-18 mm, -0.72 in) using estimated IR delay relative to Acoustic reference played from HEADPHONE R with no timing offset Clock adjustment: 120.6 ppm
* Measurement: KZ Krila DDDU R
* Smoothing: 1/24 octave
* Frequency Step: 1/48 octave
* Start Frequency: 20.000 Hz
*
* Freq(Hz) SPL(dB) Phase(degrees)
20.000000 90.445 16.3876
20.299999 90.435 15.9904
20.600000 90.426 15.6522
20.900000 90.423 15.3545
21.200001 90.427 15.0563
21.400000 90.431 14.8359
21.799999 90.435 14.3408
22.000000 90.432 14.0777
22.400000 90.413 13.5770
22.700001 90.390 13.2771
23.000000 90.369 13.0668
23.299999 90.357 12.9176
23.600000 90.357 12.7786
24.000000 90.374 12.5225
24.299999 90.390 12.2376
24.700001 90.399 11.7526
25.000000 90.393 11.3674
25.400000 90.367 10.9135
25.799999 90.334 10.5862
26.200001 90.309 10.3672
26.500000 90.301 10.2301
26.900000 90.299 10.0295
27.200001 90.302 9.8461
27.600000 90.306 9.5615
28.000000 90.305 9.2586
28.500000 90.300 8.8878
29.000000 90.294 8.5286
29.500000 90.286 8.1709
30.000000 90.271 7.8272
30.400000 90.253 7.5832
30.700001 90.239 7.4250
31.100000 90.221 7.2428
31.500000 90.208 7.0778
32.000000 90.196 6.8652
32.500000 90.187 6.6261
33.000000 90.176 6.3675
33.500000 90.162 6.1136
34.000000 90.149 5.8792
34.500000 90.142 5.6516
35.000000 90.139 5.4075
35.500000 90.135 5.1427
36.000000 90.128 4.8819
36.500000 90.120 4.6494
37.000000 90.114 4.4378
37.500000 90.110 4.2186
38.200001 90.098 3.8903
38.700001 90.081 3.6829
39.500000 90.051 3.4609
40.000000 90.039 3.3568
40.599998 90.030 3.2156
41.200001 90.023 3.0375
41.799999 90.016 2.8198
42.500000 90.004 2.5310
43.099998 89.990 2.2986
43.700001 89.978 2.1064
44.400002 89.970 1.9099
45.000000 89.966 1.7604
45.500000 89.966 1.6642
46.200001 89.976 1.5365
46.799999 89.988 1.3585
47.500000 89.985 1.0890
48.200001 89.961 0.9106
48.700001 89.944 0.8733
49.400002 89.936 0.8310
50.000000 89.935 0.6853
50.799999 89.917 0.3650
51.500000 89.885 0.1359
52.200001 89.864 -0.0255
53.000000 89.852 -0.2673
53.799999 89.832 -0.4907
54.500000 89.820 -0.5458
55.200001 89.825 -0.5680
56.000000 89.830 -0.6315
57.000000 89.815 -0.6876
58.000000 89.744 -0.5641
59.000000 89.698 0.3198
60.000000 89.835 0.7062
60.799999 89.897 -0.1905
61.500000 89.833 -1.0384
62.200001 89.740 -1.4069
63.000000 89.690 -1.6044
64.000000 89.668 -2.0637
65.000000 89.637 -2.4714
66.000000 89.623 -2.6469
67.000000 89.630 -2.7531
68.000000 89.633 -2.8745
69.000000 89.620 -2.9482
70.000000 89.604 -2.9959
71.000000 89.591 -3.0819
72.000000 89.579 -3.2809
73.000000 89.555 -3.5280
74.000000 89.533 -3.6677
75.000000 89.529 -3.7970
76.199997 89.516 -4.0065
77.500000 89.486 -4.1267
78.800003 89.452 -4.2016
80.000000 89.423 -4.2684
81.199997 89.404 -4.3991
82.500000 89.390 -4.6248
83.800003 89.378 -4.8593
85.000000 89.368 -5.0657
86.199997 89.348 -5.2592
87.500000 89.315 -5.3261
88.500000 89.301 -5.3221
90.000000 89.295 -5.4271
91.199997 89.290 -5.6014
92.500000 89.278 -5.8604
93.800003 89.241 -6.0829
95.000000 89.194 -6.0887
96.199997 89.167 -5.9996
97.500000 89.149 -6.0179
98.800003 89.123 -6.1252
100.000000 89.097 -6.2036
101.500000 89.076 -6.3010
103.000000 89.057 -6.4258
104.400002 89.042 -6.5298
106.000000 89.020 -6.7076
107.500000 88.991 -6.8221
109.000000 88.968 -6.8851
110.599998 88.945 -6.9389
112.000000 88.921 -6.9916
113.800003 88.880 -7.1184
115.000000 88.856 -7.2364
117.199997 88.838 -7.7605
118.000000 88.826 -8.0169
120.599998 88.746 -8.3294
122.000000 88.728 -8.0362
124.099998 88.726 -7.7197
125.000000 88.714 -7.6590
126.500000 88.680 -7.5679
128.000000 88.651 -7.4700
131.500000 88.620 -7.4257
132.000000 88.615 -7.4407
134.000000 88.588 -7.5361
136.000000 88.555 -7.6529
138.000000 88.533 -7.7134
140.000000 88.529 -7.7721
143.000000 88.496 -7.8993
145.000000 88.455 -7.8898
147.500000 88.419 -7.8790
150.000000 88.386 -7.9611
152.500000 88.342 -8.0162
155.000000 88.297 -7.9858
157.500000 88.260 -7.8907
160.000000 88.237 -7.8788
162.500000 88.203 -7.9732
165.000000 88.175 -7.8995
167.500000 88.158 -7.7688
170.000000 88.129 -7.7250
172.500000 88.089 -7.7945
175.000000 88.052 -7.7922
177.500000 88.023 -7.6922
180.000000 87.978 -7.6321
182.500000 87.928 -7.6537
185.000000 87.894 -7.6880
187.500000 87.872 -7.6750
190.000000 87.838 -7.6146
192.500000 87.800 -7.5238
195.000000 87.771 -7.4260
197.500000 87.747 -7.3087
200.000000 87.718 -7.2164
203.000000 87.673 -7.1286
206.000000 87.634 -6.9941
209.000000 87.604 -6.8665
212.000000 87.573 -6.7505
214.000000 87.557 -6.6767
218.000000 87.527 -6.5786
220.000000 87.505 -6.5423
224.000000 87.453 -6.4507
227.000000 87.420 -6.3684
230.000000 87.391 -6.2283
233.000000 87.361 -5.9763
236.000000 87.331 -5.6119
240.000000 87.298 -5.2868
243.000000 87.268 -5.3220
247.000000 87.228 -5.3409
250.000000 87.197 -5.2337
254.000000 87.144 -4.9343
258.000000 87.111 -4.6334
262.000000 87.078 -4.4812
265.000000 87.054 -4.3422
269.000000 87.027 -4.0827
272.000000 87.010 -3.9113
276.000000 86.986 -3.7878
280.000000 86.954 -3.6746
285.000000 86.916 -3.4203
290.000000 86.870 -3.1942
295.000000 86.824 -2.9784
300.000000 86.794 -2.7050
304.000000 86.778 -2.4631
307.000000 86.760 -2.2388
311.000000 86.740 -1.9212
315.000000 86.727 -1.6363
320.000000 86.704 -1.3421
325.000000 86.681 -1.1619
330.000000 86.662 -0.9048
335.000000 86.633 -0.5952
340.000000 86.599 -0.2190
345.000000 86.574 0.1433
350.000000 86.553 0.4170
355.000000 86.540 0.6917
360.000000 86.518 1.0357
365.000000 86.481 1.3908
370.000000 86.447 1.6238
375.000000 86.417 1.8627
382.000000 86.385 2.3102
387.000000 86.363 2.6831
395.000000 86.340 3.2279
400.000000 86.327 3.4806
406.000000 86.301 3.7955
412.000000 86.277 4.2211
418.000000 86.260 4.7410
425.000000 86.243 5.1250
431.000000 86.223 5.3897
437.000000 86.194 5.7091
444.000000 86.160 6.2135
450.000000 86.133 6.6556
455.000000 86.113 6.9403
462.000000 86.097 7.3100
468.000000 86.088 7.6727
475.000000 86.078 8.0859
482.000000 86.065 8.4710
487.000000 86.048 8.8199
494.000000 86.031 9.3926
500.000000 86.027 9.8362
508.000000 86.025 10.3224
515.000000 86.016 10.7611
522.000000 86.001 11.2530
530.000000 85.975 11.7881
538.000000 85.965 12.3248
545.000000 85.973 12.7091
552.000000 85.977 13.0448
560.000000 85.980 13.5253
570.000000 85.983 14.2190
580.000000 85.982 14.8630
590.000000 85.981 15.4477
600.000000 85.977 16.0828
608.000000 85.974 16.6118
615.000000 85.987 17.0479
622.000000 86.010 17.4566
630.000000 86.031 17.8486
640.000000 86.053 18.2906
650.000000 86.071 18.7626
660.000000 86.104 19.0714
670.000000 86.154 18.9240
680.000000 86.129 18.2507
690.000000 85.921 17.5108
700.000000 85.539 18.1458
710.000000 85.282 20.5724
720.000000 85.289 23.1782
730.000000 85.399 25.0288
740.000000 85.508 26.2121
750.000000 85.598 27.0628
762.000000 85.674 27.9235
775.000000 85.719 28.8125
788.000000 85.775 29.6904
800.000000 85.833 30.5814
812.000000 85.887 31.4864
825.000000 85.948 32.4302
838.000000 86.014 33.2988
850.000000 86.065 34.0774
862.000000 86.105 34.8973
875.000000 86.157 35.7565
885.000000 86.205 36.3664
900.000000 86.282 37.3647
912.000000 86.353 38.1736
925.000000 86.434 38.9635
938.000000 86.509 39.7571
950.000000 86.577 40.5059
962.000000 86.649 41.2026
975.000000 86.731 41.8849
988.000000 86.810 42.5669
1000.000000 86.882 43.2121
1015.000000 86.977 43.9865
1030.000000 87.078 44.6150
1044.000000 87.168 45.1689
1060.000000 87.270 45.8289
1075.000000 87.368 46.4199
1090.000000 87.469 46.9785
1106.000000 87.586 47.5273
1120.000000 87.692 47.9817
1138.000000 87.830 48.5509
1150.000000 87.915 48.9128
1172.000000 88.063 49.5289
1180.000000 88.119 49.7239
1206.000000 88.293 50.2905
1220.000000 88.385 50.6074
1241.000000 88.521 51.0900
1250.000000 88.578 51.2894
1265.000000 88.674 51.6061
1280.000000 88.775 51.9026
1315.000000 89.000 52.5982
1320.000000 89.029 52.6924
1340.000000 89.139 53.0567
1360.000000 89.225 53.4060
1380.000000 89.308 53.7601
1400.000000 89.402 54.1034
1430.000000 89.550 54.6703
1450.000000 89.651 55.0900
1475.000000 89.768 55.5655
1500.000000 89.882 56.0148
1525.000000 90.004 56.5066
1550.000000 90.119 57.0150
1575.000000 90.224 57.4791
1600.000000 90.323 57.9177
1625.000000 90.428 58.3634
1650.000000 90.539 58.8244
1675.000000 90.647 59.2672
1700.000000 90.752 59.6974
1725.000000 90.858 60.1223
1750.000000 90.961 60.5478
1775.000000 91.064 60.9633
1800.000000 91.168 61.3783
1825.000000 91.274 61.8107
1850.000000 91.380 62.2568
1875.000000 91.490 62.6835
1900.000000 91.605 63.1050
1925.000000 91.726 63.5036
1950.000000 91.851 63.8462
1975.000000 91.973 64.1139
2000.000000 92.093 64.3274
2030.000000 92.233 64.5451
2060.000000 92.366 64.7373
2090.000000 92.493 64.9192
2120.000000 92.621 65.1295
2140.000000 92.707 65.2794
2180.000000 92.880 65.5393
2200.000000 92.967 65.6337
2240.000000 93.136 65.7220
2270.000000 93.259 65.7543
2300.000000 93.378 65.7611
2330.000000 93.490 65.7198
2360.000000 93.596 65.6466
2400.000000 93.731 65.5348
2430.000000 93.829 65.4432
2470.000000 93.951 65.3017
2500.000000 94.038 65.1831
2540.000000 94.148 64.9927
2580.000000 94.247 64.7892
2620.000000 94.336 64.5885
2650.000000 94.398 64.4265
2690.000000 94.474 64.1940
2720.000000 94.524 64.0281
2760.000000 94.581 63.8302
2800.000000 94.630 63.6559
2850.000000 94.678 63.4991
2900.000000 94.716 63.4711
2950.000000 94.760 63.6313
3000.000000 94.833 63.9372
3040.000000 94.923 64.1844
3070.000000 95.007 64.2827
3110.000000 95.127 64.2191
3150.000000 95.240 63.9412
3200.000000 95.353 63.4362
3250.000000 95.437 62.9150
3300.000000 95.509 62.4375
3350.000000 95.582 61.9359
3400.000000 95.658 61.3540
3450.000000 95.729 60.6870
3500.000000 95.790 59.9599
3550.000000 95.838 59.1667
3600.000000 95.868 58.3219
3650.000000 95.882 57.4508
3700.000000 95.877 56.5632
3750.000000 95.857 55.6592
3820.000000 95.802 54.4247
3870.000000 95.742 53.5859
3950.000000 95.612 52.2684
4000.000000 95.513 51.4824
4060.000000 95.375 50.6068
4120.000000 95.219 49.7921
4180.000000 95.051 49.0344
4250.000000 94.832 48.2311
4310.000000 94.621 47.6246
4370.000000 94.387 47.1357
4440.000000 94.087 46.7296
4500.000000 93.814 46.5418
4550.000000 93.584 46.4971
4620.000000 93.263 46.6007
4680.000000 92.991 46.8393
4750.000000 92.680 47.2442
4820.000000 92.371 47.7503
4870.000000 92.149 48.1557
4940.000000 91.835 48.7940
5000.000000 91.562 49.4339
5080.000000 91.193 50.4799
5150.000000 90.875 51.5902
5220.000000 90.566 52.8812
5300.000000 90.230 54.5392
5380.000000 89.908 56.3741
5450.000000 89.643 58.1075
5520.000000 89.395 59.9661
5600.000000 89.133 62.2359
5700.000000 88.841 65.2428
5800.000000 88.589 68.4068
5900.000000 88.381 71.7105
6000.000000 88.216 75.1459
6080.000000 88.114 77.9342
6150.000000 88.049 80.3938
6220.000000 88.005 82.8777
6300.000000 87.977 85.7564
6400.000000 87.978 89.4032
6500.000000 88.034 93.0883
6600.000000 88.144 96.7989
6700.000000 88.311 100.5387
6800.000000 88.550 104.2420
6900.000000 88.877 107.8070
7000.000000 89.296 111.1867
7100.000000 89.798 114.3609
7200.000000 90.383 117.2287
7300.000000 91.066 119.6706
7400.000000 91.851 121.4842
7500.000000 92.737 122.3817
7620.000000 93.920 121.7458
7750.000000 95.218 118.1037
7880.000000 96.205 110.6951
8000.000000 96.596 101.0191
8120.000000 96.353 90.6583
8250.000000 95.436 81.4661
8380.000000 94.104 75.9213
8500.000000 92.756 73.8910
8620.000000 91.446 74.0860
8750.000000 90.135 76.0087
8850.000000 89.203 78.3608
9000.000000 87.925 83.2420
9120.000000 87.075 88.1663
9250.000000 86.368 93.6496
9380.000000 85.793 98.9453
9500.000000 85.338 103.8141
9620.000000 84.958 108.6800
9750.000000 84.639 113.9192
9880.000000 84.412 119.0155
10000.000000 84.273 123.5006
10150.000000 84.182 128.7901
10300.000000 84.171 133.6298
10440.000000 84.215 137.6348
10600.000000 84.311 141.5541
10750.000000 84.426 144.6280
10900.000000 84.537 147.2167
11060.000000 84.633 149.5946
11200.000000 84.698 151.5469
11380.000000 84.800 154.1247
11500.000000 84.912 155.8142
11720.000000 85.190 158.4757
11800.000000 85.307 159.3065
12060.000000 85.775 161.3895
12200.000000 86.076 161.8844
12410.000000 86.528 161.3777
12500.000000 86.691 160.6396
12650.000000 86.871 158.7929
12800.000000 86.889 156.4591
13150.000000 86.221 152.0314
13200.000000 86.058 151.7974
13400.000000 85.324 152.2595
13600.000000 84.598 154.8504
13800.000000 84.027 158.9841
14000.000000 83.689 163.7412
14300.000000 83.540 169.7234
14500.000000 83.475 171.6832
14750.000000 83.007 172.1796
15000.000000 81.856 175.1161
15250.000000 80.747 -177.3484
15500.000000 80.123 -169.0402
15750.000000 79.944 -161.5831
16000.000000 80.006 -156.5801
16250.000000 80.090 -154.7773
16500.000000 79.978 -156.1094
16750.000000 79.535 -159.5695
17000.000000 78.850 -164.5900
17250.000000 78.172 -179.1305
17500.000000 77.758 100.8556
17750.000000 77.771 -169.4011
18000.000000 77.937 150.8777
18250.000000 77.376 152.2214
18500.000000 76.396 174.0046
18750.000000 75.308 104.4894
19000.000000 74.366 41.8770
19250.000000 74.028 -135.1672
19500.000000 74.196 -163.0981
19750.000000 74.641 -158.3613
20000.000000 75.088 -149.6489
