* Measurement data measured by REW V5.20.13
* Source: Microphone (Realtek(R) Audio), MICROPHONE (Master Volume), L, volume: 0.710. Timing signal peak level -37.5 dBFS, measurement signal peak level -37.4 dBFS
* Format: 2M Log Swept Sine, 1 sweep at -12.0 dBFS using an acoustic timing reference
* Dated: Sep 7, 2023 3:51:18 PM
* REW Settings:
*  C-weighting compensation: Off
*  Target level: 75.0 dB
* Note: ; Delay -0.0554 ms (-19 mm, -0.75 in) using estimated IR delay relative to Acoustic reference played from HEADPHONE L with no timing offset Clock adjustment: 120.8 ppm
* Measurement: KZ Krila DUUU L
* Smoothing: 1/48 octave
* Frequency Step: 1/96 octave
* Start Frequency: 20.000 Hz
*
* Freq(Hz) SPL(dB) Phase(degrees)
20.000000 94.518 3.0315
20.144928 94.507 2.7958
20.290907 94.496 2.5610
20.437943 94.486 2.3287
20.586044 94.475 2.1013
20.735220 94.465 1.8791
20.885475 94.454 1.6574
21.036821 94.444 1.4342
21.189262 94.433 1.2115
21.342808 94.422 0.9903
21.497467 94.411 0.7705
21.653246 94.400 0.5529
21.810154 94.389 0.3391
21.968201 94.377 0.1230
22.127390 94.367 -0.1008
22.287735 94.356 -0.3284
22.449242 94.344 -0.5564
22.611917 94.331 -0.7855
22.775772 94.318 -1.0128
22.940815 94.302 -1.2387
23.107054 94.286 -1.4599
23.274498 94.268 -1.6773
23.443153 94.250 -1.8838
23.613033 94.231 -2.0730
23.784142 94.213 -2.2497
23.956491 94.196 -2.4143
24.130091 94.182 -2.5705
24.304947 94.170 -2.7265
24.481071 94.160 -2.8831
24.658470 94.152 -3.0498
24.837156 94.147 -3.2272
25.017136 94.141 -3.4273
25.198421 94.135 -3.6483
25.381020 94.127 -3.8847
25.564941 94.118 -4.1357
25.750195 94.105 -4.3879
25.936790 94.089 -4.6413
26.124741 94.071 -4.8877
26.314051 94.051 -5.1263
26.504732 94.030 -5.3477
26.696796 94.009 -5.5545
26.890253 93.988 -5.7503
27.085112 93.968 -5.9382
27.281382 93.949 -6.1261
27.479073 93.930 -6.3119
27.678198 93.911 -6.4955
27.878765 93.892 -6.6761
28.080786 93.873 -6.8537
28.284271 93.855 -7.0247
28.489231 93.836 -7.1884
28.695675 93.820 -7.3458
28.903616 93.805 -7.5003
29.113064 93.793 -7.6632
29.324028 93.782 -7.8378
29.536524 93.771 -8.0301
29.750557 93.760 -8.2384
29.966141 93.746 -8.4627
30.183289 93.727 -8.6924
30.402010 93.705 -8.9193
30.622314 93.678 -9.1267
30.844217 93.651 -9.3102
31.067726 93.624 -9.4664
31.292856 93.601 -9.6042
31.519617 93.580 -9.7323
31.748020 93.564 -9.8621
31.978081 93.551 -10.0105
32.209808 93.539 -10.1813
32.443211 93.526 -10.3775
32.678310 93.511 -10.5861
32.915108 93.492 -10.8002
33.153625 93.470 -11.0036
33.393871 93.447 -11.1914
33.635857 93.423 -11.3582
33.879597 93.403 -11.5140
34.125103 93.386 -11.6705
34.372387 93.371 -11.8387
34.621464 93.355 -12.0237
34.872345 93.338 -12.2191
35.125042 93.318 -12.4185
35.379574 93.295 -12.6035
35.635948 93.270 -12.7659
35.894180 93.246 -12.9036
36.154285 93.225 -13.0256
36.416275 93.207 -13.1521
36.680161 93.191 -13.2935
36.945961 93.173 -13.4594
37.213688 93.152 -13.6420
37.483353 93.126 -13.8175
37.754974 93.095 -13.9676
38.028561 93.063 -14.0746
38.304131 93.035 -14.1490
38.581699 93.013 -14.2188
38.861279 92.997 -14.3129
39.142883 92.982 -14.4623
39.426529 92.960 -14.6664
39.712231 92.928 -14.8845
40.000000 92.884 -15.0677
40.289856 92.832 -15.1650
40.581814 92.784 -15.1435
40.875885 92.752 -15.0394
41.172089 92.742 -14.9301
41.470440 92.751 -14.8996
41.770950 92.772 -15.0179
42.073643 92.788 -15.3077
42.378525 92.787 -15.7125
42.685616 92.763 -16.1394
42.994934 92.722 -16.5048
43.306492 92.672 -16.7585
43.620308 92.625 -16.9000
43.936401 92.590 -16.9790
44.254780 92.568 -17.0673
44.575470 92.551 -17.2048
44.898483 92.533 -17.3872
45.223835 92.510 -17.5814
45.551544 92.481 -17.7498
45.881630 92.452 -17.8747
46.214108 92.428 -17.9691
46.548996 92.409 -18.0660
46.886307 92.393 -18.1931
47.226067 92.375 -18.3531
47.568283 92.352 -18.5220
47.912983 92.324 -18.6700
48.260181 92.294 -18.7845
48.609894 92.266 -18.8758
48.962143 92.241 -18.9689
49.316940 92.218 -19.0837
49.674313 92.192 -19.2193
50.034271 92.162 -19.3572
50.396843 92.128 -19.4750
50.762039 92.095 -19.5630
51.129883 92.064 -19.6293
51.500389 92.038 -19.6934
51.873581 92.015 -19.7723
52.249481 91.993 -19.8723
52.628101 91.969 -19.9842
53.009464 91.943 -20.0904
53.393593 91.914 -20.1730
53.780506 91.887 -20.2231
54.170223 91.866 -20.2534
54.562763 91.851 -20.3041
54.958145 91.839 -20.4233
55.356396 91.819 -20.6243
55.757530 91.780 -20.8487
56.161572 91.720 -20.9841
56.568542 91.656 -20.9513
56.978462 91.611 -20.8023
57.391350 91.593 -20.7159
57.807232 91.579 -20.8477
58.226128 91.533 -21.1491
58.648056 91.438 -21.3521
59.073048 91.322 -21.1673
59.501114 91.248 -20.5727
59.932281 91.261 -19.9330
60.366577 91.343 -19.7300
60.804020 91.419 -20.1338
61.244629 91.431 -20.8835
61.688435 91.372 -21.5307
62.135452 91.291 -21.8127
62.585712 91.239 -21.8372
63.039234 91.224 -21.8876
63.496040 91.219 -22.1058
63.956161 91.194 -22.3981
64.419617 91.153 -22.5943
64.886421 91.114 -22.6524
65.356621 91.087 -22.6569
65.830215 91.067 -22.6801
66.307251 91.041 -22.6967
66.787743 91.015 -22.6573
67.271713 90.997 -22.5840
67.759193 90.989 -22.5642
68.250206 90.978 -22.6506
68.744774 90.953 -22.8084
69.242928 90.910 -22.9481
69.744690 90.859 -23.0106
70.250084 90.813 -23.0092
70.759148 90.777 -23.0104
71.271896 90.744 -23.0603
71.788361 90.707 -23.1401
72.308571 90.666 -23.1937
72.832550 90.629 -23.2035
73.360321 90.601 -23.2123
73.891922 90.577 -23.2595
74.427376 90.550 -23.3315
74.966705 90.520 -23.3928
75.509949 90.489 -23.4391
76.057121 90.456 -23.4867
76.608261 90.419 -23.5224
77.163399 90.379 -23.5115
77.722557 90.345 -23.4553
78.285767 90.320 -23.4076
78.853058 90.301 -23.4290
79.424461 90.277 -23.5250
80.000000 90.244 -23.6461
80.579712 90.203 -23.7332
81.163628 90.163 -23.7634
81.751770 90.129 -23.7702
82.344177 90.101 -23.7983
82.940880 90.070 -23.8453
83.541901 90.034 -23.8595
84.147285 90.001 -23.8129
84.757050 89.978 -23.7561
85.371231 89.960 -23.7465
85.989868 89.937 -23.7686
86.612984 89.909 -23.7674
87.240616 89.884 -23.7543
87.872803 89.860 -23.7774
88.509560 89.829 -23.8224
89.150940 89.793 -23.8374
89.796967 89.760 -23.8333
90.447670 89.727 -23.8474
91.103088 89.692 -23.8565
91.763260 89.659 -23.8408
92.428215 89.633 -23.8514
93.097992 89.604 -23.9147
93.772614 89.566 -23.9762
94.452133 89.525 -23.9919
95.136566 89.485 -23.9707
95.825966 89.449 -23.9261
96.520363 89.416 -23.8770
97.219788 89.384 -23.8333
97.924286 89.352 -23.7728
98.633881 89.324 -23.7039
99.348625 89.296 -23.6653
100.068542 89.260 -23.6191
100.793686 89.228 -23.5219
101.524078 89.205 -23.4563
102.259766 89.181 -23.4796
103.000778 89.147 -23.5150
103.747162 89.114 -23.5203
104.498962 89.085 -23.5315
105.256203 89.055 -23.5369
106.018929 89.030 -23.5242
106.787186 89.007 -23.5306
107.561012 88.976 -23.5365
108.340446 88.938 -23.4784
109.125526 88.899 -23.3515
109.916290 88.863 -23.1923
110.712791 88.831 -23.0469
111.515060 88.800 -22.9494
112.323143 88.767 -22.8961
113.137085 88.734 -22.8818
113.956924 88.700 -22.8924
114.782700 88.667 -22.8864
115.614464 88.637 -22.8388
116.452255 88.613 -22.7510
117.296112 88.588 -22.6130
118.146095 88.560 -22.3062
119.002228 88.570 -21.8579
119.864563 88.617 -21.7481
120.733154 88.611 -22.0965
121.608040 88.527 -22.3085
122.489258 88.438 -22.2155
123.376869 88.369 -22.0997
124.270905 88.313 -21.9713
125.171425 88.285 -21.8982
126.078468 88.263 -21.9780
126.992081 88.229 -22.0292
127.912323 88.204 -21.9665
128.839233 88.190 -21.8923
129.772842 88.171 -21.8269
130.713242 88.144 -21.7475
131.660431 88.108 -21.6487
132.614502 88.070 -21.5186
133.575485 88.037 -21.3831
134.543427 88.012 -21.2811
135.518387 87.992 -21.2173
136.500412 87.978 -21.1608
137.489548 87.967 -21.1213
138.485855 87.950 -21.0670
139.489380 87.928 -20.9314
140.500168 87.908 -20.7784
141.518295 87.879 -20.6045
142.543793 87.851 -20.3848
143.576721 87.828 -20.2147
144.617142 87.799 -20.0961
145.665100 87.771 -19.9791
146.720642 87.745 -19.9148
147.783844 87.713 -19.8462
148.854752 87.686 -19.6838
149.933411 87.675 -19.5271
151.019897 87.668 -19.4370
152.114243 87.653 -19.3878
153.216522 87.626 -19.3256
154.326797 87.590 -19.2216
155.445114 87.551 -19.0666
156.571533 87.520 -18.8875
157.706116 87.491 -18.7781
158.848923 87.460 -18.7055
160.000000 87.426 -18.6728
161.159424 87.385 -18.6170
162.327255 87.350 -18.4785
163.503540 87.332 -18.3591
164.688354 87.315 -18.2865
165.881760 87.299 -18.1655
167.083801 87.292 -18.0387
168.294571 87.277 -17.9536
169.514099 87.245 -17.8050
170.742462 87.212 -17.5354
171.979736 87.191 -17.2954
173.225967 87.173 -17.1442
174.481232 87.158 -17.0944
175.745605 87.135 -17.0846
177.019119 87.116 -16.9872
178.301880 87.110 -16.8411
179.593933 87.105 -16.7505
180.895340 87.070 -16.6562
182.206177 87.023 -16.3883
183.526520 86.994 -16.1245
184.856430 86.970 -15.9975
186.195984 86.944 -15.9375
187.545227 86.914 -15.8504
188.904266 86.890 -15.6645
190.273132 86.876 -15.4574
191.651932 86.857 -15.2736
193.040726 86.833 -15.0786
194.439575 86.810 -14.9278
195.848572 86.781 -14.8211
197.267761 86.754 -14.6683
198.697250 86.739 -14.5189
200.137085 86.728 -14.4114
201.587372 86.711 -14.3191
203.048157 86.687 -14.1606
204.519531 86.668 -13.9493
206.001556 86.654 -13.7467
207.494324 86.638 -13.5471
208.997925 86.628 -13.3408
210.512405 86.618 -13.2208
212.037857 86.593 -13.0910
213.574371 86.570 -12.8836
215.122025 86.550 -12.7187
216.680893 86.521 -12.6018
218.251053 86.492 -12.4832
219.832581 86.475 -12.3785
221.425583 86.467 -12.2800
223.030121 86.460 -12.1240
224.646286 86.446 -11.8806
226.274170 86.426 -11.6002
227.913849 86.400 -11.3938
229.565399 86.373 -11.2879
231.228928 86.356 -11.2319
232.904510 86.345 -11.1649
234.592224 86.331 -10.9313
236.292191 86.314 -10.5501
238.004456 86.288 -10.1383
239.729126 86.267 -9.7747
241.466309 86.260 -9.6747
243.216080 86.237 -9.7103
244.978516 86.212 -9.5533
246.753738 86.205 -9.3329
248.541809 86.185 -9.1596
250.342850 86.158 -8.9006
252.156937 86.156 -8.6313
253.984161 86.171 -8.4815
255.824646 86.170 -8.4311
257.678467 86.147 -8.3704
259.545685 86.113 -8.2781
261.426483 86.086 -8.1347
263.320862 86.073 -7.9367
265.229004 86.065 -7.7179
267.150970 86.055 -7.4909
269.086853 86.050 -7.2829
271.036774 86.056 -7.1158
273.000824 86.058 -6.9463
274.979095 86.042 -6.6731
276.971710 86.012 -6.3843
278.978760 85.974 -6.1970
281.000336 85.948 -6.0882
283.036591 85.945 -6.0215
285.087585 85.945 -5.9125
287.153442 85.933 -5.6386
289.234283 85.923 -5.2977
291.330200 85.909 -5.0641
293.441284 85.890 -4.8973
295.567688 85.876 -4.7438
297.709503 85.867 -4.5929
299.866821 85.858 -4.4097
302.039795 85.847 -4.2037
304.228485 85.842 -3.9875
306.433044 85.841 -3.8079
308.653595 85.837 -3.5921
310.890228 85.828 -3.3610
313.143066 85.806 -3.1519
315.412231 85.784 -2.9645
317.697845 85.775 -2.7806
320.000000 85.781 -2.5712
322.318848 85.790 -2.3535
324.654510 85.792 -2.1337
327.007080 85.783 -1.9295
329.376709 85.765 -1.7360
331.763519 85.747 -1.5502
334.167603 85.743 -1.3742
336.589142 85.752 -1.2197
339.028198 85.752 -0.9917
341.484924 85.741 -0.6444
343.959473 85.732 -0.3141
346.451935 85.730 -0.1196
348.962463 85.724 -0.0180
351.491211 85.710 0.0825
354.038239 85.701 0.2370
356.603760 85.716 0.4500
359.187866 85.738 0.6445
361.790680 85.724 0.8505
364.412354 85.687 1.1640
367.053040 85.660 1.4543
369.712860 85.643 1.6789
372.391968 85.639 1.8652
375.090454 85.644 2.0406
377.808533 85.643 2.2793
380.546265 85.632 2.6001
383.303864 85.621 2.8665
386.081451 85.614 3.0080
388.879150 85.606 3.1509
391.697144 85.597 3.3796
394.535522 85.590 3.6688
397.394501 85.584 3.9746
400.274170 85.581 4.2463
403.174744 85.577 4.4146
406.096313 85.566 4.5598
409.039062 85.553 4.7840
412.003113 85.544 4.9981
414.988647 85.542 5.1373
417.995850 85.548 5.3075
421.024811 85.553 5.5948
424.075714 85.547 5.8912
427.148743 85.534 6.1127
430.244049 85.526 6.3493
433.361786 85.523 6.6006
436.502106 85.514 6.8100
439.665161 85.502 7.0217
442.851166 85.493 7.3150
446.060242 85.487 7.6389
449.292572 85.481 7.8752
452.548340 85.480 8.0721
455.827698 85.487 8.3461
459.130798 85.486 8.6600
462.457855 85.473 8.9394
465.809021 85.468 9.2062
469.184448 85.473 9.4760
472.584381 85.483 9.7035
476.008911 85.501 9.8883
479.458252 85.516 10.0758
482.932617 85.502 10.3330
486.432159 85.477 10.6561
489.957031 85.464 10.9707
493.507477 85.460 11.2299
497.083618 85.457 11.4269
500.685699 85.453 11.6615
504.313873 85.451 11.9335
507.968323 85.450 12.1767
511.649292 85.450 12.4143
515.356934 85.451 12.6416
519.091370 85.453 12.9094
522.852966 85.463 13.2219
526.641724 85.477 13.5126
530.458008 85.489 13.7643
534.301941 85.491 13.9938
538.173706 85.495 14.2064
542.073547 85.492 14.4800
546.001648 85.484 14.8822
549.958191 85.488 15.2642
553.943420 85.496 15.5294
557.957520 85.504 15.7381
562.000671 85.512 15.9883
566.073181 85.515 16.3283
570.175171 85.520 16.6941
574.306885 85.522 16.9918
578.468567 85.525 17.2676
582.660400 85.537 17.5831
586.882568 85.559 17.8864
591.135376 85.582 18.1455
595.419006 85.600 18.3006
599.733643 85.611 18.4413
604.079590 85.613 18.6794
608.456970 85.623 18.9662
612.866089 85.644 19.2945
617.307190 85.664 19.6510
621.780457 85.683 19.9474
626.286133 85.706 20.1082
630.824463 85.726 20.2187
635.395691 85.745 20.3255
640.000000 85.772 20.3882
644.637695 85.803 20.3696
649.309021 85.826 20.2543
654.014160 85.827 19.9947
658.753418 85.787 19.5384
663.527039 85.689 19.0340
668.335205 85.530 18.8571
673.178284 85.351 19.3457
678.056396 85.206 20.3409
682.969849 85.132 21.5370
687.918945 85.109 22.7739
692.903870 85.123 23.8535
697.924927 85.164 24.6486
702.982422 85.209 25.2831
708.076477 85.248 25.8080
713.207520 85.285 26.2650
718.375732 85.318 26.7332
723.581360 85.347 27.1588
728.824707 85.365 27.4984
734.106079 85.376 27.8306
739.425720 85.393 28.1708
744.783936 85.401 28.5940
750.180908 85.383 29.0192
755.617065 85.366 29.5049
761.092529 85.365 30.1006
766.607727 85.376 30.6901
772.162903 85.391 31.2971
777.758301 85.402 31.9534
783.394287 85.433 32.5833
789.071045 85.490 33.1222
794.789001 85.535 33.6444
800.548340 85.571 34.1391
806.349487 85.612 34.5609
812.192627 85.659 34.9973
818.078125 85.709 35.4309
824.006226 85.752 35.8233
829.977295 85.784 36.1886
835.991699 85.808 36.5468
842.049622 85.829 36.9592
848.151428 85.856 37.4189
854.297485 85.893 37.8785
860.488098 85.939 38.3127
866.723572 85.980 38.7028
873.004211 86.016 39.0604
879.330322 86.053 39.4831
885.702332 86.094 39.9484
892.120483 86.134 40.3655
898.585144 86.175 40.7104
905.096680 86.219 41.0430
911.655396 86.261 41.4087
918.261597 86.298 41.8517
924.915710 86.334 42.3293
931.618042 86.383 42.7835
938.368896 86.437 43.2172
945.168762 86.490 43.6164
952.017822 86.541 43.9971
958.916504 86.585 44.4041
965.865234 86.620 44.7912
972.864319 86.660 45.1649
979.914062 86.707 45.5468
987.014954 86.766 45.8922
994.167236 86.825 46.1965
1001.371399 86.873 46.5205
1008.627747 86.923 46.8925
1015.936646 86.978 47.2748
1023.298584 87.029 47.6187
1030.713867 87.074 47.9650
1038.182739 87.126 48.3196
1045.705933 87.184 48.6490
1053.283447 87.242 49.0003
1060.916016 87.302 49.3509
1068.603882 87.358 49.6245
1076.347412 87.411 49.8543
1084.147095 87.465 50.0910
1092.003296 87.521 50.3253
1099.916382 87.583 50.5840
1107.886841 87.649 50.8581
1115.915039 87.719 51.1256
1124.001343 87.788 51.3682
1132.146362 87.855 51.6069
1140.350342 87.922 51.8343
1148.613770 87.984 52.0054
1156.937134 88.042 52.1970
1165.320801 88.104 52.4341
1173.765137 88.168 52.6667
1182.270752 88.232 52.8688
1190.838013 88.294 53.1055
1199.467285 88.358 53.3538
1208.159180 88.422 53.5492
1216.913940 88.486 53.7075
1225.732178 88.553 53.8699
1234.614380 88.618 54.0388
1243.560913 88.683 54.2118
1252.572266 88.748 54.3807
1261.648926 88.814 54.5252
1270.791382 88.878 54.6982
1280.000000 88.938 54.8924
1289.275391 88.996 55.0760
1298.618042 89.055 55.2445
1308.028320 89.118 55.4381
1317.506836 89.185 55.6306
1327.054077 89.247 55.7775
1336.670410 89.306 55.9063
1346.356567 89.361 56.0606
1356.112793 89.401 56.2298
1365.939697 89.434 56.3990
1375.837891 89.482 56.5345
1385.807739 89.536 56.6845
1395.849854 89.589 56.8553
1405.964844 89.644 57.0294
1416.152954 89.699 57.2307
1426.415039 89.756 57.4255
1436.751465 89.813 57.5980
1447.162720 89.868 57.7300
1457.649414 89.920 57.8443
1468.212158 89.971 58.0250
1478.851440 90.027 58.2585
1489.567871 90.090 58.4715
1500.361816 90.149 58.6411
1511.234131 90.204 58.7946
1522.185059 90.256 58.9507
1533.215454 90.308 59.1228
1544.325806 90.359 59.3069
1555.516602 90.408 59.4996
1566.788574 90.459 59.7081
1578.142090 90.515 59.9047
1589.578003 90.568 60.0769
1601.096680 90.615 60.2194
1612.698975 90.662 60.3607
1624.385254 90.722 60.5464
1636.156250 90.782 60.7662
1648.012451 90.837 60.9540
1659.954590 90.893 61.1073
1671.983398 90.947 61.2718
1684.099243 91.001 61.4623
1696.302856 91.057 61.6773
1708.594971 91.113 61.8818
1720.976196 91.167 62.0718
1733.447144 91.223 62.2565
1746.008423 91.282 62.4344
1758.660645 91.341 62.6332
1771.404663 91.398 62.8410
1784.240967 91.457 63.0513
1797.170288 91.518 63.2535
1810.193359 91.577 63.4224
1823.310791 91.639 63.5754
1836.523193 91.705 63.7430
1849.831421 91.773 63.9447
1863.236084 91.844 64.1272
1876.737793 91.914 64.2610
1890.337524 91.981 64.3900
1904.035645 92.048 64.5156
1917.833008 92.114 64.6262
1931.730469 92.180 64.7316
1945.728638 92.247 64.8385
1959.828125 92.316 64.9292
1974.029907 92.385 65.0034
1988.334473 92.449 65.0767
2002.742798 92.508 65.1553
2017.255493 92.570 65.2091
2031.873291 92.634 65.2794
2046.597168 92.703 65.3609
2061.427734 92.773 65.4205
2076.365479 92.837 65.4512
2091.411865 92.898 65.4705
2106.566895 92.960 65.4965
2121.832031 93.023 65.5358
2137.207764 93.087 65.5858
2152.694824 93.154 65.6395
2168.294189 93.219 65.6708
2184.006592 93.284 65.6570
2199.832764 93.345 65.6292
2215.773682 93.406 65.6170
2231.830078 93.469 65.6132
2248.002686 93.530 65.5937
2264.292725 93.593 65.5590
2280.700684 93.655 65.5234
2297.227539 93.712 65.4717
2313.874268 93.770 65.4059
2330.641602 93.828 65.3578
2347.530273 93.884 65.3190
2364.541504 93.938 65.2493
2381.676025 93.994 65.1558
2398.934570 94.048 65.0779
2416.318359 94.099 65.0034
2433.827881 94.147 64.9001
2451.464355 94.195 64.7705
2469.228760 94.243 64.6538
2487.121826 94.289 64.5390
2505.144531 94.334 64.4174
2523.297852 94.380 64.2977
2541.582764 94.425 64.1726
2560.000000 94.466 64.0506
2578.550781 94.504 63.9329
2597.236084 94.541 63.7812
2616.056641 94.576 63.6248
2635.013672 94.609 63.4932
2654.108154 94.641 63.3488
2673.340820 94.673 63.1933
2692.713135 94.702 63.0365
2712.225586 94.726 62.8838
2731.879395 94.746 62.7493
2751.675781 94.764 62.6245
2771.615479 94.780 62.5057
2791.699707 94.794 62.3966
2811.929688 94.805 62.2895
2832.305908 94.816 62.2024
2852.830078 94.824 62.1420
2873.502930 94.827 62.1110
2894.325439 94.829 62.1106
2915.298828 94.832 62.1243
2936.424316 94.835 62.1662
2957.702881 94.840 62.2448
2979.135742 94.848 62.3718
3000.723633 94.861 62.5449
3022.468262 94.882 62.7464
3044.370117 94.914 62.9754
3066.430908 94.958 63.2043
3088.651611 95.015 63.3976
3111.033203 95.086 63.5352
3133.577148 95.162 63.5570
3156.284180 95.239 63.4658
3179.156006 95.312 63.2901
3202.193359 95.381 63.0409
3225.397949 95.440 62.7496
3248.770508 95.488 62.4304
3272.312500 95.527 62.0824
3296.024902 95.558 61.7264
3319.909180 95.583 61.3742
3343.966797 95.605 61.0258
3368.198486 95.623 60.6779
3392.605713 95.639 60.3377
3417.189941 95.653 60.0239
3441.952393 95.665 59.7178
3466.894287 95.676 59.3924
3492.016846 95.687 59.0842
3517.321289 95.697 58.7969
3542.809326 95.705 58.4878
3568.481934 95.709 58.1588
3594.340576 95.711 57.8324
3620.386719 95.711 57.5102
3646.621582 95.711 57.1939
3673.046387 95.710 56.8714
3699.662842 95.703 56.5446
3726.472168 95.691 56.1988
3753.475586 95.680 55.8305
3780.675049 95.666 55.4673
3808.071289 95.646 55.1097
3835.666016 95.620 54.7466
3863.460938 95.591 54.3738
3891.457275 95.559 54.0004
3919.656250 95.521 53.6307
3948.059814 95.478 53.2638
