* Measurement data measured by REW V5.20.13
* Source: Microphone (Realtek(R) Audio), MICROPHONE (Master Volume), L, volume: 0.710. Timing signal peak level -37.5 dBFS, measurement signal peak level -37.3 dBFS
* Format: 2M Log Swept Sine, 1 sweep at -12.0 dBFS using an acoustic timing reference
* Dated: Sep 7, 2023 4:28:00 PM
* REW Settings:
*  C-weighting compensation: Off
*  Target level: 75.0 dB
* Note: ; Delay -0.0534 ms (-18 mm, -0.72 in) using estimated IR delay relative to Acoustic reference played from HEADPHONE R with no timing offset Clock adjustment: 120.6 ppm
* Measurement: KZ Krila DDUD R
* Smoothing: 1/48 octave
* Frequency Step: 1/96 octave
* Start Frequency: 20.000 Hz
*
* Freq(Hz) SPL(dB) Phase(degrees)
20.000000 94.647 5.8451
20.144928 94.637 5.5968
20.290907 94.626 5.3492
20.437943 94.615 5.1042
20.586044 94.605 4.8669
20.735220 94.594 4.6375
20.885475 94.583 4.4102
21.036821 94.574 4.1835
21.189262 94.564 3.9579
21.342808 94.555 3.7325
21.497467 94.547 3.5077
21.653246 94.538 3.2828
21.810154 94.530 3.0594
21.968201 94.523 2.8319
22.127390 94.515 2.5956
22.287735 94.508 2.3543
22.449242 94.501 2.1125
22.611917 94.493 1.8694
22.775772 94.484 1.6265
22.940815 94.474 1.3837
23.107054 94.463 1.1411
23.274498 94.452 0.8970
23.443153 94.439 0.6577
23.613033 94.425 0.4276
23.784142 94.411 0.2048
23.956491 94.397 -0.0103
24.130091 94.383 -0.2183
24.304947 94.370 -0.4205
24.481071 94.357 -0.6168
24.658470 94.344 -0.8084
24.837156 94.332 -0.9963
25.017136 94.320 -1.1896
25.198421 94.308 -1.3870
25.381020 94.296 -1.5881
25.564941 94.284 -1.7926
25.750195 94.270 -1.9960
25.936790 94.255 -2.1983
26.124741 94.239 -2.3980
26.314051 94.222 -2.5938
26.504732 94.205 -2.7769
26.696796 94.188 -2.9496
26.890253 94.172 -3.1136
27.085112 94.158 -3.2736
27.281382 94.146 -3.4382
27.479073 94.135 -3.6107
27.678198 94.126 -3.7958
27.878765 94.118 -3.9991
28.080786 94.109 -4.2258
28.284271 94.099 -4.4708
28.489231 94.086 -4.7340
28.695675 94.070 -5.0007
28.903616 94.050 -5.2681
29.113064 94.027 -5.5250
29.324028 94.002 -5.7665
29.536524 93.976 -5.9846
29.750557 93.951 -6.1815
29.966141 93.926 -6.3569
30.183289 93.903 -6.5237
30.402010 93.882 -6.6852
30.622314 93.864 -6.8485
30.844217 93.848 -7.0201
31.067726 93.833 -7.2032
31.292856 93.818 -7.3986
31.519617 93.802 -7.6014
31.748020 93.785 -7.8054
31.978081 93.767 -8.0049
32.209808 93.749 -8.1979
32.443211 93.731 -8.3809
32.678310 93.713 -8.5564
32.915108 93.697 -8.7264
33.153625 93.681 -8.9002
33.393871 93.666 -9.0792
33.635857 93.650 -9.2651
33.879597 93.635 -9.4574
34.125103 93.618 -9.6527
34.372387 93.599 -9.8481
34.621464 93.578 -10.0327
34.872345 93.556 -10.2036
35.125042 93.533 -10.3586
35.379574 93.511 -10.4999
35.635948 93.491 -10.6321
35.894180 93.471 -10.7598
36.154285 93.453 -10.8912
36.416275 93.435 -11.0291
36.680161 93.417 -11.1732
36.945961 93.398 -11.3223
37.213688 93.378 -11.4752
37.483353 93.359 -11.6294
37.754974 93.339 -11.7845
38.028561 93.319 -11.9427
38.304131 93.298 -12.1075
38.581699 93.277 -12.2767
38.861279 93.255 -12.4470
39.142883 93.231 -12.6133
39.426529 93.208 -12.7704
39.712231 93.186 -12.9195
40.000000 93.166 -13.0679
40.289856 93.149 -13.2262
40.581814 93.133 -13.4059
40.875885 93.116 -13.6090
41.172089 93.095 -13.8265
41.470440 93.070 -14.0420
41.770950 93.040 -14.2347
42.073643 93.009 -14.3887
42.378525 92.980 -14.5035
42.685616 92.956 -14.5938
42.994934 92.938 -14.6803
43.306492 92.924 -14.7820
43.620308 92.911 -14.9080
43.936401 92.896 -15.0537
44.254780 92.877 -15.2048
44.575470 92.856 -15.3465
44.898483 92.833 -15.4739
45.223835 92.812 -15.5935
45.551544 92.791 -15.7166
45.881630 92.770 -15.8524
46.214108 92.746 -16.0020
46.548996 92.717 -16.1549
46.886307 92.685 -16.2935
47.226067 92.652 -16.4044
47.568283 92.621 -16.4870
47.912983 92.594 -16.5571
48.260181 92.572 -16.6395
48.609894 92.552 -16.7539
48.962143 92.533 -16.9042
49.316940 92.510 -17.0762
49.674313 92.484 -17.2476
50.034271 92.456 -17.4034
50.396843 92.431 -17.5463
50.762039 92.407 -17.6895
51.129883 92.383 -17.8388
51.500389 92.357 -17.9814
51.873581 92.330 -18.0944
52.249481 92.305 -18.1686
52.628101 92.287 -18.2246
53.009464 92.274 -18.3019
53.393593 92.260 -18.4221
53.780506 92.238 -18.5597
54.170223 92.206 -18.6604
54.562763 92.172 -18.6931
54.958145 92.143 -18.6863
55.356396 92.120 -18.7023
55.757530 92.093 -18.7665
56.161572 92.056 -18.8326
56.568542 92.013 -18.8392
56.978462 91.980 -18.8106
57.391350 91.960 -18.8760
57.807232 91.932 -19.1381
58.226128 91.864 -19.5062
58.648056 91.749 -19.6951
59.073048 91.623 -19.4407
59.501114 91.552 -18.7882
59.932281 91.576 -18.1642
60.366577 91.664 -18.0453
60.804020 91.737 -18.5332
61.244629 91.740 -19.3047
61.688435 91.680 -19.9091
62.135452 91.608 -20.1389
62.585712 91.571 -20.1559
63.039234 91.570 -20.2473
63.496040 91.573 -20.5242
63.956161 91.553 -20.8692
64.419617 91.511 -21.1052
64.886421 91.469 -21.1780
65.356621 91.440 -21.1545
65.830215 91.423 -21.1233
66.307251 91.411 -21.1260
66.787743 91.398 -21.1683
67.271713 91.379 -21.2417
67.759193 91.350 -21.3170
68.250206 91.314 -21.3566
68.744774 91.278 -21.3488
69.242928 91.246 -21.3262
69.744690 91.218 -21.3274
70.250084 91.191 -21.3625
70.759148 91.162 -21.4149
71.271896 91.132 -21.4695
71.788361 91.101 -21.5198
72.308571 91.071 -21.5646
72.832550 91.045 -21.6144
73.360321 91.020 -21.6913
73.891922 90.993 -21.8026
74.427376 90.959 -21.9224
74.966705 90.918 -22.0118
75.509949 90.877 -22.0553
76.057121 90.840 -22.0742
76.608261 90.808 -22.1034
77.163399 90.777 -22.1566
77.722557 90.743 -22.2183
78.285767 90.709 -22.2623
78.853058 90.677 -22.2803
79.424461 90.651 -22.2937
80.000000 90.629 -22.3298
80.579712 90.605 -22.3864
81.163628 90.577 -22.4280
81.751770 90.548 -22.4232
82.344177 90.525 -22.3881
82.940880 90.506 -22.3832
83.541901 90.483 -22.4348
84.147285 90.447 -22.4918
84.757050 90.407 -22.4873
85.371231 90.373 -22.4489
85.989868 90.346 -22.4626
86.612984 90.313 -22.5386
87.240616 90.272 -22.5963
87.872803 90.234 -22.5979
88.509560 90.205 -22.6008
89.150940 90.178 -22.6392
89.796967 90.147 -22.6661
90.447670 90.116 -22.6404
91.103088 90.092 -22.5861
91.763260 90.071 -22.5372
92.428215 90.050 -22.4995
93.097992 90.026 -22.4669
93.772614 90.000 -22.4315
94.452133 89.972 -22.3975
95.136566 89.945 -22.3926
95.825966 89.914 -22.4216
96.520363 89.878 -22.4502
97.219788 89.844 -22.4692
97.924286 89.810 -22.4930
98.633881 89.774 -22.4941
99.348625 89.742 -22.4504
100.068542 89.716 -22.4000
100.793686 89.690 -22.3528
101.524078 89.664 -22.2822
102.259766 89.645 -22.2286
103.000778 89.623 -22.2380
103.747162 89.590 -22.2626
104.498962 89.553 -22.2563
105.256203 89.516 -22.2322
106.018929 89.481 -22.1884
106.787186 89.451 -22.1216
107.561012 89.430 -22.0668
108.340446 89.413 -22.0747
109.125526 89.388 -22.1584
109.916290 89.342 -22.2281
110.712791 89.286 -22.1676
111.515060 89.241 -21.9993
112.323143 89.215 -21.8568
113.137085 89.195 -21.8138
113.956924 89.171 -21.8127
114.782700 89.148 -21.7755
115.614464 89.136 -21.7197
116.452255 89.129 -21.6901
117.296112 89.118 -21.6207
118.146095 89.115 -21.4247
119.002228 89.141 -21.3053
119.864563 89.149 -21.5104
120.733154 89.087 -21.7222
121.608040 89.000 -21.5837
122.489258 88.937 -21.3271
123.376869 88.883 -21.1472
124.270905 88.834 -21.0008
125.171425 88.797 -20.9224
126.078468 88.764 -20.9077
126.992081 88.735 -20.9167
127.912323 88.711 -20.9368
128.839233 88.686 -20.9486
129.772842 88.658 -20.9094
130.713242 88.631 -20.8165
131.660431 88.606 -20.6923
132.614502 88.587 -20.5477
133.575485 88.575 -20.4731
134.543427 88.553 -20.4678
135.518387 88.525 -20.4511
136.500412 88.496 -20.4061
137.489548 88.469 -20.3212
138.485855 88.443 -20.2059
139.489380 88.420 -20.0338
140.500168 88.409 -19.8669
141.518295 88.394 -19.7836
142.543793 88.369 -19.6848
143.576721 88.346 -19.5560
144.617142 88.326 -19.4664
145.665100 88.305 -19.4348
146.720642 88.273 -19.4149
147.783844 88.242 -19.3152
148.854752 88.224 -19.2105
149.933411 88.207 -19.1704
151.019897 88.181 -19.1210
152.114243 88.154 -18.9963
153.216522 88.140 -18.8403
154.326797 88.133 -18.7700
155.445114 88.117 -18.7922
156.571533 88.084 -18.7999
157.706116 88.048 -18.7048
158.848923 88.023 -18.5948
160.000000 87.995 -18.5222
161.159424 87.963 -18.3959
162.327255 87.938 -18.2004
163.503540 87.929 -18.0338
164.688354 87.917 -17.9945
165.881760 87.888 -17.9537
167.083801 87.857 -17.8345
168.294571 87.832 -17.6728
169.514099 87.815 -17.5178
170.742462 87.800 -17.4094
171.979736 87.777 -17.3231
173.225967 87.751 -17.2072
174.481232 87.730 -17.1159
175.745605 87.706 -17.0520
177.019119 87.687 -16.9748
178.301880 87.670 -16.9370
179.593933 87.638 -16.8369
180.895340 87.612 -16.5768
182.206177 87.598 -16.3225
183.526520 87.579 -16.1339
184.856430 87.553 -15.9949
186.195984 87.521 -15.8871
187.545227 87.489 -15.8000
188.904266 87.456 -15.7063
190.273132 87.435 -15.5663
191.651932 87.424 -15.4811
193.040726 87.406 -15.4119
194.439575 87.389 -15.2932
195.848572 87.373 -15.1729
197.267761 87.356 -14.9997
198.697250 87.347 -14.8051
200.137085 87.337 -14.6489
201.587372 87.318 -14.5031
203.048157 87.295 -14.3218
204.519531 87.276 -14.1667
206.001556 87.254 -14.0289
207.494324 87.231 -13.8663
208.997925 87.209 -13.6945
210.512405 87.184 -13.5340
212.037857 87.161 -13.3950
213.574371 87.140 -13.2898
215.122025 87.126 -13.1909
216.680893 87.117 -13.1205
218.251053 87.103 -13.0397
219.832581 87.086 -12.9381
221.425583 87.063 -12.8544
223.030121 87.037 -12.7769
224.646286 87.012 -12.6870
226.274170 86.991 -12.5623
227.913849 86.972 -12.3551
229.565399 86.961 -12.1121
231.228928 86.948 -11.9501
232.904510 86.925 -11.8478
234.592224 86.902 -11.7722
236.292191 86.892 -11.7259
238.004456 86.885 -11.7222
239.729126 86.859 -11.6512
241.466309 86.823 -11.3479
243.216080 86.799 -10.9778
244.978516 86.781 -10.7162
246.753738 86.762 -10.5571
248.541809 86.747 -10.4316
250.342850 86.740 -10.3046
252.156937 86.735 -10.1733
253.984161 86.722 -10.0272
255.824646 86.704 -9.8098
257.678467 86.692 -9.5639
259.545685 86.679 -9.3739
261.426483 86.661 -9.2173
263.320862 86.640 -9.0822
265.229004 86.618 -8.9216
267.150970 86.603 -8.6840
269.086853 86.596 -8.4458
271.036774 86.584 -8.2518
273.000824 86.568 -8.0737
274.979095 86.556 -7.9399
276.971710 86.542 -7.8218
278.978760 86.531 -7.6608
281.000336 86.522 -7.5156
283.036591 86.506 -7.3907
285.087585 86.491 -7.2559
287.153442 86.480 -7.1360
289.234283 86.471 -7.0234
291.330200 86.463 -6.8707
293.441284 86.451 -6.6992
295.567688 86.428 -6.4733
297.709503 86.407 -6.1993
299.866821 86.404 -5.9651
302.039795 86.411 -5.8320
304.228485 86.405 -5.7048
306.433044 86.390 -5.4780
308.653595 86.386 -5.2463
310.890228 86.384 -5.1191
313.143066 86.367 -4.9824
315.412231 86.348 -4.7668
317.697845 86.333 -4.6061
320.000000 86.319 -4.4506
322.318848 86.317 -4.2271
324.654510 86.315 -4.0292
327.007080 86.298 -3.9043
329.376709 86.277 -3.7629
331.763519 86.272 -3.5464
334.167603 86.274 -3.2935
336.589142 86.266 -3.0570
339.028198 86.253 -2.8989
341.484924 86.237 -2.7645
343.959473 86.226 -2.5695
346.451935 86.218 -2.3448
348.962463 86.214 -2.1041
351.491211 86.217 -1.8981
354.038239 86.218 -1.7170
356.603760 86.220 -1.5323
359.187866 86.217 -1.3944
361.790680 86.194 -1.2343
364.412354 86.172 -0.9979
367.053040 86.155 -0.7888
369.712860 86.135 -0.6102
372.391968 86.118 -0.4403
375.090454 86.111 -0.2369
377.808533 86.108 0.0063
380.546265 86.097 0.2283
383.303864 86.077 0.4210
386.081451 86.067 0.6228
388.879150 86.067 0.8330
391.697144 86.063 1.0521
394.535522 86.052 1.2632
397.394501 86.039 1.4547
400.274170 86.031 1.6616
403.174744 86.029 1.8776
406.096313 86.018 2.0855
409.039062 86.001 2.2977
412.003113 85.993 2.4901
414.988647 85.988 2.6741
417.995850 85.976 2.9197
421.024811 85.967 3.2079
424.075714 85.964 3.4377
427.148743 85.961 3.6597
430.244049 85.955 3.9060
433.361786 85.946 4.1672
436.502106 85.935 4.4181
439.665161 85.921 4.6449
442.851166 85.914 4.8580
446.060242 85.916 5.0618
449.292572 85.917 5.2643
452.548340 85.912 5.4493
455.827698 85.898 5.6451
459.130798 85.882 5.8848
462.457855 85.873 6.1115
465.809021 85.869 6.3146
469.184448 85.865 6.5316
472.584381 85.860 6.7559
476.008911 85.857 7.0786
479.458252 85.861 7.4438
482.932617 85.854 7.6819
486.432159 85.843 7.8563
489.957031 85.842 8.0172
493.507477 85.837 8.2004
497.083618 85.824 8.4741
500.685699 85.819 8.8232
504.313873 85.812 9.1993
507.968323 85.802 9.5093
511.649292 85.798 9.6633
515.356934 85.794 9.7798
519.091370 85.794 9.9876
522.852966 85.797 10.2776
526.641724 85.803 10.5861
530.458008 85.812 10.8566
534.301941 85.823 11.0729
538.173706 85.835 11.2847
542.073547 85.837 11.6246
546.001648 85.823 12.0485
549.958191 85.810 12.4044
553.943420 85.812 12.6606
557.957520 85.815 12.8341
562.000671 85.808 13.0017
566.073181 85.799 13.2377
570.175171 85.795 13.5577
574.306885 85.799 13.9150
578.468567 85.810 14.1688
582.660400 85.826 14.3784
586.882568 85.838 14.6555
591.135376 85.838 14.9653
595.419006 85.823 15.2704
599.733643 85.812 15.5709
604.079590 85.828 15.8803
608.456970 85.848 16.1970
612.866089 85.855 16.4622
617.307190 85.861 16.7061
621.780457 85.873 16.9929
626.286133 85.884 17.2906
630.824463 85.894 17.5363
635.395691 85.904 17.6969
640.000000 85.908 17.8646
644.637695 85.928 18.1083
649.309021 85.956 18.3470
654.014160 85.967 18.5143
658.753418 85.976 18.6340
663.527039 86.005 18.7200
668.335205 86.041 18.7215
673.178284 86.064 18.5895
678.056396 86.068 18.2228
682.969849 86.042 17.6678
687.918945 85.949 17.0344
692.903870 85.769 16.5851
697.924927 85.516 16.7601
702.982422 85.267 17.8353
708.076477 85.118 19.5430
713.207520 85.099 21.3317
718.375732 85.156 22.8535
723.581360 85.224 23.9519
728.824707 85.289 24.6763
734.106079 85.359 25.2557
739.425720 85.424 25.7563
744.783936 85.474 26.2264
750.180908 85.526 26.6996
755.617065 85.575 27.1762
761.092529 85.605 27.5740
766.607727 85.627 27.8782
772.162903 85.657 28.2069
777.758301 85.686 28.6585
783.394287 85.703 29.1827
789.071045 85.719 29.6676
794.789001 85.747 30.1011
800.548340 85.774 30.4627
806.349487 85.790 30.8268
812.192627 85.809 31.2415
818.078125 85.834 31.6360
824.006226 85.862 32.0402
829.977295 85.893 32.4593
835.991699 85.928 32.8271
842.049622 85.968 33.2016
848.151428 86.003 33.6737
854.297485 86.032 34.1846
860.488098 86.060 34.6415
866.723572 86.084 35.0695
873.004211 86.106 35.5001
879.330322 86.131 35.9275
885.702332 86.163 36.3876
892.120483 86.195 36.8510
898.585144 86.230 37.2603
905.096680 86.268 37.6862
911.655396 86.306 38.1481
918.261597 86.349 38.5669
924.915710 86.391 38.9434
931.618042 86.428 39.3282
938.368896 86.465 39.7057
945.168762 86.505 40.0654
952.017822 86.540 40.4573
958.916504 86.576 40.8815
965.865234 86.621 41.2941
972.864319 86.666 41.7100
979.914062 86.708 42.0845
987.014954 86.754 42.4208
994.167236 86.808 42.7823
1001.371399 86.862 43.1689
1008.627747 86.915 43.5176
1015.936646 86.965 43.8253
1023.298584 87.010 44.1507
1030.713867 87.055 44.5456
1038.182739 87.106 44.9196
1045.705933 87.160 45.2365
1053.283447 87.210 45.5543
1060.916016 87.258 45.8496
1068.603882 87.307 46.1512
1076.347412 87.350 46.4890
1084.147095 87.392 46.8026
1092.003296 87.444 47.0565
1099.916382 87.502 47.3005
1107.886841 87.560 47.5759
1115.915039 87.627 47.8467
1124.001343 87.696 48.0626
1132.146362 87.761 48.2925
1140.350342 87.828 48.5452
1148.613770 87.889 48.7766
1156.937134 87.943 48.9753
1165.320801 87.994 49.1781
1173.765137 88.046 49.4138
1182.270752 88.107 49.6718
1190.838013 88.171 49.9326
1199.467285 88.229 50.1845
1208.159180 88.285 50.3920
1216.913940 88.344 50.5443
1225.732178 88.408 50.7056
1234.614380 88.473 50.8983
1243.560913 88.534 51.0827
1252.572266 88.589 51.2318
1261.648926 88.644 51.4021
1270.791382 88.702 51.6232
1280.000000 88.761 51.8441
1289.275391 88.823 52.0138
1298.618042 88.882 52.1602
1308.028320 88.937 52.3299
1317.506836 88.993 52.5272
1327.054077 89.048 52.7390
1336.670410 89.105 52.8996
1346.356567 89.159 53.0480
1356.112793 89.199 53.2343
1365.939697 89.232 53.4093
1375.837891 89.270 53.5730
1385.807739 89.310 53.7821
1395.849854 89.359 54.0058
1405.964844 89.413 54.1974
1416.152954 89.467 54.3755
1426.415039 89.524 54.5648
1436.751465 89.574 54.7925
1447.162720 89.623 55.0329
1457.649414 89.676 55.2280
1468.212158 89.724 55.3878
1478.851440 89.772 55.5772
1489.567871 89.822 55.8078
1500.361816 89.869 56.0040
1511.234131 89.918 56.1695
1522.185059 89.966 56.3725
1533.215454 90.018 56.5794
1544.325806 90.074 56.7694
1555.516602 90.125 56.9605
1566.788574 90.171 57.1738
1578.142090 90.218 57.4044
1589.578003 90.264 57.6263
1601.096680 90.308 57.8284
1612.698975 90.354 58.0006
1624.385254 90.409 58.2070
1636.156250 90.465 58.4435
1648.012451 90.515 58.6641
1659.954590 90.563 58.8839
1671.983398 90.612 59.1081
1684.099243 90.662 59.3350
1696.302856 90.714 59.5703
1708.594971 90.770 59.8107
1720.976196 90.824 60.0400
1733.447144 90.874 60.2360
1746.008423 90.928 60.4327
1758.660645 90.987 60.6469
1771.404663 91.038 60.8866
1784.240967 91.086 61.1317
1797.170288 91.136 61.3604
1810.193359 91.191 61.6011
1823.310791 91.249 61.8477
1836.523193 91.307 62.0999
1849.831421 91.366 62.3711
1863.236084 91.426 62.6360
1876.737793 91.490 62.8747
1890.337524 91.562 63.1136
1904.035645 91.637 63.3303
1917.833008 91.712 63.5150
1931.730469 91.782 63.6857
1945.728638 91.848 63.8597
1959.828125 91.918 64.0111
1974.029907 91.990 64.1291
1988.334473 92.056 64.2133
2002.742798 92.118 64.2970
2017.255493 92.183 64.4011
2031.873291 92.250 64.4994
2046.597168 92.316 64.5953
2061.427734 92.380 64.7048
2076.365479 92.440 64.8259
2091.411865 92.498 64.9568
2106.566895 92.562 65.0761
2121.832031 92.628 65.1738
2137.207764 92.695 65.2690
2152.694824 92.763 65.3880
2168.294189 92.831 65.5186
2184.006592 92.896 65.6287
2199.832764 92.964 65.7131
2215.773682 93.037 65.7896
2231.830078 93.111 65.8536
2248.002686 93.181 65.8995
2264.292725 93.250 65.9257
2280.700684 93.316 65.9186
2297.227539 93.380 65.8851
2313.874268 93.445 65.8501
2330.641602 93.511 65.8126
2347.530273 93.571 65.7586
2364.541504 93.628 65.6887
2381.676025 93.687 65.6318
2398.934570 93.746 65.6018
2416.318359 93.804 65.5714
2433.827881 93.861 65.5093
2451.464355 93.915 65.4271
2469.228760 93.967 65.3391
2487.121826 94.016 65.2545
2505.144531 94.067 65.1699
2523.297852 94.119 65.1008
2541.582764 94.170 65.0266
2560.000000 94.216 64.9418
2578.550781 94.260 64.8623
2597.236084 94.301 64.7608
2616.056641 94.342 64.6396
2635.013672 94.383 64.5324
2654.108154 94.418 64.4567
2673.340820 94.450 64.3925
2692.713135 94.483 64.2994
2712.225586 94.515 64.1982
2731.879395 94.543 64.1126
2751.675781 94.568 64.0439
2771.615479 94.590 63.9913
2791.699707 94.612 63.9466
2811.929688 94.637 63.9141
2832.305908 94.658 63.9272
2852.830078 94.676 63.9835
2873.502930 94.696 64.0903
2894.325439 94.722 64.2098
2915.298828 94.754 64.3286
2936.424316 94.796 64.4626
2957.702881 94.848 64.5988
2979.135742 94.908 64.7171
3000.723633 94.973 64.7737
3022.468262 95.043 64.7342
3044.370117 95.113 64.6261
3066.430908 95.181 64.4730
3088.651611 95.239 64.2695
3111.033203 95.287 64.0329
3133.577148 95.328 63.7953
3156.284180 95.366 63.5828
3179.156006 95.402 63.4036
3202.193359 95.435 63.2582
3225.397949 95.467 63.1187
3248.770508 95.502 62.9647
3272.312500 95.541 62.7985
3296.024902 95.584 62.6145
3319.909180 95.628 62.3907
3343.966797 95.671 62.1115
3368.198486 95.710 61.8024
3392.605713 95.744 61.4868
3417.189941 95.772 61.1680
3441.952393 95.798 60.8534
3466.894287 95.825 60.5300
3492.016846 95.852 60.1841
3517.321289 95.881 59.8213
3542.809326 95.911 59.4377
3568.481934 95.934 59.0234
3594.340576 95.953 58.5917
3620.386719 95.967 58.1514
3646.621582 95.975 57.7039
3673.046387 95.981 57.2307
3699.662842 95.983 56.7356
3726.472168 95.978 56.2393
3753.475586 95.966 55.7536
3780.675049 95.951 55.2634
3808.071289 95.930 54.7669
3835.666016 95.902 54.2767
3863.460938 95.866 53.7896
3891.457275 95.822 53.3010
3919.656250 95.773 52.8231
3948.059814 95.718 52.3630
3976.668945 95.657 51.9228
