* Measurement data measured by REW V5.20.13
* Source: Microphone (Realtek(R) Audio), MICROPHONE (Master Volume), L, volume: 0.710. Timing signal peak level -37.3 dBFS, measurement signal peak level -37.1 dBFS
* Format: 2M Log Swept Sine, 1 sweep at -12.0 dBFS using an acoustic timing reference
* Dated: Sep 7, 2023 4:26:08 PM
* REW Settings:
*  C-weighting compensation: Off
*  Target level: 75.0 dB
* Note: ; Delay -0.0545 ms (-19 mm, -0.74 in) using estimated IR delay relative to Acoustic reference played from HEADPHONE R with no timing offset Clock adjustment: 120.8 ppm
* Measurement: KZ Krila DUDD R
* Smoothing: 1/48 octave
* Frequency Step: 1/96 octave
* Start Frequency: 20.000 Hz
*
* Freq(Hz) SPL(dB) Phase(degrees)
20.000000 92.952 8.9797
20.144928 92.941 8.7539
20.290907 92.931 8.5332
20.437943 92.922 8.3173
20.586044 92.913 8.1068
20.735220 92.905 7.9031
20.885475 92.898 7.6950
21.036821 92.892 7.4789
21.189262 92.887 7.2557
21.342808 92.882 7.0218
21.497467 92.876 6.7781
21.653246 92.869 6.5289
21.810154 92.861 6.2738
21.968201 92.851 6.0160
22.127390 92.839 5.7544
22.287735 92.826 5.4956
22.449242 92.811 5.2536
22.611917 92.794 5.0260
22.775772 92.777 4.8181
22.940815 92.761 4.6314
23.107054 92.746 4.4577
23.274498 92.733 4.2977
23.443153 92.723 4.1451
23.613033 92.716 3.9991
23.784142 92.711 3.8517
23.956491 92.710 3.6919
24.130091 92.711 3.5202
24.304947 92.712 3.3284
24.481071 92.714 3.1193
24.658470 92.714 2.8969
24.837156 92.712 2.6615
25.017136 92.707 2.4190
25.198421 92.698 2.1707
25.381020 92.687 1.9327
25.564941 92.672 1.7050
25.750195 92.656 1.5001
25.936790 92.638 1.3169
26.124741 92.620 1.1540
26.314051 92.603 1.0112
26.504732 92.587 0.8865
26.696796 92.574 0.7766
26.890253 92.564 0.6696
27.085112 92.556 0.5618
27.281382 92.550 0.4412
27.479073 92.545 0.3094
27.678198 92.541 0.1644
27.878765 92.536 0.0072
28.080786 92.529 -0.1633
28.284271 92.522 -0.3406
28.489231 92.513 -0.5236
28.695675 92.502 -0.7058
28.903616 92.491 -0.8881
29.113064 92.479 -1.0726
29.324028 92.466 -1.2589
29.536524 92.453 -1.4474
29.750557 92.438 -1.6368
29.966141 92.422 -1.8267
30.183289 92.403 -2.0144
30.402010 92.383 -2.1963
30.622314 92.362 -2.3647
30.844217 92.341 -2.5214
31.067726 92.321 -2.6667
31.292856 92.305 -2.8105
31.519617 92.291 -2.9581
31.748020 92.279 -3.1172
31.978081 92.269 -3.2972
32.209808 92.258 -3.4995
32.443211 92.245 -3.7225
32.678310 92.229 -3.9538
32.915108 92.208 -4.1862
33.153625 92.184 -4.4038
33.393871 92.157 -4.5987
33.635857 92.129 -4.7630
33.879597 92.104 -4.8990
34.125103 92.082 -5.0163
34.372387 92.065 -5.1241
34.621464 92.050 -5.2359
34.872345 92.038 -5.3584
35.125042 92.028 -5.4977
35.379574 92.017 -5.6542
35.635948 92.004 -5.8196
35.894180 91.988 -5.9870
36.154285 91.969 -6.1462
36.416275 91.949 -6.2867
36.680161 91.927 -6.4051
36.945961 91.907 -6.4998
37.213688 91.891 -6.5817
37.483353 91.877 -6.6625
37.754974 91.867 -6.7531
38.028561 91.859 -6.8660
38.304131 91.849 -7.0040
38.581699 91.836 -7.1561
38.861279 91.820 -7.3095
39.142883 91.801 -7.4483
39.426529 91.782 -7.5639
39.712231 91.766 -7.6654
40.000000 91.752 -7.7690
40.289856 91.741 -7.8942
40.581814 91.730 -8.0533
40.875885 91.713 -8.2331
41.172089 91.689 -8.4061
41.470440 91.661 -8.5432
41.770950 91.631 -8.6232
42.073643 91.607 -8.6505
42.378525 91.593 -8.6652
42.685616 91.588 -8.7131
42.994934 91.587 -8.8224
43.306492 91.582 -8.9932
43.620308 91.568 -9.1943
43.936401 91.543 -9.3753
44.254780 91.513 -9.4976
44.575470 91.486 -9.5616
44.898483 91.465 -9.6007
45.223835 91.450 -9.6558
45.551544 91.436 -9.7491
45.881630 91.418 -9.8705
46.214108 91.393 -9.9851
46.548996 91.365 -10.0590
46.886307 91.341 -10.0886
47.226067 91.325 -10.1120
47.568283 91.318 -10.1832
47.912983 91.309 -10.3299
48.260181 91.291 -10.5318
48.609894 91.261 -10.7297
48.962143 91.222 -10.8658
49.316940 91.186 -10.9232
49.674313 91.160 -10.9381
50.034271 91.146 -10.9755
50.396843 91.138 -11.0825
50.762039 91.127 -11.2565
51.129883 91.108 -11.4521
51.500389 91.084 -11.6217
51.873581 91.060 -11.7531
52.249481 91.040 -11.8711
52.628101 91.023 -12.0002
53.009464 91.004 -12.1310
53.393593 90.982 -12.2256
53.780506 90.963 -12.2606
54.170223 90.954 -12.2660
54.562763 90.954 -12.3065
54.958145 90.953 -12.4133
55.356396 90.939 -12.5358
55.757530 90.914 -12.5766
56.161572 90.894 -12.4990
56.568542 90.891 -12.3949
56.978462 90.897 -12.4078
57.391350 90.883 -12.5535
57.807232 90.831 -12.6321
58.226128 90.761 -12.3785
58.648056 90.729 -11.7582
59.073048 90.780 -11.1139
59.501114 90.897 -10.9614
59.932281 90.998 -11.5310
60.366577 91.008 -12.5361
60.804020 90.914 -13.3996
61.244629 90.771 -13.7166
61.688435 90.657 -13.5332
62.135452 90.607 -13.2553
62.585712 90.593 -13.2148
63.039234 90.570 -13.3897
63.496040 90.526 -13.5597
63.956161 90.481 -13.5927
64.419617 90.458 -13.5859
64.886421 90.451 -13.6687
65.356621 90.440 -13.8583
65.830215 90.415 -14.0539
66.307251 90.383 -14.1734
66.787743 90.355 -14.2215
67.271713 90.331 -14.2383
67.759193 90.311 -14.2418
68.250206 90.291 -14.2323
68.744774 90.274 -14.2192
69.242928 90.255 -14.2125
69.744690 90.235 -14.2095
70.250084 90.216 -14.2089
70.759148 90.197 -14.2237
71.271896 90.176 -14.2601
71.788361 90.150 -14.2969
72.308571 90.123 -14.3073
72.832550 90.103 -14.2975
73.360321 90.091 -14.3107
73.891922 90.085 -14.3898
74.427376 90.074 -14.5399
74.966705 90.051 -14.7073
75.509949 90.017 -14.7999
76.057121 89.986 -14.7783
76.608261 89.970 -14.7122
77.163399 89.965 -14.7075
77.722557 89.954 -14.7810
78.285767 89.930 -14.8477
78.853058 89.902 -14.8453
79.424461 89.881 -14.8176
80.000000 89.862 -14.8298
80.579712 89.839 -14.8679
81.163628 89.813 -14.8871
81.751770 89.791 -14.9003
82.344177 89.773 -14.9533
82.940880 89.749 -15.0463
83.541901 89.719 -15.1253
84.147285 89.687 -15.1483
84.757050 89.660 -15.1222
85.371231 89.641 -15.0795
85.989868 89.628 -15.0542
86.612984 89.615 -15.0633
87.240616 89.596 -15.0822
87.872803 89.573 -15.0644
88.509560 89.555 -15.0123
89.150940 89.543 -14.9948
89.796967 89.527 -15.0409
90.447670 89.500 -15.0841
91.103088 89.471 -15.0554
91.763260 89.453 -15.0023
92.428215 89.443 -15.0148
93.097992 89.426 -15.0840
93.772614 89.398 -15.1098
94.452133 89.375 -15.0550
95.136566 89.364 -15.0098
95.825966 89.355 -15.0538
96.520363 89.333 -15.1439
97.219788 89.299 -15.1898
97.924286 89.264 -15.1614
98.633881 89.236 -15.0929
99.348625 89.214 -15.0387
100.068542 89.193 -15.0119
100.793686 89.171 -14.9677
101.524078 89.154 -14.9065
102.259766 89.141 -14.8945
103.000778 89.120 -14.9162
103.747162 89.093 -14.8858
104.498962 89.070 -14.8230
105.256203 89.049 -14.7978
106.018929 89.022 -14.7781
106.787186 89.000 -14.7311
107.561012 88.987 -14.7333
108.340446 88.971 -14.8222
109.125526 88.944 -14.8877
109.916290 88.922 -14.8393
110.712791 88.920 -14.7622
111.515060 88.925 -14.7817
112.323143 88.914 -14.8554
113.137085 88.884 -14.8407
113.956924 88.850 -14.7135
114.782700 88.822 -14.5901
115.614464 88.787 -14.5523
116.452255 88.742 -14.5767
117.296112 88.693 -14.7161
118.146095 88.618 -15.0189
119.002228 88.500 -15.1201
119.864563 88.416 -14.7258
120.733154 88.433 -14.3228
121.608040 88.488 -14.3373
122.489258 88.522 -14.5113
123.376869 88.542 -14.6205
124.270905 88.553 -14.6611
125.171425 88.551 -14.6291
126.078468 88.534 -14.5181
126.992081 88.511 -14.3095
127.912323 88.496 -14.0766
128.839233 88.489 -13.9327
129.772842 88.481 -13.9208
130.713242 88.462 -13.9791
131.660431 88.438 -14.0015
132.614502 88.419 -13.9907
133.575485 88.402 -13.9875
134.543427 88.380 -13.9788
135.518387 88.354 -13.9126
136.500412 88.335 -13.8195
137.489548 88.316 -13.7975
138.485855 88.286 -13.7579
139.489380 88.267 -13.6397
140.500168 88.264 -13.5705
141.518295 88.263 -13.5737
142.543793 88.258 -13.5936
143.576721 88.248 -13.5861
144.617142 88.235 -13.5344
145.665100 88.218 -13.4378
146.720642 88.205 -13.3145
147.783844 88.193 -13.2160
148.854752 88.175 -13.1314
149.933411 88.157 -13.0274
151.019897 88.147 -12.9585
152.114243 88.132 -12.9980
153.216522 88.100 -13.0431
154.326797 88.065 -12.9934
155.445114 88.038 -12.8772
156.571533 88.022 -12.7358
157.706116 88.016 -12.6124
158.848923 88.011 -12.5549
160.000000 87.995 -12.5562
161.159424 87.965 -12.5376
162.327255 87.934 -12.4214
163.503540 87.924 -12.3001
164.688354 87.923 -12.2706
165.881760 87.923 -12.2886
167.083801 87.917 -12.3265
168.294571 87.898 -12.3219
169.514099 87.872 -12.2058
170.742462 87.853 -12.0264
171.979736 87.839 -11.9095
173.225967 87.819 -11.8680
174.481232 87.794 -11.8380
175.745605 87.772 -11.7784
177.019119 87.759 -11.7108
178.301880 87.754 -11.6571
179.593933 87.744 -11.6559
180.895340 87.716 -11.5832
182.206177 87.689 -11.3888
183.526520 87.669 -11.1726
184.856430 87.653 -11.0075
186.195984 87.632 -10.9076
187.545227 87.603 -10.8441
188.904266 87.574 -10.7710
190.273132 87.549 -10.7040
191.651932 87.527 -10.6324
193.040726 87.513 -10.5149
194.439575 87.515 -10.4291
195.848572 87.513 -10.4519
197.267761 87.489 -10.4878
198.697250 87.451 -10.3666
200.137085 87.429 -10.1055
201.587372 87.427 -9.9235
203.048157 87.415 -9.8662
204.519531 87.390 -9.7839
206.001556 87.374 -9.6762
207.494324 87.364 -9.6507
208.997925 87.346 -9.6203
210.512405 87.331 -9.5039
212.037857 87.318 -9.3719
213.574371 87.295 -9.2169
215.122025 87.270 -9.0161
216.680893 87.256 -8.9031
218.251053 87.240 -8.9323
219.832581 87.218 -8.9589
221.425583 87.203 -8.8963
223.030121 87.195 -8.7639
224.646286 87.189 -8.6294
226.274170 87.169 -8.5257
227.913849 87.141 -8.3728
229.565399 87.125 -8.1989
231.228928 87.115 -8.0900
232.904510 87.099 -7.9749
234.592224 87.088 -7.8616
236.292191 87.079 -7.8716
238.004456 87.059 -7.9420
239.729126 87.032 -7.8864
241.466309 87.020 -7.6423
243.216080 87.018 -7.3635
244.978516 87.007 -7.1421
246.753738 86.988 -6.9978
248.541809 86.972 -6.9490
250.342850 86.962 -6.9538
252.156937 86.955 -6.9220
253.984161 86.945 -6.8222
255.824646 86.924 -6.6924
257.678467 86.892 -6.5179
259.545685 86.865 -6.3128
261.426483 86.855 -6.1491
263.320862 86.851 -6.0473
265.229004 86.848 -5.9326
267.150970 86.847 -5.7855
269.086853 86.843 -5.6499
271.036774 86.826 -5.5066
273.000824 86.801 -5.3419
274.979095 86.777 -5.2032
276.971710 86.759 -5.1148
278.978760 86.747 -5.0177
281.000336 86.739 -4.8688
283.036591 86.733 -4.7260
285.087585 86.716 -4.6393
287.153442 86.692 -4.5865
289.234283 86.668 -4.4807
291.330200 86.654 -4.2807
293.441284 86.651 -4.0582
295.567688 86.656 -3.8747
297.709503 86.671 -3.7343
299.866821 86.681 -3.6157
302.039795 86.671 -3.4257
304.228485 86.647 -3.2348
306.433044 86.615 -3.1453
308.653595 86.590 -3.1066
310.890228 86.581 -3.0120
313.143066 86.580 -2.8370
315.412231 86.575 -2.6277
317.697845 86.560 -2.4559
320.000000 86.543 -2.3037
322.318848 86.538 -2.1465
324.654510 86.538 -2.0095
327.007080 86.529 -1.8502
329.376709 86.516 -1.6568
331.763519 86.502 -1.4919
334.167603 86.486 -1.3731
336.589142 86.474 -1.2649
339.028198 86.473 -1.1280
341.484924 86.478 -0.9513
343.959473 86.473 -0.7535
346.451935 86.449 -0.5410
348.962463 86.424 -0.3277
351.491211 86.414 -0.1142
354.038239 86.409 0.1202
356.603760 86.398 0.3963
359.187866 86.392 0.6111
361.790680 86.388 0.6407
364.412354 86.375 0.6632
367.053040 86.362 0.8115
369.712860 86.351 1.0364
372.391968 86.339 1.2907
375.090454 86.329 1.5110
377.808533 86.322 1.6529
380.546265 86.320 1.7667
383.303864 86.307 1.8938
386.081451 86.278 2.1013
388.879150 86.261 2.3538
391.697144 86.261 2.5555
394.535522 86.252 2.7300
397.394501 86.230 2.9129
400.274170 86.209 3.1293
403.174744 86.204 3.3766
406.096313 86.199 3.6048
409.039062 86.184 3.8235
412.003113 86.170 4.0241
414.988647 86.158 4.1935
417.995850 86.143 4.3593
421.024811 86.134 4.5395
424.075714 86.138 4.6824
427.148743 86.149 4.8137
430.244049 86.150 5.0115
433.361786 86.137 5.2927
436.502106 86.124 5.5465
439.665161 86.121 5.6967
442.851166 86.119 5.8295
446.060242 86.116 6.0467
449.292572 86.109 6.3021
452.548340 86.087 6.5177
455.827698 86.062 6.7144
459.130798 86.054 6.9372
462.457855 86.059 7.2143
465.809021 86.058 7.4670
469.184448 86.048 7.6710
472.584381 86.042 7.8744
476.008911 86.038 8.0612
479.458252 86.026 8.2645
482.932617 86.010 8.5000
486.432159 86.001 8.7144
489.957031 86.000 8.9384
493.507477 85.997 9.1877
497.083618 85.989 9.4355
500.685699 85.976 9.7092
504.313873 85.962 9.9831
507.968323 85.964 10.2026
511.649292 85.979 10.4652
515.356934 85.981 10.7906
519.091370 85.972 11.0754
522.852966 85.974 11.2719
526.641724 85.974 11.4708
530.458008 85.965 11.7292
534.301941 85.949 12.0090
538.173706 85.938 12.2873
542.073547 85.940 12.4931
546.001648 85.949 12.6905
549.958191 85.954 12.9729
553.943420 85.952 13.2265
557.957520 85.955 13.3931
562.000671 85.962 13.5881
566.073181 85.964 13.8239
570.175171 85.959 14.1021
574.306885 85.954 14.4320
578.468567 85.953 14.7624
582.660400 85.957 15.0705
586.882568 85.962 15.3793
591.135376 85.965 15.6358
595.419006 85.959 15.8389
599.733643 85.952 16.0635
604.079590 85.960 16.3091
608.456970 85.975 16.5384
612.866089 85.988 16.7794
617.307190 85.999 17.0582
621.780457 86.004 17.3508
626.286133 86.010 17.6289
630.824463 86.024 17.9033
635.395691 86.038 18.1504
640.000000 86.045 18.4080
644.637695 86.058 18.7130
649.309021 86.075 18.9931
654.014160 86.090 19.2106
658.753418 86.110 19.3638
663.527039 86.139 19.3389
668.335205 86.168 19.1648
673.178284 86.186 18.9879
678.056396 86.183 18.7220
682.969849 86.146 18.1685
687.918945 86.046 17.4637
692.903870 85.859 16.9674
697.924927 85.599 17.1620
702.982422 85.343 18.2975
708.076477 85.193 20.0809
713.207520 85.172 21.8618
718.375732 85.228 23.2460
723.581360 85.306 24.3243
728.824707 85.385 25.1847
734.106079 85.455 25.8728
739.425720 85.519 26.4326
744.783936 85.577 26.9136
750.180908 85.627 27.3288
755.617065 85.668 27.6891
761.092529 85.708 28.0007
766.607727 85.740 28.3422
772.162903 85.760 28.7759
777.758301 85.781 29.2679
783.394287 85.800 29.6802
789.071045 85.816 30.0222
794.789001 85.834 30.4162
800.548340 85.852 30.8201
806.349487 85.877 31.2253
812.192627 85.899 31.6715
818.078125 85.917 32.1203
824.006226 85.946 32.5017
829.977295 85.976 32.8965
835.991699 85.998 33.3296
842.049622 86.035 33.7533
848.151428 86.078 34.2002
854.297485 86.113 34.6390
860.488098 86.139 35.0297
866.723572 86.158 35.4643
873.004211 86.180 35.8869
879.330322 86.215 36.2752
885.702332 86.253 36.7162
892.120483 86.285 37.1853
898.585144 86.315 37.6256
905.096680 86.352 38.0489
911.655396 86.392 38.4549
918.261597 86.430 38.8442
924.915710 86.460 39.2432
931.618042 86.492 39.6732
938.368896 86.536 40.0726
945.168762 86.583 40.4979
952.017822 86.630 40.8986
958.916504 86.681 41.2374
965.865234 86.729 41.6022
972.864319 86.769 42.0184
979.914062 86.801 42.4583
987.014954 86.835 42.8606
994.167236 86.878 43.2086
1001.371399 86.926 43.5557
1008.627747 86.974 43.8734
1015.936646 87.016 44.1533
1023.298584 87.063 44.4733
1030.713867 87.114 44.8607
1038.182739 87.166 45.2676
1045.705933 87.221 45.6513
1053.283447 87.271 46.0113
1060.916016 87.313 46.3112
1068.603882 87.358 46.5992
1076.347412 87.414 46.9035
1084.147095 87.472 47.1860
1092.003296 87.526 47.4455
1099.916382 87.581 47.7107
1107.886841 87.640 47.9676
1115.915039 87.703 48.2130
1124.001343 87.766 48.4552
1132.146362 87.835 48.7219
1140.350342 87.906 48.9650
1148.613770 87.964 49.1377
1156.937134 88.010 49.3245
1165.320801 88.060 49.5633
1173.765137 88.116 49.8397
1182.270752 88.178 50.1069
1190.838013 88.239 50.3312
1199.467285 88.296 50.5070
1208.159180 88.354 50.6737
1216.913940 88.418 50.8444
1225.732178 88.481 51.0077
1234.614380 88.537 51.2011
1243.560913 88.596 51.4319
1252.572266 88.655 51.6425
1261.648926 88.716 51.8717
1270.791382 88.779 52.0920
1280.000000 88.836 52.2723
1289.275391 88.888 52.4400
1298.618042 88.941 52.6329
1308.028320 88.997 52.8327
1317.506836 89.060 53.0213
1327.054077 89.123 53.1769
1336.670410 89.178 53.3184
1346.356567 89.228 53.4609
1356.112793 89.267 53.6198
1365.939697 89.295 53.7861
1375.837891 89.330 53.9648
1385.807739 89.375 54.2259
1395.849854 89.427 54.4977
1405.964844 89.479 54.7037
1416.152954 89.531 54.8806
1426.415039 89.582 55.0740
1436.751465 89.633 55.2863
1447.162720 89.685 55.4748
1457.649414 89.736 55.6555
1468.212158 89.786 55.8582
1478.851440 89.837 56.0589
1489.567871 89.892 56.2368
1500.361816 89.948 56.3957
1511.234131 90.003 56.5853
1522.185059 90.052 56.8195
1533.215454 90.097 57.0541
1544.325806 90.141 57.2524
1555.516602 90.191 57.4356
1566.788574 90.243 57.6343
1578.142090 90.288 57.8555
1589.578003 90.332 58.0877
1601.096680 90.382 58.3299
1612.698975 90.431 58.5791
1624.385254 90.482 58.7780
1636.156250 90.538 58.9536
1648.012451 90.591 59.1542
1659.954590 90.644 59.3658
1671.983398 90.695 59.6131
1684.099243 90.745 59.8681
1696.302856 90.796 60.0847
1708.594971 90.850 60.2976
1720.976196 90.901 60.5114
1733.447144 90.954 60.7153
1746.008423 91.010 60.9263
1758.660645 91.065 61.1482
1771.404663 91.115 61.3746
1784.240967 91.166 61.5852
1797.170288 91.220 61.7906
1810.193359 91.277 62.0124
1823.310791 91.333 62.2378
1836.523193 91.384 62.4633
1849.831421 91.436 62.7096
1863.236084 91.497 62.9695
1876.737793 91.560 63.2214
1890.337524 91.620 63.4246
1904.035645 91.682 63.6221
1917.833008 91.751 63.8516
1931.730469 91.822 64.0578
1945.728638 91.891 64.2289
1959.828125 91.962 64.3797
1974.029907 92.036 64.5225
1988.334473 92.106 64.6905
2002.742798 92.170 64.8617
2017.255493 92.236 64.9816
2031.873291 92.305 65.0561
2046.597168 92.372 65.1410
2061.427734 92.437 65.2296
2076.365479 92.500 65.3294
2091.411865 92.564 65.4393
2106.566895 92.631 65.5623
2121.832031 92.694 65.6849
2137.207764 92.756 65.7872
2152.694824 92.822 65.8594
2168.294189 92.894 65.9438
2184.006592 92.964 66.0440
2199.832764 93.031 66.1265
2215.773682 93.098 66.1854
2231.830078 93.168 66.2173
2248.002686 93.240 66.2334
2264.292725 93.308 66.2489
2280.700684 93.372 66.2592
2297.227539 93.433 66.2587
2313.874268 93.493 66.2542
2330.641602 93.557 66.2310
2347.530273 93.620 66.1968
2364.541504 93.680 66.1548
2381.676025 93.741 66.1020
2398.934570 93.799 66.0599
2416.318359 93.857 66.0267
2433.827881 93.914 65.9776
2451.464355 93.967 65.9114
2469.228760 94.019 65.8512
2487.121826 94.075 65.7792
2505.144531 94.128 65.6899
2523.297852 94.179 65.6100
2541.582764 94.228 65.5218
2560.000000 94.276 65.4271
2578.550781 94.323 65.3438
2597.236084 94.369 65.2443
2616.056641 94.414 65.1225
2635.013672 94.457 65.0051
2654.108154 94.496 64.8938
2673.340820 94.534 64.7951
2692.713135 94.571 64.6932
2712.225586 94.604 64.5720
2731.879395 94.634 64.4430
2751.675781 94.664 64.3389
2771.615479 94.692 64.2561
2791.699707 94.718 64.1688
2811.929688 94.744 64.0863
2832.305908 94.766 63.9981
2852.830078 94.785 63.9226
2873.502930 94.802 63.8671
2894.325439 94.818 63.8357
2915.298828 94.832 63.8299
2936.424316 94.846 63.8472
2957.702881 94.860 63.9155
2979.135742 94.881 64.0180
3000.723633 94.905 64.1444
3022.468262 94.935 64.2954
3044.370117 94.975 64.4510
3066.430908 95.028 64.5991
3088.651611 95.090 64.6952
3111.033203 95.159 64.7128
3133.577148 95.231 64.6565
3156.284180 95.302 64.5278
3179.156006 95.366 64.3400
3202.193359 95.420 64.1100
3225.397949 95.466 63.8593
3248.770508 95.510 63.5957
3272.312500 95.550 63.3300
3296.024902 95.585 63.0810
3319.909180 95.617 62.8472
3343.966797 95.650 62.6162
3368.198486 95.687 62.3854
3392.605713 95.727 62.1224
3417.189941 95.766 61.8111
3441.952393 95.805 61.4725
3466.894287 95.840 61.1094
3492.016846 95.873 60.7215
3517.321289 95.903 60.3156
3542.809326 95.927 59.9061
3568.481934 95.945 59.4991
3594.340576 95.959 59.0724
3620.386719 95.970 58.6081
3646.621582 95.977 58.1293
3673.046387 95.979 57.6577
3699.662842 95.975 57.1988
3726.472168 95.966 56.7328
3753.475586 95.954 56.2445
3780.675049 95.937 55.7639
3808.071289 95.915 55.2984
3835.666016 95.887 54.8290
3863.460938 95.853 54.3522
3891.457275 95.815 53.8728
3919.656250 95.771 53.3986
3948.059814 95.721 52.9430
3976.668945 95.667 52.5027
4005.485596 95.608 52.0545
4034.510986 95.544 51.6207
4063.746582 95.474 51.2099
4093.194336 95.399 50.8081
