* Measurement data measured by REW V5.20.13
* Source: Microphone (Realtek(R) Audio), MICROPHONE (Master Volume), L, volume: 0.710. Timing signal peak level -37.4 dBFS, measurement signal peak level -37.3 dBFS
* Format: 2M Log Swept Sine, 1 sweep at -12.0 dBFS using an acoustic timing reference
* Dated: Sep 7, 2023 3:35:41 PM
* REW Settings:
*  C-weighting compensation: Off
*  Target level: 75.0 dB
* Note: ; Delay -0.0559 ms (-19 mm, -0.75 in) using estimated IR delay relative to Acoustic reference played from HEADPHONE L with no timing offset Clock adjustment: 120.7 ppm
* Measurement: KZ Krila UUUU L
* Smoothing: 1/48 octave
* Frequency Step: 1/96 octave
* Start Frequency: 20.000 Hz
*
* Freq(Hz) SPL(dB) Phase(degrees)
20.000000 94.695 3.0772
20.144928 94.688 2.8422
20.290907 94.681 2.6042
20.437943 94.674 2.3654
20.586044 94.666 2.1301
20.735220 94.658 1.8980
20.885475 94.649 1.6654
21.036821 94.640 1.4304
21.189262 94.630 1.1951
21.342808 94.619 0.9613
21.497467 94.607 0.7287
21.653246 94.594 0.5006
21.810154 94.581 0.2782
21.968201 94.567 0.0584
22.127390 94.552 -0.1621
22.287735 94.537 -0.3792
22.449242 94.521 -0.5866
22.611917 94.505 -0.7855
22.775772 94.489 -0.9758
22.940815 94.474 -1.1565
23.107054 94.459 -1.3342
23.274498 94.445 -1.5098
23.443153 94.433 -1.6855
23.613033 94.422 -1.8609
23.784142 94.412 -2.0419
23.956491 94.403 -2.2362
24.130091 94.396 -2.4427
24.304947 94.387 -2.6661
24.481071 94.378 -2.9034
24.658470 94.366 -3.1473
24.837156 94.352 -3.3978
25.017136 94.335 -3.6470
25.198421 94.316 -3.8944
25.381020 94.296 -4.1269
25.564941 94.275 -4.3453
25.750195 94.254 -4.5469
25.936790 94.234 -4.7337
26.124741 94.217 -4.9195
26.314051 94.202 -5.1043
26.504732 94.189 -5.2964
26.696796 94.177 -5.4959
26.890253 94.165 -5.7089
27.085112 94.153 -5.9317
27.281382 94.139 -6.1623
27.479073 94.123 -6.3920
27.678198 94.106 -6.6108
27.878765 94.089 -6.8191
28.080786 94.073 -7.0142
28.284271 94.058 -7.2043
28.489231 94.046 -7.3905
28.695675 94.035 -7.5849
28.903616 94.025 -7.7888
29.113064 94.015 -8.0114
29.324028 94.003 -8.2433
29.536524 93.987 -8.4801
29.750557 93.969 -8.7037
29.966141 93.946 -8.9086
30.183289 93.922 -9.0840
30.402010 93.898 -9.2321
30.622314 93.876 -9.3519
30.844217 93.859 -9.4644
31.067726 93.845 -9.5779
31.292856 93.835 -9.7165
31.519617 93.826 -9.8803
31.748020 93.815 -10.0740
31.978081 93.800 -10.2845
32.209808 93.781 -10.5051
32.443211 93.756 -10.7158
32.678310 93.729 -10.9082
32.915108 93.699 -11.0767
33.153625 93.669 -11.2268
33.393871 93.641 -11.3660
33.635857 93.614 -11.5006
33.879597 93.590 -11.6430
34.125103 93.566 -11.7956
34.372387 93.542 -11.9613
34.621464 93.517 -12.1315
34.872345 93.490 -12.3016
35.125042 93.463 -12.4673
35.379574 93.436 -12.6244
35.635948 93.409 -12.7726
35.894180 93.385 -12.9133
36.154285 93.364 -13.0523
36.416275 93.345 -13.1985
36.680161 93.330 -13.3600
36.945961 93.318 -13.5457
37.213688 93.305 -13.7653
37.483353 93.290 -14.0103
37.754974 93.271 -14.2676
38.028561 93.245 -14.5150
38.304131 93.215 -14.7204
38.581699 93.185 -14.8689
38.861279 93.160 -14.9601
39.142883 93.144 -15.0128
39.426529 93.142 -15.0786
39.712231 93.147 -15.2013
40.000000 93.155 -15.4058
40.289856 93.157 -15.6958
40.581814 93.145 -16.0342
40.875885 93.116 -16.3531
41.172089 93.073 -16.5992
41.470440 93.024 -16.7405
41.770950 92.978 -16.7750
42.073643 92.943 -16.7403
42.378525 92.920 -16.7008
42.685616 92.907 -16.7028
42.994934 92.896 -16.7673
43.306492 92.881 -16.8884
43.620308 92.859 -17.0387
43.936401 92.828 -17.1825
44.254780 92.792 -17.2969
44.575470 92.757 -17.3819
44.898483 92.725 -17.4589
45.223835 92.698 -17.5589
45.551544 92.671 -17.7061
45.881630 92.640 -17.9031
46.214108 92.599 -18.1221
46.548996 92.547 -18.3081
46.886307 92.488 -18.4007
47.226067 92.435 -18.3709
47.568283 92.401 -18.2512
47.912983 92.393 -18.1322
48.260181 92.407 -18.1212
48.609894 92.429 -18.2824
48.962143 92.441 -18.6014
49.316940 92.431 -18.9910
49.674313 92.399 -19.3378
50.034271 92.355 -19.5625
50.396843 92.314 -19.6595
50.762039 92.286 -19.6894
51.129883 92.271 -19.7333
51.500389 92.260 -19.8410
51.873581 92.243 -20.0068
52.249481 92.215 -20.1856
52.628101 92.179 -20.3284
53.009464 92.140 -20.4169
53.393593 92.105 -20.4740
53.780506 92.074 -20.5416
54.170223 92.043 -20.6483
54.562763 92.009 -20.7871
54.958145 91.969 -20.9242
55.356396 91.929 -21.0345
55.757530 91.896 -21.1340
56.161572 91.871 -21.2759
56.568542 91.845 -21.4938
56.978462 91.810 -21.7438
57.391350 91.766 -21.9204
57.807232 91.733 -21.9650
58.226128 91.733 -21.9754
58.648056 91.764 -22.1704
59.073048 91.793 -22.7034
59.501114 91.770 -23.4703
59.932281 91.676 -24.1108
60.366577 91.544 -24.2644
60.804020 91.438 -23.8840
61.244629 91.405 -23.2899
61.688435 91.433 -22.9028
62.135452 91.466 -22.8791
62.585712 91.464 -23.0264
63.039234 91.431 -23.0795
63.496040 91.399 -22.9756
63.956161 91.384 -22.8600
64.419617 91.373 -22.8697
64.886421 91.347 -22.9708
65.356621 91.306 -23.0453
65.830215 91.264 -23.0530
66.307251 91.231 -23.0726
66.787743 91.200 -23.1722
67.271713 91.160 -23.3169
67.759193 91.112 -23.4165
68.250206 91.068 -23.4428
68.744774 91.039 -23.4527
69.242928 91.019 -23.5141
69.744690 90.999 -23.6351
70.250084 90.975 -23.7768
70.759148 90.946 -23.8994
71.271896 90.912 -23.9839
71.788361 90.876 -24.0181
72.308571 90.838 -23.9933
72.832550 90.806 -23.9212
73.360321 90.780 -23.8423
73.891922 90.758 -23.8030
74.427376 90.733 -23.8222
74.966705 90.698 -23.8738
75.509949 90.654 -23.9096
76.057121 90.608 -23.9052
76.608261 90.565 -23.8748
77.163399 90.530 -23.8518
77.722557 90.500 -23.8676
78.285767 90.472 -23.9301
78.853058 90.441 -24.0154
79.424461 90.410 -24.0885
80.000000 90.383 -24.1438
80.579712 90.362 -24.2221
81.163628 90.338 -24.3500
81.751770 90.304 -24.4729
82.344177 90.261 -24.5113
82.940880 90.224 -24.4635
83.541901 90.197 -24.4078
84.147285 90.173 -24.3925
84.757050 90.144 -24.3901
85.371231 90.115 -24.3782
85.989868 90.085 -24.3781
86.612984 90.052 -24.3999
87.240616 90.013 -24.4078
87.872803 89.974 -24.3753
88.509560 89.941 -24.3270
89.150940 89.913 -24.3015
89.796967 89.886 -24.3125
90.447670 89.856 -24.3483
91.103088 89.821 -24.3770
91.763260 89.785 -24.3701
92.428215 89.754 -24.3428
93.097992 89.727 -24.3405
93.772614 89.698 -24.3738
94.452133 89.662 -24.3990
95.136566 89.626 -24.3920
95.825966 89.594 -24.3869
96.520363 89.560 -24.3975
97.219788 89.525 -24.3885
97.924286 89.495 -24.3688
98.633881 89.467 -24.3911
99.348625 89.431 -24.4250
100.068542 89.392 -24.3939
100.793686 89.362 -24.3275
101.524078 89.337 -24.3005
102.259766 89.309 -24.3018
103.000778 89.279 -24.3003
103.747162 89.245 -24.2822
104.498962 89.211 -24.2069
105.256203 89.186 -24.0872
106.018929 89.172 -24.0244
106.787186 89.151 -24.0415
107.561012 89.116 -24.0338
108.340446 89.080 -23.9738
109.125526 89.044 -23.9404
109.916290 88.999 -23.9131
110.712791 88.951 -23.8388
111.515060 88.911 -23.7791
112.323143 88.871 -23.7526
113.137085 88.837 -23.7314
113.956924 88.807 -23.7381
114.782700 88.775 -23.7117
115.614464 88.752 -23.5929
116.452255 88.743 -23.4654
117.296112 88.728 -23.3431
118.146095 88.702 -23.0431
119.002228 88.714 -22.5633
119.864563 88.772 -22.4430
120.733154 88.773 -22.8777
121.608040 88.678 -23.1401
122.489258 88.589 -22.9846
123.376869 88.537 -22.9201
124.270905 88.473 -22.9384
125.171425 88.421 -22.8407
126.078468 88.393 -22.7867
126.992081 88.363 -22.7727
127.912323 88.332 -22.6594
128.839233 88.309 -22.4805
129.772842 88.292 -22.3147
130.713242 88.269 -22.2148
131.660431 88.228 -22.1516
132.614502 88.180 -22.0181
133.575485 88.147 -21.8892
134.543427 88.121 -21.8843
135.518387 88.091 -21.9141
136.500412 88.066 -21.9023
137.489548 88.052 -21.8780
138.485855 88.036 -21.8686
139.489380 88.009 -21.8031
140.500168 87.980 -21.6294
141.518295 87.957 -21.4392
142.543793 87.936 -21.2540
143.576721 87.920 -21.1136
144.617142 87.900 -21.0690
145.665100 87.868 -21.0341
146.720642 87.836 -20.9340
147.783844 87.814 -20.8180
148.854752 87.790 -20.7281
149.933411 87.763 -20.5807
151.019897 87.745 -20.4200
152.114243 87.726 -20.3273
153.216522 87.697 -20.2873
154.326797 87.653 -20.2227
155.445114 87.612 -20.0646
156.571533 87.586 -19.8995
157.706116 87.567 -19.7847
158.848923 87.550 -19.6805
160.000000 87.534 -19.5751
161.159424 87.515 -19.4556
162.327255 87.493 -19.2946
163.503540 87.468 -19.1646
164.688354 87.430 -19.0334
165.881760 87.396 -18.8574
167.083801 87.369 -18.7658
168.294571 87.339 -18.7105
169.514099 87.313 -18.6301
170.742462 87.290 -18.5084
171.979736 87.270 -18.3116
173.225967 87.254 -18.0794
174.481232 87.232 -17.9013
175.745605 87.193 -17.7277
177.019119 87.159 -17.5592
178.301880 87.132 -17.5635
179.593933 87.088 -17.6509
180.895340 87.045 -17.5580
182.206177 87.037 -17.3853
183.526520 87.038 -17.2837
184.856430 87.023 -17.1414
186.195984 86.997 -16.9034
187.545227 86.971 -16.6159
188.904266 86.950 -16.4178
190.273132 86.919 -16.3125
191.651932 86.882 -16.1791
193.040726 86.858 -15.9970
194.439575 86.843 -15.8401
195.848572 86.824 -15.6849
197.267761 86.801 -15.4816
198.697250 86.784 -15.2592
200.137085 86.770 -15.1066
201.587372 86.749 -15.0095
203.048157 86.722 -14.8868
204.519531 86.698 -14.7268
206.001556 86.678 -14.5399
207.494324 86.662 -14.3712
208.997925 86.646 -14.2307
210.512405 86.629 -14.1238
212.037857 86.610 -14.0122
213.574371 86.594 -13.8604
215.122025 86.580 -13.6831
216.680893 86.564 -13.4963
218.251053 86.542 -13.3090
219.832581 86.517 -13.1051
221.425583 86.501 -12.9173
223.030121 86.487 -12.7749
224.646286 86.465 -12.6427
226.274170 86.433 -12.4668
227.913849 86.402 -12.2941
229.565399 86.375 -12.1519
231.228928 86.362 -11.9907
232.904510 86.363 -11.8011
234.592224 86.361 -11.6010
236.292191 86.333 -11.3857
238.004456 86.287 -11.1988
239.729126 86.231 -11.0914
241.466309 86.198 -10.9249
243.216080 86.211 -10.7503
244.978516 86.237 -10.5861
246.753738 86.241 -10.3499
248.541809 86.227 -10.0537
250.342850 86.208 -9.8244
252.156937 86.193 -9.6645
253.984161 86.187 -9.5030
255.824646 86.176 -9.3193
257.678467 86.150 -9.0836
259.545685 86.121 -8.8665
261.426483 86.099 -8.7683
263.320862 86.078 -8.7032
265.229004 86.060 -8.5535
267.150970 86.043 -8.2955
269.086853 86.029 -8.0358
271.036774 86.015 -7.8427
273.000824 86.001 -7.6638
274.979095 85.989 -7.4452
276.971710 85.973 -7.1831
278.978760 85.962 -6.8838
281.000336 85.966 -6.6863
283.036591 85.968 -6.6342
285.087585 85.954 -6.5560
287.153442 85.938 -6.3102
289.234283 85.933 -6.0113
291.330200 85.931 -5.8016
293.441284 85.921 -5.6485
295.567688 85.906 -5.4363
297.709503 85.899 -5.1288
299.866821 85.901 -4.8346
302.039795 85.896 -4.6906
304.228485 85.871 -4.6093
306.433044 85.843 -4.4739
308.653595 85.829 -4.2489
310.890228 85.835 -3.9817
313.143066 85.840 -3.8027
315.412231 85.824 -3.6566
317.697845 85.805 -3.4453
320.000000 85.800 -3.2154
322.318848 85.802 -3.0037
324.654510 85.795 -2.8065
327.007080 85.780 -2.5911
329.376709 85.771 -2.3762
331.763519 85.768 -2.1896
334.167603 85.763 -1.9852
336.589142 85.760 -1.7670
339.028198 85.755 -1.5467
341.484924 85.746 -1.3150
343.959473 85.728 -1.0913
346.451935 85.708 -0.8792
348.962463 85.696 -0.7044
351.491211 85.686 -0.5451
354.038239 85.672 -0.3348
356.603760 85.669 -0.1157
359.187866 85.677 0.0208
361.790680 85.681 0.1956
364.412354 85.682 0.4455
367.053040 85.671 0.6623
369.712860 85.656 0.9267
372.391968 85.650 1.2565
375.090454 85.644 1.6400
377.808533 85.636 1.9776
380.546265 85.618 2.2009
383.303864 85.597 2.3814
386.081451 85.585 2.5763
388.879150 85.588 2.7953
391.697144 85.595 3.0148
394.535522 85.593 3.2345
397.394501 85.581 3.5009
400.274170 85.569 3.7986
403.174744 85.558 4.0380
406.096313 85.547 4.2200
409.039062 85.544 4.3972
412.003113 85.548 4.6107
414.988647 85.544 4.8911
417.995850 85.523 5.2380
421.024811 85.507 5.5737
424.075714 85.509 5.7880
427.148743 85.517 5.9560
430.244049 85.518 6.1130
433.361786 85.509 6.2519
436.502106 85.502 6.4263
439.665161 85.497 6.6736
442.851166 85.490 6.9505
446.060242 85.477 7.2399
449.292572 85.477 7.5457
452.548340 85.494 7.8177
455.827698 85.501 8.0711
459.130798 85.487 8.3555
462.457855 85.470 8.5988
465.809021 85.464 8.7531
469.184448 85.457 8.9298
472.584381 85.440 9.2127
476.008911 85.436 9.5671
479.458252 85.453 9.9283
482.932617 85.469 10.2404
486.432159 85.468 10.4903
489.957031 85.460 10.7013
493.507477 85.450 10.8831
497.083618 85.439 11.0858
500.685699 85.430 11.3133
504.313873 85.434 11.5280
507.968323 85.449 11.7507
511.649292 85.461 12.0685
515.356934 85.469 12.4480
519.091370 85.471 12.7541
522.852966 85.465 12.9474
526.641724 85.460 13.1434
530.458008 85.466 13.4228
534.301941 85.476 13.7607
538.173706 85.486 14.1181
542.073547 85.498 14.4020
546.001648 85.489 14.6035
549.958191 85.482 14.7915
553.943420 85.495 15.0498
557.957520 85.511 15.4166
562.000671 85.518 15.7924
566.073181 85.530 16.1304
570.175171 85.544 16.4148
574.306885 85.554 16.7331
578.468567 85.566 17.0593
582.660400 85.570 17.3131
586.882568 85.567 17.5414
591.135376 85.576 17.7404
595.419006 85.585 17.9331
599.733643 85.586 18.1576
604.079590 85.593 18.4100
608.456970 85.614 18.6836
612.866089 85.633 18.9544
617.307190 85.649 19.2463
621.780457 85.674 19.5354
626.286133 85.697 19.7798
630.824463 85.717 19.9897
635.395691 85.749 20.1532
640.000000 85.787 20.2728
644.637695 85.809 20.3022
649.309021 85.820 20.1803
654.014160 85.824 19.8858
658.753418 85.799 19.4449
663.527039 85.716 18.9498
668.335205 85.561 18.6841
673.178284 85.378 18.9807
678.056396 85.227 19.8718
682.969849 85.140 21.0463
687.918945 85.108 22.1943
692.903870 85.120 23.2249
697.924927 85.159 24.1402
702.982422 85.201 24.9274
708.076477 85.241 25.5340
713.207520 85.278 25.9898
718.375732 85.310 26.3176
723.581360 85.332 26.6683
728.824707 85.354 27.1469
734.106079 85.376 27.5446
739.425720 85.388 27.8870
744.783936 85.389 28.2927
750.180908 85.386 28.7367
755.617065 85.386 29.2127
761.092529 85.383 29.7282
766.607727 85.381 30.3345
772.162903 85.398 30.9670
777.758301 85.435 31.5250
783.394287 85.474 32.1031
789.071045 85.504 32.7458
794.789001 85.537 33.3408
800.548340 85.571 33.8709
806.349487 85.609 34.3291
812.192627 85.654 34.7451
818.078125 85.698 35.1796
824.006226 85.735 35.6025
829.977295 85.771 35.9754
835.991699 85.809 36.3445
842.049622 85.841 36.7478
848.151428 85.861 37.1918
854.297485 85.882 37.6177
860.488098 85.919 38.0385
866.723572 85.961 38.4717
873.004211 86.002 38.8945
879.330322 86.038 39.2641
885.702332 86.075 39.6190
892.120483 86.121 40.0316
898.585144 86.171 40.4893
905.096680 86.213 40.9453
911.655396 86.255 41.3675
918.261597 86.298 41.7874
924.915710 86.336 42.2360
931.618042 86.382 42.6642
938.368896 86.436 43.0739
945.168762 86.486 43.4736
952.017822 86.530 43.8346
958.916504 86.571 44.2151
965.865234 86.617 44.6199
972.864319 86.663 45.0293
979.914062 86.709 45.4216
987.014954 86.754 45.8039
994.167236 86.807 46.1610
1001.371399 86.860 46.4501
1008.627747 86.911 46.7421
1015.936646 86.971 47.0979
1023.298584 87.029 47.4972
1030.713867 87.071 47.8991
1038.182739 87.118 48.2359
1045.705933 87.173 48.5166
1053.283447 87.225 48.7885
1060.916016 87.280 49.0843
1068.603882 87.335 49.4016
1076.347412 87.389 49.6779
1084.147095 87.451 49.9606
1092.003296 87.513 50.2815
1099.916382 87.576 50.5727
1107.886841 87.641 50.8043
1115.915039 87.710 51.0225
1124.001343 87.783 51.2475
1132.146362 87.849 51.4808
1140.350342 87.908 51.6924
1148.613770 87.969 51.8949
1156.937134 88.032 52.1327
1165.320801 88.099 52.4062
1173.765137 88.165 52.6887
1182.270752 88.228 52.9139
1190.838013 88.291 53.0417
1199.467285 88.350 53.1892
1208.159180 88.410 53.4344
1216.913940 88.479 53.7121
1225.732178 88.554 53.9135
1234.614380 88.624 54.0575
1243.560913 88.686 54.2215
1252.572266 88.747 54.3854
1261.648926 88.813 54.5638
1270.791382 88.878 54.7581
1280.000000 88.943 54.9430
1289.275391 89.005 55.1170
1298.618042 89.064 55.3038
1308.028320 89.123 55.4868
1317.506836 89.178 55.6270
1327.054077 89.235 55.7397
1336.670410 89.301 55.8736
1346.356567 89.361 56.0393
1356.112793 89.407 56.2181
1365.939697 89.445 56.4091
1375.837891 89.492 56.5956
1385.807739 89.546 56.7740
1395.849854 89.598 56.9363
1405.964844 89.647 57.0899
1416.152954 89.698 57.2236
1426.415039 89.750 57.3794
1436.751465 89.797 57.5583
1447.162720 89.850 57.7254
1457.649414 89.913 57.8916
1468.212158 89.975 58.0560
1478.851440 90.030 58.2399
1489.567871 90.083 58.4315
1500.361816 90.141 58.5936
1511.234131 90.201 58.7718
1522.185059 90.256 58.9783
1533.215454 90.310 59.1691
1544.325806 90.366 59.3618
1555.516602 90.419 59.5516
1566.788574 90.471 59.7406
1578.142090 90.527 59.9100
1589.578003 90.583 60.0705
1601.096680 90.634 60.2531
1612.698975 90.682 60.4167
1624.385254 90.733 60.5623
1636.156250 90.794 60.7700
1648.012451 90.856 61.0170
1659.954590 90.909 61.2433
1671.983398 90.968 61.4187
1684.099243 91.025 61.5580
1696.302856 91.074 61.7185
1708.594971 91.127 61.9054
1720.976196 91.188 62.0826
1733.447144 91.246 62.2302
1746.008423 91.301 62.3865
1758.660645 91.361 62.5555
1771.404663 91.424 62.7354
1784.240967 91.487 62.9352
1797.170288 91.547 63.1309
1810.193359 91.605 63.3190
1823.310791 91.665 63.5297
1836.523193 91.725 63.7190
1849.831421 91.787 63.8483
1863.236084 91.851 63.9711
1876.737793 91.912 64.0931
1890.337524 91.973 64.2062
1904.035645 92.035 64.3181
1917.833008 92.102 64.4599
1931.730469 92.169 64.6144
1945.728638 92.232 64.7435
1959.828125 92.299 64.8610
1974.029907 92.367 64.9764
1988.334473 92.431 65.0805
2002.742798 92.492 65.1771
2017.255493 92.557 65.2693
2031.873291 92.624 65.3431
2046.597168 92.689 65.4099
2061.427734 92.753 65.4895
2076.365479 92.819 65.5679
2091.411865 92.887 65.6300
2106.566895 92.954 65.6689
2121.832031 93.019 65.7085
2137.207764 93.082 65.7597
2152.694824 93.147 65.8115
2168.294189 93.212 65.8515
2184.006592 93.275 65.8682
2199.832764 93.335 65.8683
2215.773682 93.396 65.8546
2231.830078 93.460 65.8488
2248.002686 93.524 65.8441
2264.292725 93.586 65.8215
2280.700684 93.646 65.7928
2297.227539 93.706 65.7726
2313.874268 93.765 65.7418
2330.641602 93.825 65.6901
2347.530273 93.885 65.6387
2364.541504 93.942 65.5823
2381.676025 93.997 65.4959
2398.934570 94.051 65.3897
2416.318359 94.105 65.2888
2433.827881 94.157 65.2045
2451.464355 94.208 65.1213
2469.228760 94.259 65.0148
2487.121826 94.309 64.8879
2505.144531 94.356 64.7508
2523.297852 94.400 64.6093
2541.582764 94.446 64.4840
2560.000000 94.492 64.3608
2578.550781 94.534 64.2290
2597.236084 94.573 64.1025
2616.056641 94.611 63.9580
2635.013672 94.649 63.8115
2654.108154 94.684 63.6649
2673.340820 94.712 63.5163
2692.713135 94.737 63.3530
2712.225586 94.764 63.1806
2731.879395 94.793 63.0151
2751.675781 94.817 62.8543
2771.615479 94.838 62.6948
2791.699707 94.857 62.5433
2811.929688 94.871 62.4007
2832.305908 94.884 62.2668
2852.830078 94.897 62.1391
2873.502930 94.904 62.0187
2894.325439 94.909 61.9172
2915.298828 94.914 61.8215
2936.424316 94.918 61.7289
2957.702881 94.916 61.6634
2979.135742 94.912 61.6476
3000.723633 94.909 61.6658
3022.468262 94.905 61.6889
3044.370117 94.902 61.7388
3066.430908 94.902 61.8443
3088.651611 94.903 62.0049
3111.033203 94.909 62.2208
3133.577148 94.925 62.4808
3156.284180 94.955 62.7574
3179.156006 94.999 63.0199
3202.193359 95.056 63.2345
3225.397949 95.127 63.3799
3248.770508 95.207 63.4437
3272.312500 95.290 63.4046
3296.024902 95.370 63.2441
3319.909180 95.447 62.9671
3343.966797 95.513 62.6130
3368.198486 95.565 62.2198
3392.605713 95.605 61.8026
3417.189941 95.638 61.3834
3441.952393 95.666 60.9659
3466.894287 95.689 60.5455
3492.016846 95.705 60.1494
3517.321289 95.716 59.7722
3542.809326 95.721 59.4040
3568.481934 95.726 59.0375
3594.340576 95.730 58.6716
3620.386719 95.732 58.3195
3646.621582 95.730 57.9788
3673.046387 95.724 57.6168
3699.662842 95.718 57.2348
3726.472168 95.712 56.8550
3753.475586 95.701 56.4614
3780.675049 95.684 56.0566
3808.071289 95.664 55.6532
3835.666016 95.638 55.2381
3863.460938 95.603 54.8132
3891.457275 95.560 54.4004
3919.656250 95.512 53.9955
3948.059814 95.462 53.5962
