* Measurement data measured by REW V5.31.1
* Source: Headset (DS by VECLAN.COM), MICROPHONE (Master Volume), L, volume: 0.720. Timing signal peak level -16.6 dBFS, measurement signal peak level -16.1 dBFS
* Format: 2M Log Swept Sine, 1 sweep at -12.0 dBFS using an acoustic timing reference
* Dated: Jun 27, 2024 9:24:50 PM
* REW Settings:
*  C-weighting compensation: Off
*  Target level: 85.0 dB
* Note: ; Delay -0.0694 ms (-24 mm, -0.94 in) using estimated IR delay relative to Acoustic reference played from HEADPHONE L with no timing offset
* Measurement: KZ Merga L
* Smoothing: 1/24 octave
* Frequency Step: 1/48 octave
* Start Frequency: 1.000 Hz
*
* Freq(Hz), SPL(dB), Phase(degrees)
1.000000, 78.260, 117.0562
1.015000, 78.973, 116.4482
1.030000, 79.660, 115.8109
1.044000, 80.273, 115.1882
1.060000, 80.935, 114.4423
1.075000, 81.513, 113.7094
1.090000, 82.047, 112.9470
1.106000, 82.572, 112.1223
1.120000, 83.008, 111.4264
1.138000, 83.545, 110.5901
1.150000, 83.891, 110.0687
1.172000, 84.498, 109.1746
1.180000, 84.711, 108.8626
1.206000, 85.375, 107.9124
1.220000, 85.715, 107.4356
1.241000, 86.204, 106.7582
1.250000, 86.406, 106.4797
1.265000, 86.732, 106.0287
1.280000, 87.047, 105.5916
1.315000, 87.740, 104.6101
1.320000, 87.834, 104.4729
1.340000, 88.200, 103.9283
1.360000, 88.550, 103.3879
1.380000, 88.885, 102.8080
1.400000, 89.205, 102.2078
1.430000, 89.662, 101.2892
1.450000, 89.952, 100.6608
1.475000, 90.293, 99.8663
1.500000, 90.597, 99.0948
1.525000, 90.862, 98.3624
1.550000, 91.089, 97.6687
1.575000, 91.285, 96.9886
1.600000, 91.453, 96.3009
1.625000, 91.598, 95.6401
1.650000, 91.724, 95.0016
1.675000, 91.837, 94.3807
1.700000, 91.941, 93.7729
1.725000, 92.041, 93.1736
1.750000, 92.140, 92.5788
1.775000, 92.245, 91.9674
1.800000, 92.358, 91.3193
1.825000, 92.484, 90.6664
1.850000, 92.617, 90.0119
1.875000, 92.751, 89.3655
1.900000, 92.881, 88.7324
1.925000, 93.009, 88.1143
1.950000, 93.133, 87.5123
1.975000, 93.254, 86.9097
2.000000, 93.372, 86.2898
2.030000, 93.511, 85.5665
2.060000, 93.646, 84.8614
2.090000, 93.778, 84.1719
2.120000, 93.907, 83.4949
2.140000, 93.992, 83.0487
2.180000, 94.158, 82.1433
2.200000, 94.240, 81.6730
2.240000, 94.399, 80.7355
2.270000, 94.515, 80.0386
2.300000, 94.628, 79.3509
2.330000, 94.737, 78.6753
2.360000, 94.844, 78.0129
2.400000, 94.982, 77.1044
2.430000, 95.082, 76.4338
2.470000, 95.213, 75.5628
2.500000, 95.309, 74.9256
2.540000, 95.433, 74.0949
2.580000, 95.555, 73.2601
2.620000, 95.673, 72.3925
2.650000, 95.758, 71.7460
2.690000, 95.869, 70.8934
2.720000, 95.949, 70.2642
2.760000, 96.053, 69.4439
2.800000, 96.154, 68.6060
2.850000, 96.275, 67.5867
2.900000, 96.392, 66.6062
2.950000, 96.504, 65.6556
3.000000, 96.610, 64.6837
3.040000, 96.692, 63.9007
3.070000, 96.750, 63.3200
3.110000, 96.826, 62.5583
3.150000, 96.899, 61.8144
3.200000, 96.987, 60.8831
3.250000, 97.071, 59.9736
3.300000, 97.152, 59.0985
3.350000, 97.230, 58.2436
3.400000, 97.304, 57.3648
3.450000, 97.374, 56.4859
3.500000, 97.441, 55.6277
3.550000, 97.504, 54.7972
3.600000, 97.565, 53.9722
3.650000, 97.623, 53.1693
3.700000, 97.679, 52.3912
3.750000, 97.731, 51.6260
3.820000, 97.799, 50.5409
3.870000, 97.845, 49.7794
3.950000, 97.914, 48.6110
4.000000, 97.955, 47.8949
4.060000, 98.002, 47.0569
4.120000, 98.047, 46.2407
4.180000, 98.089, 45.4358
4.250000, 98.135, 44.4924
4.310000, 98.172, 43.7157
4.370000, 98.207, 42.9675
4.440000, 98.246, 42.0967
4.500000, 98.276, 41.3701
4.550000, 98.301, 40.7787
4.620000, 98.332, 39.9469
4.680000, 98.358, 39.2530
4.750000, 98.387, 38.4766
4.820000, 98.415, 37.7077
4.870000, 98.434, 37.1678
4.940000, 98.459, 36.4321
5.000000, 98.479, 35.8058
5.080000, 98.505, 34.9887
5.150000, 98.525, 34.3035
5.220000, 98.545, 33.6182
5.300000, 98.565, 32.8506
5.380000, 98.584, 32.1069
5.450000, 98.599, 31.4606
5.520000, 98.614, 30.8386
5.600000, 98.630, 30.1402
5.700000, 98.647, 29.2803
5.800000, 98.664, 28.4498
5.900000, 98.679, 27.6378
6.000000, 98.692, 26.8501
6.080000, 98.701, 26.2252
6.150000, 98.709, 25.6982
6.220000, 98.716, 25.1727
6.300000, 98.724, 24.5880
6.400000, 98.733, 23.8746
6.500000, 98.741, 23.1723
6.600000, 98.747, 22.4933
6.700000, 98.754, 21.8256
6.800000, 98.759, 21.1767
6.900000, 98.764, 20.5383
7.000000, 98.768, 19.9207
7.100000, 98.772, 19.3133
7.200000, 98.776, 18.7222
7.300000, 98.779, 18.1398
7.400000, 98.781, 17.5726
7.500000, 98.783, 17.0096
7.620000, 98.784, 16.3530
7.750000, 98.785, 15.6639
7.880000, 98.785, 14.9888
8.000000, 98.783, 14.3877
8.120000, 98.781, 13.8009
8.250000, 98.779, 13.1821
8.380000, 98.775, 12.5845
8.500000, 98.771, 12.0464
8.620000, 98.767, 11.5257
8.750000, 98.762, 10.9792
8.850000, 98.758, 10.5707
9.000000, 98.752, 9.9814
9.120000, 98.748, 9.5229
9.250000, 98.743, 9.0370
9.380000, 98.739, 8.5662
9.500000, 98.736, 8.1381
9.620000, 98.733, 7.7217
9.750000, 98.729, 7.2807
9.880000, 98.719, 6.8435
10.000000, 98.700, 6.4516
10.150000, 98.666, 5.9376
10.300000, 98.624, 5.4440
10.440000, 98.580, 5.0013
10.600000, 98.528, 4.5172
10.750000, 98.479, 4.0850
10.900000, 98.431, 3.6733
11.060000, 98.383, 3.2311
11.200000, 98.342, 2.8247
11.380000, 98.289, 2.3291
11.500000, 98.254, 2.0153
11.720000, 98.189, 1.4720
11.800000, 98.167, 1.2843
12.060000, 98.101, 0.6835
12.200000, 98.069, 0.3361
12.410000, 98.025, -0.1627
12.500000, 98.006, -0.3689
12.650000, 97.975, -0.7033
12.800000, 97.943, -1.0262
13.150000, 97.871, -1.7908
13.200000, 97.861, -1.9053
13.400000, 97.823, -2.3506
13.600000, 97.786, -2.7751
13.800000, 97.750, -3.1781
14.000000, 97.715, -3.5651
14.300000, 97.665, -4.1886
14.500000, 97.632, -4.5840
14.750000, 97.592, -5.0551
15.000000, 97.555, -5.5065
15.250000, 97.525, -5.9958
15.500000, 97.497, -6.4705
15.750000, 97.469, -6.9276
16.000000, 97.440, -7.3676
16.250000, 97.411, -7.8339
16.500000, 97.383, -8.2803
16.750000, 97.355, -8.7051
17.000000, 97.330, -9.1135
17.250000, 97.307, -9.5358
17.500000, 97.285, -9.9473
17.750000, 97.264, -10.3471
18.000000, 97.243, -10.7388
18.250000, 97.221, -11.1425
18.500000, 97.200, -11.5358
18.750000, 97.178, -11.9138
19.000000, 97.156, -12.2760
19.250000, 97.137, -12.6476
19.500000, 97.118, -13.0052
19.750000, 97.099, -13.3506
20.000000, 97.081, -13.6866
20.299999, 97.060, -14.1104
20.600000, 97.037, -14.5232
20.900000, 97.014, -14.9230
21.200001, 96.990, -15.3262
21.400000, 96.973, -15.5919
21.799999, 96.939, -16.1011
22.000000, 96.922, -16.3484
22.400000, 96.889, -16.8649
22.700001, 96.864, -17.2455
23.000000, 96.839, -17.6213
23.299999, 96.812, -18.0079
23.600000, 96.785, -18.3820
24.000000, 96.749, -18.8547
24.299999, 96.723, -19.2090
24.700001, 96.691, -19.6657
25.000000, 96.669, -20.0017
25.400000, 96.640, -20.4701
25.799999, 96.610, -20.9355
26.200001, 96.579, -21.3999
26.500000, 96.555, -21.7430
26.900000, 96.523, -22.1793
27.200001, 96.500, -22.4988
27.600000, 96.470, -22.9166
28.000000, 96.442, -23.3291
28.500000, 96.407, -23.8627
29.000000, 96.370, -24.3961
29.500000, 96.329, -24.9241
30.000000, 96.285, -25.4143
30.400000, 96.250, -25.7899
30.700001, 96.225, -26.0605
31.100000, 96.195, -26.4229
31.500000, 96.168, -26.8083
32.000000, 96.132, -27.3063
32.500000, 96.093, -27.8217
33.000000, 96.051, -28.3185
33.500000, 96.009, -28.8018
34.000000, 95.970, -29.2671
34.500000, 95.933, -29.7323
35.000000, 95.897, -30.1903
35.500000, 95.860, -30.6418
36.000000, 95.824, -31.0787
36.500000, 95.789, -31.5089
37.000000, 95.754, -31.9317
37.500000, 95.718, -32.3529
38.200001, 95.667, -32.9250
38.700001, 95.632, -33.3299
39.500000, 95.574, -33.9811
40.000000, 95.536, -34.3839
40.599998, 95.490, -34.8630
41.200001, 95.444, -35.3284
41.799999, 95.398, -35.7866
42.500000, 95.347, -36.3112
43.099998, 95.307, -36.7574
43.700001, 95.269, -37.2194
44.400002, 95.221, -37.7702
45.000000, 95.176, -38.2170
45.500000, 95.141, -38.5648
46.200001, 95.097, -39.0492
46.799999, 95.062, -39.4985
47.500000, 95.014, -40.0399
48.200001, 94.961, -40.5438
48.700001, 94.924, -40.8748
49.400002, 94.875, -41.3190
50.000000, 94.836, -41.7012
50.799999, 94.784, -42.2245
51.500000, 94.737, -42.6796
52.200001, 94.689, -43.1216
53.000000, 94.636, -43.6219
53.799999, 94.581, -44.1249
54.500000, 94.533, -44.5488
55.200001, 94.488, -44.9749
56.000000, 94.435, -45.4846
57.000000, 94.362, -46.1069
58.000000, 94.291, -46.6782
59.000000, 94.222, -47.2430
60.000000, 94.154, -47.8074
60.799999, 94.099, -48.2460
61.500000, 94.052, -48.6203
62.200001, 94.007, -48.9957
63.000000, 93.957, -49.4496
64.000000, 93.888, -50.0286
65.000000, 93.816, -50.5474
66.000000, 93.755, -51.0415
67.000000, 93.693, -51.5644
68.000000, 93.629, -52.0689
69.000000, 93.566, -52.5477
70.000000, 93.503, -53.0228
71.000000, 93.438, -53.4955
72.000000, 93.372, -53.9515
73.000000, 93.311, -54.4014
74.000000, 93.249, -54.8771
75.000000, 93.186, -55.3473
76.199997, 93.111, -55.8961
77.500000, 93.032, -56.4879
78.800003, 92.951, -57.0574
80.000000, 92.879, -57.5618
81.199997, 92.809, -58.0599
82.500000, 92.732, -58.6034
83.800003, 92.655, -59.1347
85.000000, 92.586, -59.6185
86.199997, 92.519, -60.0866
87.500000, 92.450, -60.5888
88.500000, 92.397, -60.9656
90.000000, 92.317, -61.5297
91.199997, 92.251, -61.9757
92.500000, 92.179, -62.4440
93.800003, 92.106, -62.9019
95.000000, 92.041, -63.3187
96.199997, 91.977, -63.7361
97.500000, 91.909, -64.1940
98.800003, 91.840, -64.6420
100.000000, 91.778, -65.0348
101.500000, 91.701, -65.5193
103.000000, 91.623, -65.9969
104.400002, 91.551, -66.4456
106.000000, 91.467, -66.9628
107.500000, 91.390, -67.4324
109.000000, 91.316, -67.8890
110.599998, 91.241, -68.3593
112.000000, 91.176, -68.7663
113.800003, 91.088, -69.2808
115.000000, 91.027, -69.6227
117.199997, 90.914, -70.2784
118.000000, 90.872, -70.5305
120.599998, 90.745, -71.2045
122.000000, 90.695, -71.5514
124.099998, 90.618, -72.1141
125.000000, 90.581, -72.3439
126.500000, 90.518, -72.7013
128.000000, 90.454, -73.0674
131.500000, 90.310, -73.9495
132.000000, 90.289, -74.0739
134.000000, 90.210, -74.5500
136.000000, 90.133, -74.9993
138.000000, 90.057, -75.4351
140.000000, 89.986, -75.8699
143.000000, 89.882, -76.5324
145.000000, 89.814, -76.9645
147.500000, 89.730, -77.4895
150.000000, 89.649, -77.9749
152.500000, 89.567, -78.4671
155.000000, 89.482, -78.9734
157.500000, 89.399, -79.4428
160.000000, 89.321, -79.9355
162.500000, 89.240, -80.4064
165.000000, 89.162, -80.8732
167.500000, 89.082, -81.3400
170.000000, 89.001, -81.7540
172.500000, 88.924, -82.1531
175.000000, 88.847, -82.5546
177.500000, 88.768, -82.9233
180.000000, 88.694, -83.2714
182.500000, 88.630, -83.6329
185.000000, 88.566, -83.8510
187.500000, 88.515, -83.8903
190.000000, 88.482, -84.1584
192.500000, 88.437, -84.7369
195.000000, 88.384, -85.2903
197.500000, 88.330, -85.7179
200.000000, 88.270, -86.1222
203.000000, 88.190, -86.5953
206.000000, 88.117, -87.0219
209.000000, 88.049, -87.4558
212.000000, 87.985, -87.8967
214.000000, 87.944, -88.1842
218.000000, 87.860, -88.7577
220.000000, 87.818, -89.0202
224.000000, 87.738, -89.4736
227.000000, 87.676, -89.7921
230.000000, 87.614, -90.1325
233.000000, 87.558, -90.4758
236.000000, 87.507, -90.8126
240.000000, 87.441, -91.3056
243.000000, 87.391, -91.6296
247.000000, 87.318, -91.9943
250.000000, 87.266, -92.2482
254.000000, 87.204, -92.6338
258.000000, 87.140, -93.0304
262.000000, 87.080, -93.3983
265.000000, 87.037, -93.6578
269.000000, 86.983, -93.9839
272.000000, 86.947, -94.2084
276.000000, 86.896, -94.5251
280.000000, 86.846, -94.8538
285.000000, 86.789, -95.2360
290.000000, 86.733, -95.5481
295.000000, 86.682, -95.8893
300.000000, 86.635, -96.2449
304.000000, 86.599, -96.5233
307.000000, 86.573, -96.7135
311.000000, 86.540, -96.9543
315.000000, 86.507, -97.1978
320.000000, 86.466, -97.5217
325.000000, 86.426, -97.8101
330.000000, 86.389, -98.0755
335.000000, 86.353, -98.3401
340.000000, 86.317, -98.5899
345.000000, 86.281, -98.8395
350.000000, 86.246, -99.0651
355.000000, 86.212, -99.2877
360.000000, 86.180, -99.5044
365.000000, 86.150, -99.7055
370.000000, 86.121, -99.8771
375.000000, 86.091, -100.0469
382.000000, 86.052, -100.2924
387.000000, 86.027, -100.4561
395.000000, 85.988, -100.6953
400.000000, 85.965, -100.8256
406.000000, 85.939, -100.9724
412.000000, 85.913, -101.1228
418.000000, 85.890, -101.2529
425.000000, 85.865, -101.3977
431.000000, 85.845, -101.4943
437.000000, 85.826, -101.5884
444.000000, 85.806, -101.6788
450.000000, 85.790, -101.7550
455.000000, 85.777, -101.8053
462.000000, 85.760, -101.8752
468.000000, 85.748, -101.9125
475.000000, 85.736, -101.9594
482.000000, 85.728, -101.9877
487.000000, 85.723, -102.0046
494.000000, 85.718, -102.0085
500.000000, 85.714, -102.0146
508.000000, 85.711, -102.0131
515.000000, 85.711, -101.9941
522.000000, 85.712, -101.9539
530.000000, 85.715, -101.9011
538.000000, 85.719, -101.8426
545.000000, 85.725, -101.7820
552.000000, 85.733, -101.7079
560.000000, 85.743, -101.6202
570.000000, 85.758, -101.4882
580.000000, 85.775, -101.3390
590.000000, 85.795, -101.1747
600.000000, 85.816, -100.9958
608.000000, 85.833, -100.8450
615.000000, 85.848, -100.7031
622.000000, 85.863, -100.5551
630.000000, 85.882, -100.3754
640.000000, 85.907, -100.1318
650.000000, 85.934, -99.8775
660.000000, 85.964, -99.6198
670.000000, 85.998, -99.3370
680.000000, 86.034, -99.0478
690.000000, 86.073, -98.7397
700.000000, 86.114, -98.4388
710.000000, 86.159, -98.1314
720.000000, 86.208, -97.8021
730.000000, 86.259, -97.4741
740.000000, 86.313, -97.1377
750.000000, 86.370, -96.7903
762.000000, 86.441, -96.3810
775.000000, 86.522, -95.9311
788.000000, 86.613, -95.4766
800.000000, 86.706, -95.1160
812.000000, 86.803, -94.8633
825.000000, 86.881, -94.7429
838.000000, 86.923, -94.4412
850.000000, 86.974, -93.8920
862.000000, 87.050, -93.2739
875.000000, 87.159, -92.6079
885.000000, 87.258, -92.1729
900.000000, 87.411, -91.7106
912.000000, 87.527, -91.4061
925.000000, 87.649, -91.0701
938.000000, 87.773, -90.7464
950.000000, 87.892, -90.4538
962.000000, 88.012, -90.2072
975.000000, 88.144, -89.9642
988.000000, 88.275, -89.7703
1000.000000, 88.396, -89.6241
1015.000000, 88.546, -89.4853
1030.000000, 88.694, -89.3981
1044.000000, 88.831, -89.3586
1060.000000, 88.985, -89.3486
1075.000000, 89.125, -89.3763
1090.000000, 89.268, -89.4526
1106.000000, 89.426, -89.5706
1120.000000, 89.562, -89.7039
1138.000000, 89.730, -89.9092
1150.000000, 89.838, -90.0660
1172.000000, 90.026, -90.3818
1180.000000, 90.091, -90.5122
1206.000000, 90.292, -90.9443
1220.000000, 90.397, -91.1716
1241.000000, 90.546, -91.5346
1250.000000, 90.607, -91.6864
1265.000000, 90.704, -91.9421
1280.000000, 90.795, -92.1858
1315.000000, 90.987, -92.6855
1320.000000, 91.012, -92.7497
1340.000000, 91.101, -92.9921
1360.000000, 91.170, -93.1869
1380.000000, 91.236, -93.3768
1400.000000, 91.308, -93.4990
1430.000000, 91.413, -93.6094
1450.000000, 91.480, -93.6456
1475.000000, 91.560, -93.6222
1500.000000, 91.638, -93.5437
1525.000000, 91.714, -93.4379
1550.000000, 91.787, -93.2616
1575.000000, 91.859, -93.0576
1600.000000, 91.932, -92.8081
1625.000000, 92.007, -92.5199
1650.000000, 92.085, -92.2036
1675.000000, 92.167, -91.8676
1700.000000, 92.251, -91.5049
1725.000000, 92.338, -91.1427
1750.000000, 92.427, -90.7429
1775.000000, 92.520, -90.3594
1800.000000, 92.616, -89.9589
1825.000000, 92.715, -89.5441
1850.000000, 92.817, -89.1353
1875.000000, 92.923, -88.7317
1900.000000, 93.032, -88.3250
1925.000000, 93.144, -87.9285
1950.000000, 93.258, -87.5297
1975.000000, 93.375, -87.1503
2000.000000, 93.495, -86.7766
2030.000000, 93.642, -86.3406
2060.000000, 93.795, -85.9219
2090.000000, 93.954, -85.5114
2120.000000, 94.117, -85.1582
2140.000000, 94.228, -84.9650
2180.000000, 94.453, -84.5958
2200.000000, 94.564, -84.4519
2240.000000, 94.783, -84.2073
2270.000000, 94.947, -84.0533
2300.000000, 95.110, -83.9393
2330.000000, 95.274, -83.8590
2360.000000, 95.438, -83.8064
2400.000000, 95.656, -83.8307
2430.000000, 95.819, -83.8943
2470.000000, 96.033, -84.0359
2500.000000, 96.189, -84.2057
2540.000000, 96.394, -84.4934
2580.000000, 96.591, -84.8513
2620.000000, 96.780, -85.2794
2650.000000, 96.916, -85.6482
2690.000000, 97.089, -86.1653
2720.000000, 97.211, -86.6174
2760.000000, 97.362, -87.2583
2800.000000, 97.499, -87.9481
2850.000000, 97.653, -88.8723
2900.000000, 97.783, -89.8362
2950.000000, 97.890, -90.8251
3000.000000, 97.973, -91.8223
3040.000000, 98.022, -92.6024
3070.000000, 98.050, -93.1772
3110.000000, 98.075, -93.9119
3150.000000, 98.087, -94.5975
3200.000000, 98.084, -95.3900
3250.000000, 98.065, -96.0601
3300.000000, 98.040, -96.5520
3350.000000, 98.024, -96.9614
3400.000000, 98.018, -97.3493
3450.000000, 98.013, -97.7968
3500.000000, 97.998, -98.2687
3550.000000, 97.966, -98.6479
3600.000000, 97.929, -98.9304
3650.000000, 97.900, -99.0796
3700.000000, 97.888, -99.1962
3750.000000, 97.888, -99.3947
3820.000000, 97.878, -99.8902
3870.000000, 97.845, -100.3472
3950.000000, 97.742, -101.0331
4000.000000, 97.657, -101.3513
4060.000000, 97.543, -101.6465
4120.000000, 97.421, -101.8298
4180.000000, 97.292, -101.9365
4250.000000, 97.131, -101.9976
4310.000000, 96.980, -101.9417
4370.000000, 96.815, -101.7957
4440.000000, 96.613, -101.4439
4500.000000, 96.442, -101.0569
4550.000000, 96.305, -100.6426
4620.000000, 96.123, -100.0410
4680.000000, 95.974, -99.5075
4750.000000, 95.800, -98.9155
4820.000000, 95.617, -98.3303
4870.000000, 95.476, -97.9001
4940.000000, 95.266, -97.1912
5000.000000, 95.076, -96.4767
5080.000000, 94.819, -95.3186
5150.000000, 94.599, -94.1226
5220.000000, 94.393, -92.7433
5300.000000, 94.179, -91.0784
5380.000000, 93.987, -89.3143
5450.000000, 93.834, -87.7584
5520.000000, 93.692, -86.1787
5600.000000, 93.541, -84.3201
5700.000000, 93.365, -81.9359
5800.000000, 93.205, -79.4709
5900.000000, 93.063, -76.8892
6000.000000, 92.944, -74.2717
6080.000000, 92.867, -72.0855
6150.000000, 92.815, -70.1339
6220.000000, 92.776, -68.1958
6300.000000, 92.749, -65.9191
6400.000000, 92.744, -63.0781
6500.000000, 92.773, -60.2197
6600.000000, 92.838, -57.3834
6700.000000, 92.941, -54.6072
6800.000000, 93.092, -51.9059
6900.000000, 93.308, -49.3156
7000.000000, 93.591, -46.8862
7100.000000, 93.929, -44.6891
7200.000000, 94.320, -42.8243
7300.000000, 94.761, -41.3325
7400.000000, 95.246, -40.4047
7500.000000, 95.768, -40.1366
7620.000000, 96.434, -40.9686
7750.000000, 97.133, -43.5010
7880.000000, 97.616, -47.8593
8000.000000, 97.779, -53.2177
8120.000000, 97.609, -59.1855
8250.000000, 97.031, -65.3384
8380.000000, 96.109, -70.0907
8500.000000, 95.062, -72.7510
8620.000000, 93.935, -73.6127
8750.000000, 92.715, -72.9180
8850.000000, 91.804, -71.4496
9000.000000, 90.497, -67.9387
9120.000000, 89.541, -64.1199
9250.000000, 88.618, -59.3218
9380.000000, 87.809, -54.0262
9500.000000, 87.154, -48.9023
9620.000000, 86.578, -43.5629
9750.000000, 86.037, -37.6168
9880.000000, 85.577, -31.5894
10000.000000, 85.215, -25.9064
10150.000000, 84.843, -18.7639
10300.000000, 84.553, -11.5815
10440.000000, 84.358, -4.8156
10600.000000, 84.226, 2.8806
10750.000000, 84.193, 10.0404
10900.000000, 84.249, 17.0170
11060.000000, 84.408, 24.2697
11200.000000, 84.628, 30.4234
11380.000000, 85.037, 38.0096
11500.000000, 85.411, 42.7299
11720.000000, 86.269, 49.9905
11800.000000, 86.623, 52.1832
12060.000000, 87.912, 57.0201
12200.000000, 88.650, 57.8079
12410.000000, 89.648, 55.7629
12500.000000, 89.954, 53.6351
12650.000000, 90.171, 48.9053
12800.000000, 89.941, 43.6899
13150.000000, 87.902, 36.9332
13200.000000, 87.514, 37.0033
13400.000000, 85.927, 39.9409
13600.000000, 84.480, 46.7920
13800.000000, 83.371, 56.8769
14000.000000, 82.811, 69.4776
14300.000000, 83.382, 88.6262
14500.000000, 84.525, 97.1993
14750.000000, 86.037, 101.1809
15000.000000, 87.133, 100.4884
15250.000000, 87.851, 97.9944
15500.000000, 88.376, 94.0007
15750.000000, 88.601, 87.8317
16000.000000, 88.210, 80.2800
16250.000000, 87.074, 73.9012
16500.000000, 85.392, 70.9780
16750.000000, 83.518, 72.3144
17000.000000, 81.750, 77.1278
17250.000000, 80.234, 84.2195
17500.000000, 79.012, 92.6497
17750.000000, 78.080, 101.7647
