* Measurement data measured by REW V5.20.13
* Source: Headset (DS by VECLAN.COM), MICROPHONE (Master Volume), L, volume: 0.800. Timing signal peak level -12.2 dBFS, measurement signal peak level -9.7 dBFS
* Format: 2M Log Swept Sine, 1 sweep at -12.0 dBFS using an acoustic timing reference
* Dated: Oct 15, 2023 7:34:19 PM
* REW Settings:
*  C-weighting compensation: Off
*  Target level: 75.0 dB
* Note: ; Delay -0.0670 ms (-23 mm, -0.9 in) using estimated IR delay relative to Acoustic reference played from HEADPHONE L with no timing offset
* Measurement: KZ PR2 L
* Smoothing: 1/24 octave
* Frequency Step: 1/48 octave
* Start Frequency: 1.000 Hz
*
* Freq(Hz) SPL(dB) Phase(degrees)
1.000000 77.928 -41.6153
1.015000 78.428 -42.2520
1.030000 78.909 -42.8684
1.044000 79.336 -43.4234
1.060000 79.796 -44.0312
1.075000 80.196 -44.5732
1.090000 80.563 -45.0859
1.106000 80.915 -45.5983
1.120000 81.205 -46.0176
1.138000 81.556 -46.5196
1.150000 81.778 -46.8329
1.172000 82.161 -47.3667
1.180000 82.293 -47.5488
1.206000 82.696 -48.1023
1.220000 82.899 -48.3787
1.241000 83.185 -48.7696
1.250000 83.302 -48.9297
1.265000 83.489 -49.1883
1.280000 83.668 -49.4386
1.315000 84.057 -50.0020
1.320000 84.110 -50.0813
1.340000 84.316 -50.3988
1.360000 84.514 -50.7204
1.380000 84.706 -51.0513
1.400000 84.894 -51.3965
1.430000 85.174 -51.9523
1.450000 85.361 -52.3556
1.475000 85.598 -52.9031
1.500000 85.819 -53.4816
1.525000 86.021 -54.0826
1.550000 86.207 -54.7018
1.575000 86.379 -55.3349
1.600000 86.538 -55.9776
1.625000 86.687 -56.6257
1.650000 86.827 -57.2749
1.675000 86.960 -57.9210
1.700000 87.089 -58.5597
1.725000 87.214 -59.1867
1.750000 87.339 -59.7978
1.775000 87.465 -60.3887
1.800000 87.593 -60.9552
1.825000 87.727 -61.4929
1.850000 87.864 -61.9992
1.875000 87.998 -62.4774
1.900000 88.128 -62.9314
1.925000 88.256 -63.3646
1.950000 88.381 -63.7805
1.975000 88.504 -64.1828
2.000000 88.625 -64.5751
2.030000 88.768 -65.0374
2.060000 88.910 -65.4966
2.090000 89.051 -65.9587
2.120000 89.191 -66.4300
2.140000 89.285 -66.7522
2.180000 89.473 -67.4244
2.200000 89.568 -67.7779
2.240000 89.759 -68.5069
2.270000 89.902 -69.0661
2.300000 90.045 -69.6341
2.330000 90.188 -70.2093
2.360000 90.329 -70.7899
2.400000 90.517 -71.5697
2.430000 90.655 -72.1566
2.470000 90.838 -72.9387
2.500000 90.973 -73.5227
2.540000 91.150 -74.2949
2.580000 91.323 -75.0568
2.620000 91.493 -75.8141
2.650000 91.618 -76.3803
2.690000 91.782 -77.1337
2.720000 91.903 -77.6979
2.760000 92.062 -78.4495
2.800000 92.219 -79.2011
2.850000 92.411 -80.1415
2.900000 92.599 -81.0842
2.950000 92.784 -82.0299
3.000000 92.964 -82.9738
3.040000 93.105 -83.7280
3.070000 93.210 -84.2939
3.110000 93.347 -85.0496
3.150000 93.481 -85.8077
3.200000 93.645 -86.7603
3.250000 93.805 -87.7207
3.300000 93.961 -88.6910
3.350000 94.112 -89.6767
3.400000 94.260 -90.6768
3.450000 94.403 -91.6855
3.500000 94.542 -92.6970
3.550000 94.677 -93.7057
3.600000 94.808 -94.7056
3.650000 94.935 -95.6910
3.700000 95.058 -96.6590
3.750000 95.177 -97.6146
3.820000 95.336 -98.9371
3.870000 95.445 -99.8747
3.950000 95.611 -101.3701
4.000000 95.710 -102.3061
4.060000 95.824 -103.4362
4.120000 95.933 -104.5780
4.180000 96.035 -105.7233
4.250000 96.149 -107.0515
4.310000 96.241 -108.1725
4.370000 96.328 -109.2676
4.440000 96.424 -110.5055
4.500000 96.501 -111.5423
4.550000 96.561 -112.3906
4.620000 96.640 -113.5556
4.680000 96.704 -114.5339
4.750000 96.775 -115.6531
4.820000 96.841 -116.7518
4.870000 96.885 -117.5249
4.940000 96.942 -118.5864
5.000000 96.987 -119.4728
5.080000 97.046 -120.6143
5.150000 97.095 -121.5690
5.220000 97.141 -122.4826
5.300000 97.190 -123.4818
5.380000 97.237 -124.4389
5.450000 97.278 -125.2466
5.520000 97.320 -126.0294
5.600000 97.368 -126.8832
5.700000 97.426 -127.8974
5.800000 97.487 -128.8708
5.900000 97.552 -129.8181
6.000000 97.621 -130.7210
6.080000 97.678 -131.4212
6.150000 97.729 -132.0288
6.220000 97.782 -132.6408
6.300000 97.846 -133.3408
6.400000 97.929 -134.2057
6.500000 98.014 -135.0786
6.600000 98.098 -135.9802
6.700000 98.184 -136.9119
6.800000 98.270 -137.8659
6.900000 98.354 -138.8433
7.000000 98.431 -139.8459
7.100000 98.506 -140.8796
7.200000 98.575 -141.9343
7.300000 98.637 -142.9972
7.400000 98.690 -144.0675
7.500000 98.735 -145.1555
7.620000 98.779 -146.4524
7.750000 98.811 -147.8110
7.880000 98.827 -149.1430
8.000000 98.830 -150.3189
8.120000 98.823 -151.4123
8.250000 98.803 -152.5212
8.380000 98.776 -153.5338
8.500000 98.748 -154.3636
8.620000 98.715 -155.0975
8.750000 98.680 -155.7999
8.850000 98.658 -156.2780
9.000000 98.629 -156.8792
9.120000 98.612 -157.3030
9.250000 98.606 -157.7288
9.380000 98.610 -158.1038
9.500000 98.618 -158.4511
9.620000 98.631 -158.8214
9.750000 98.651 -159.2309
9.880000 98.666 -159.6717
10.000000 98.672 -160.1223
10.150000 98.673 -160.7264
10.300000 98.660 -161.3444
10.440000 98.634 -161.9447
10.600000 98.592 -162.6150
10.750000 98.543 -163.1973
10.900000 98.486 -163.7401
11.060000 98.425 -164.2341
11.200000 98.369 -164.5957
11.380000 98.305 -164.9743
11.500000 98.268 -165.1589
11.720000 98.218 -165.4354
11.800000 98.209 -165.5331
12.060000 98.208 -165.8622
12.200000 98.224 -166.1366
12.410000 98.264 -166.6736
12.500000 98.279 -166.9721
12.650000 98.307 -167.5624
12.800000 98.326 -168.2394
13.150000 98.316 -170.1113
13.200000 98.307 -170.3839
13.400000 98.251 -171.5033
13.600000 98.170 -172.5237
13.800000 98.063 -173.3954
14.000000 97.950 -174.0578
14.300000 97.782 -174.6551
14.500000 97.695 -174.8195
14.750000 97.628 -174.9393
15.000000 97.611 -175.0638
15.250000 97.634 -175.4019
15.500000 97.670 -175.9959
15.750000 97.699 -176.8440
16.000000 97.698 -177.8683
16.250000 97.660 -178.9050
16.500000 97.590 -179.8590
16.750000 97.497 179.3983
17.000000 97.405 178.8965
17.250000 97.327 178.6000
17.500000 97.276 178.4483
17.750000 97.256 178.2972
18.000000 97.257 178.0837
18.250000 97.271 177.7395
18.500000 97.282 177.2681
18.750000 97.281 176.7187
19.000000 97.264 176.1381
19.250000 97.232 175.6088
19.500000 97.192 175.1558
19.750000 97.149 174.7960
20.000000 97.111 174.5115
20.299999 97.075 174.2137
20.600000 97.049 173.9114
20.900000 97.027 173.5635
21.200001 97.003 173.1612
21.400000 96.982 172.8767
21.799999 96.928 172.3041
22.000000 96.897 172.0333
22.400000 96.828 171.5469
22.700001 96.776 171.2345
23.000000 96.727 170.9614
23.299999 96.684 170.7142
23.600000 96.650 170.4738
24.000000 96.619 170.1241
24.299999 96.604 169.8054
24.700001 96.588 169.2770
25.000000 96.571 168.8116
25.400000 96.537 168.1500
25.799999 96.488 167.5269
26.200001 96.435 166.9990
26.500000 96.400 166.6566
26.900000 96.363 166.2203
27.200001 96.340 165.8697
27.600000 96.307 165.3572
28.000000 96.260 164.8457
28.500000 96.186 164.3349
29.000000 96.116 164.0115
29.500000 96.067 163.7481
30.000000 96.026 163.3989
30.400000 95.981 163.0808
30.700001 95.939 162.8775
31.100000 95.882 162.7068
31.500000 95.840 162.6184
32.000000 95.818 162.4453
32.500000 95.806 162.0349
33.000000 95.768 161.4697
33.500000 95.704 160.9924
34.000000 95.652 160.6802
34.500000 95.636 160.3052
35.000000 95.625 159.6392
35.500000 95.569 158.7795
36.000000 95.455 158.0992
36.500000 95.327 157.8372
37.000000 95.236 157.8602
37.500000 95.186 157.8663
38.200001 95.127 157.6845
38.700001 95.077 157.5901
39.500000 95.026 157.5326
40.000000 95.007 157.3970
40.599998 94.980 157.1919
41.200001 94.971 157.0086
41.799999 94.987 156.5563
42.500000 94.952 155.5063
43.099998 94.819 154.7645
43.700001 94.660 154.6983
44.400002 94.552 155.1240
45.000000 94.521 155.4067
45.500000 94.511 155.5221
46.200001 94.513 155.4634
46.799999 94.501 155.1081
47.500000 94.430 154.6635
48.200001 94.365 154.4705
48.700001 94.352 154.1821
49.400002 94.307 153.2684
50.000000 94.190 152.5340
50.799999 94.035 152.2477
51.500000 93.977 152.0770
52.200001 93.921 151.7741
53.000000 93.862 151.7631
53.799999 93.859 151.7935
54.500000 93.839 151.6544
55.200001 93.787 151.5905
56.000000 93.682 151.5240
57.000000 93.448 152.2620
58.000000 93.442 153.5086
59.000000 93.467 152.1797
60.000000 93.183 150.8691
60.799999 93.021 150.5322
61.500000 92.928 150.1746
62.200001 92.909 150.2789
63.000000 93.108 149.9628
64.000000 93.228 147.1713
65.000000 92.918 145.7621
66.000000 92.680 146.3005
67.000000 92.416 147.4349
68.000000 92.354 150.3128
69.000000 92.701 151.4735
70.000000 93.024 149.7918
71.000000 93.218 146.5363
72.000000 93.127 142.3928
73.000000 92.645 140.4185
74.000000 92.204 142.2804
75.000000 92.129 145.3893
76.199997 92.240 148.5589
77.500000 92.408 150.7864
78.800003 92.490 151.2355
80.000000 92.467 149.8998
81.199997 92.239 147.6839
82.500000 91.911 146.4473
83.800003 91.770 146.5562
85.000000 91.785 146.7930
86.199997 91.729 147.1239
87.500000 91.611 148.0253
88.500000 91.469 148.6027
90.000000 91.245 150.1045
91.199997 91.238 150.4297
92.500000 91.093 149.9041
93.800003 90.914 151.2086
95.000000 91.041 152.7406
96.199997 91.166 152.3854
97.500000 91.055 151.4291
98.800003 90.894 150.5801
100.000000 90.752 149.6009
101.500000 90.633 148.8136
103.000000 90.656 148.4399
104.400002 90.669 148.2983
106.000000 90.607 148.6312
107.500000 90.507 149.1104
109.000000 90.394 149.0977
110.599998 90.286 148.7935
112.000000 90.203 148.5360
113.800003 90.161 148.6010
115.000000 90.114 148.5134
117.199997 89.953 148.7073
118.000000 89.904 148.7203
120.599998 89.790 148.7224
122.000000 89.770 148.5708
124.099998 89.691 148.4630
125.000000 89.673 148.6943
126.500000 89.786 149.1039
128.000000 90.022 148.2617
131.500000 89.577 144.9239
132.000000 89.414 145.3330
134.000000 88.941 148.1603
136.000000 88.757 150.2241
138.000000 88.781 151.8209
140.000000 89.076 152.7779
143.000000 89.322 152.5303
145.000000 89.143 152.8026
147.500000 88.790 153.4614
150.000000 88.425 152.3678
152.500000 88.272 151.9504
155.000000 88.778 151.6376
157.500000 89.062 150.7910
160.000000 88.894 151.8257
162.500000 88.532 153.2324
165.000000 88.309 153.5620
167.500000 88.231 153.1184
170.000000 88.211 153.2455
172.500000 88.194 153.5945
175.000000 88.186 153.8977
177.500000 88.180 154.0330
180.000000 88.140 154.3369
182.500000 88.069 154.8331
185.000000 87.970 155.2430
187.500000 87.893 155.3367
190.000000 87.890 155.3182
192.500000 87.966 155.4883
195.000000 87.976 155.7426
197.500000 87.848 156.2059
200.000000 87.685 156.6920
203.000000 87.561 157.0931
206.000000 87.516 157.4299
209.000000 87.493 157.7780
212.000000 87.474 158.0632
214.000000 87.441 158.1725
218.000000 87.339 158.4452
220.000000 87.302 158.6594
224.000000 87.236 159.0439
227.000000 87.175 159.2597
230.000000 87.116 159.5566
233.000000 87.085 159.9264
236.000000 87.076 160.1985
240.000000 87.034 160.4129
243.000000 86.949 160.7245
247.000000 86.862 161.4155
250.000000 86.860 161.8612
254.000000 86.883 162.2214
258.000000 86.848 162.7856
262.000000 86.735 163.2737
265.000000 86.678 163.3751
269.000000 86.648 163.6436
272.000000 86.624 163.9730
276.000000 86.617 164.3001
280.000000 86.602 164.4865
285.000000 86.554 164.8987
290.000000 86.486 165.5352
295.000000 86.397 165.8177
300.000000 86.372 166.6242
304.000000 86.380 167.2367
307.000000 86.400 167.4655
311.000000 86.403 167.7310
315.000000 86.368 168.1126
320.000000 86.317 168.6240
325.000000 86.265 169.1104
330.000000 86.219 169.4678
335.000000 86.176 169.9316
340.000000 86.155 170.5793
345.000000 86.166 170.9623
350.000000 86.166 171.0443
355.000000 86.099 171.6005
360.000000 86.024 172.2627
365.000000 85.983 172.6867
370.000000 85.972 173.1218
375.000000 85.965 173.5877
382.000000 85.932 174.2806
387.000000 85.910 174.7428
395.000000 85.891 175.4241
400.000000 85.878 175.7970
406.000000 85.845 176.1672
412.000000 85.817 176.6381
418.000000 85.808 177.2294
425.000000 85.785 177.8255
431.000000 85.757 178.2098
437.000000 85.735 178.6223
444.000000 85.717 179.2062
450.000000 85.705 179.8381
455.000000 85.685 -179.5828
462.000000 85.639 -178.8340
468.000000 85.609 -178.3834
475.000000 85.606 -177.9962
482.000000 85.610 -177.5473
487.000000 85.608 -177.1973
494.000000 85.611 -176.5478
500.000000 85.609 -175.9202
508.000000 85.611 -175.2357
515.000000 85.615 -174.6915
522.000000 85.618 -174.1337
530.000000 85.612 -173.5085
538.000000 85.604 -172.9694
545.000000 85.597 -172.4549
552.000000 85.591 -171.9254
560.000000 85.596 -171.2943
570.000000 85.601 -170.3679
580.000000 85.586 -169.5224
590.000000 85.608 -168.7456
600.000000 85.630 -168.0990
608.000000 85.652 -167.5176
615.000000 85.666 -166.9238
622.000000 85.671 -166.2578
630.000000 85.677 -165.6588
640.000000 85.671 -164.9932
650.000000 85.666 -164.2423
660.000000 85.684 -163.5125
670.000000 85.705 -162.6905
680.000000 85.739 -161.9604
690.000000 85.768 -161.2518
700.000000 85.786 -160.4921
710.000000 85.817 -159.7654
720.000000 85.861 -159.0869
730.000000 85.896 -158.3280
740.000000 85.927 -157.5064
750.000000 85.963 -156.7320
762.000000 86.008 -155.8777
775.000000 86.074 -154.8933
788.000000 86.149 -153.9484
800.000000 86.193 -153.2305
812.000000 86.238 -152.4212
825.000000 86.310 -151.5043
838.000000 86.377 -150.6773
850.000000 86.439 -149.9102
862.000000 86.509 -149.1624
875.000000 86.592 -148.4355
885.000000 86.656 -147.9040
900.000000 86.742 -146.9766
912.000000 86.818 -146.2561
925.000000 86.906 -145.5569
938.000000 86.991 -144.8829
950.000000 87.065 -144.2486
962.000000 87.144 -143.6421
975.000000 87.234 -143.0218
988.000000 87.325 -142.4249
1000.000000 87.411 -141.9272
1015.000000 87.517 -141.3636
1030.000000 87.623 -140.7789
1044.000000 87.720 -140.2191
1060.000000 87.825 -139.6383
1075.000000 87.920 -139.1262
1090.000000 88.021 -138.6280
1106.000000 88.140 -138.1399
1120.000000 88.249 -137.7223
1138.000000 88.385 -137.1618
1150.000000 88.472 -136.8052
1172.000000 88.633 -136.2403
1180.000000 88.692 -136.0453
1206.000000 88.879 -135.4305
1220.000000 88.978 -135.0461
1241.000000 89.130 -134.4964
1250.000000 89.196 -134.3020
1265.000000 89.307 -133.9980
1280.000000 89.418 -133.6626
1315.000000 89.675 -132.8622
1320.000000 89.710 -132.7446
1340.000000 89.851 -132.2734
1360.000000 89.982 -131.8507
1380.000000 90.112 -131.4463
1400.000000 90.249 -131.0144
1430.000000 90.455 -130.3765
1450.000000 90.591 -129.9540
1475.000000 90.763 -129.4246
1500.000000 90.942 -128.9232
1525.000000 91.122 -128.4220
1550.000000 91.306 -127.9175
1575.000000 91.500 -127.4328
1600.000000 91.700 -126.9553
1625.000000 91.905 -126.4630
1650.000000 92.120 -125.9743
1675.000000 92.356 -125.5219
1700.000000 92.616 -125.1704
1725.000000 92.890 -124.9810
1750.000000 93.165 -124.9952
1775.000000 93.439 -125.1672
1800.000000 93.704 -125.4173
1825.000000 93.965 -125.7156
1850.000000 94.234 -126.0874
1875.000000 94.519 -126.5644
1900.000000 94.819 -127.2027
1925.000000 95.130 -128.0696
1950.000000 95.446 -129.2371
1975.000000 95.759 -130.8429
2000.000000 96.049 -133.0063
2030.000000 96.300 -136.3806
2060.000000 96.338 -140.3454
2090.000000 96.072 -143.8772
2120.000000 95.579 -145.5184
2140.000000 95.259 -145.3576
2180.000000 94.935 -143.6597
2200.000000 94.928 -142.8529
2240.000000 95.069 -141.9793
2270.000000 95.228 -141.9635
2300.000000 95.390 -142.3506
2330.000000 95.531 -142.9941
2360.000000 95.649 -143.8308
2400.000000 95.764 -145.1617
2430.000000 95.814 -146.2454
2470.000000 95.838 -147.7789
2500.000000 95.830 -148.9484
2540.000000 95.785 -150.4749
2580.000000 95.699 -151.9455
2620.000000 95.567 -153.2871
2650.000000 95.434 -154.1689
2690.000000 95.213 -155.0900
2720.000000 95.014 -155.4736
2760.000000 94.734 -155.2780
2800.000000 94.526 -154.1594
2850.000000 94.523 -152.4973
2900.000000 94.679 -152.2870
2950.000000 94.737 -153.1586
3000.000000 94.674 -153.9684
3040.000000 94.589 -154.4032
3070.000000 94.514 -154.6169
3110.000000 94.400 -154.7845
3150.000000 94.277 -154.8305
3200.000000 94.125 -154.7479
3250.000000 93.991 -154.4960
3300.000000 93.879 -154.0804
3350.000000 93.781 -153.5333
3400.000000 93.697 -152.9187
3450.000000 93.639 -152.3029
3500.000000 93.609 -151.7005
3550.000000 93.603 -151.0501
3600.000000 93.622 -150.3643
3650.000000 93.671 -149.7297
3700.000000 93.743 -149.2019
3750.000000 93.842 -148.8486
3820.000000 94.031 -148.7775
3870.000000 94.193 -149.2028
3950.000000 94.428 -151.0257
4000.000000 94.513 -152.8150
4060.000000 94.561 -155.7038
4120.000000 94.461 -160.0118
4180.000000 93.925 -164.9768
4250.000000 92.566 -166.9562
4310.000000 91.257 -162.4442
4370.000000 90.577 -155.1546
4440.000000 90.559 -148.0913
4500.000000 90.813 -143.9530
4550.000000 91.084 -141.6043
4620.000000 91.469 -139.6804
4680.000000 91.763 -139.0013
4750.000000 92.047 -138.9469
4820.000000 92.282 -139.4860
4870.000000 92.418 -140.2660
4940.000000 92.535 -142.0285
5000.000000 92.508 -144.2155
5080.000000 92.126 -147.3168
5150.000000 91.410 -147.5611
5220.000000 90.833 -143.6800
5300.000000 91.019 -139.0438
5380.000000 91.448 -138.6534
5450.000000 91.590 -140.2126
5520.000000 91.534 -142.0186
5600.000000 91.285 -143.8014
5700.000000 90.775 -145.0919
5800.000000 90.167 -145.0762
5900.000000 89.570 -143.8788
6000.000000 89.035 -142.0149
6080.000000 88.625 -140.2398
6150.000000 88.271 -138.3926
6220.000000 87.935 -136.2352
6300.000000 87.588 -133.3887
6400.000000 87.246 -129.3835
6500.000000 87.057 -125.6110
6600.000000 86.869 -123.2212
6700.000000 86.323 -120.7386
6800.000000 85.600 -114.4431
6900.000000 85.382 -105.5350
7000.000000 85.662 -97.4469
7100.000000 86.132 -90.5408
7200.000000 86.736 -84.0857
7300.000000 87.544 -78.0077
7400.000000 88.582 -73.0070
7500.000000 89.739 -69.8703
7620.000000 91.167 -68.8749
7750.000000 92.435 -71.7940
7880.000000 92.952 -76.1121
8000.000000 93.115 -77.9905
8120.000000 93.326 -78.4331
8250.000000 93.660 -79.1278
8380.000000 93.883 -80.5029
8500.000000 93.976 -80.9830
8620.000000 94.151 -80.5918
8750.000000 94.476 -80.4239
8850.000000 94.763 -80.9097
9000.000000 95.110 -82.9004
9120.000000 95.224 -84.8919
9250.000000 95.261 -86.5691
9380.000000 95.259 -88.0111
9500.000000 95.235 -88.7265
9620.000000 95.365 -88.9281
9750.000000 95.737 -90.4642
9880.000000 96.077 -94.7198
10000.000000 96.081 -100.7497
10150.000000 95.356 -108.2069
10300.000000 93.921 -109.9614
10440.000000 92.815 -106.3923
10600.000000 92.293 -102.4801
10750.000000 91.985 -100.2709
10900.000000 91.673 -98.0445
11060.000000 91.416 -95.3469
11200.000000 91.280 -92.9987
11380.000000 91.212 -90.1058
11500.000000 91.236 -88.2648
11720.000000 91.485 -85.6523
11800.000000 91.617 -85.2462
12060.000000 91.995 -85.6947
12200.000000 92.200 -87.0402
12410.000000 92.336 -92.1102
12500.000000 92.186 -95.2876
12650.000000 91.497 -100.1249
12800.000000 90.284 -101.2852
13150.000000 88.261 -87.5183
13200.000000 88.282 -85.5362
13400.000000 88.643 -80.6853
13600.000000 88.951 -79.3340
13800.000000 89.070 -79.4280
14000.000000 89.032 -79.9917
14300.000000 88.725 -81.0193
14500.000000 88.333 -81.7820
14750.000000 87.473 -81.2648
15000.000000 86.480 -76.0071
15250.000000 86.182 -67.4985
15500.000000 86.790 -60.4831
15750.000000 87.863 -57.3940
16000.000000 88.989 -58.8022
16250.000000 89.909 -64.5936
16500.000000 90.442 -74.3127
16750.000000 90.418 -87.5533
17000.000000 89.624 -103.4688
17250.000000 87.816 -119.2082
17500.000000 84.784 -127.8668
17750.000000 80.758 -122.1401
18000.000000 77.119 -104.9121
18250.000000 75.717 -87.7407
18500.000000 75.916 -77.0477
18750.000000 76.505 -71.7211
19000.000000 77.091 -69.4365
19250.000000 77.363 -69.1672
19500.000000 76.984 -69.9915
19750.000000 75.801 -69.7440
20000.000000 73.837 -65.6579
20300.000000 70.782 -53.9634
20600.000000 67.604 -36.9704
20900.000000 64.621 -19.3511
21200.000000 61.584 -4.7618
21400.000000 59.267 2.2528
21800.000000 53.404 -16.7779
22000.000000 49.766 -126.2265
22400.000000 41.050 81.3593
22700.000000 33.275 -156.7432
23000.000000 24.598 114.1504
23300.000000 16.060 8.2930
23600.000000 11.134 101.9922
24000.000000 10.032 143.3906
