* Measurement data measured by REW V5.20.13
* Source: Headset (DS by VECLAN.COM), MICROPHONE (Master Volume), L, volume: 0.720. Timing signal peak level -13.8 dBFS, measurement signal peak level -13.7 dBFS
* Format: 2M Log Swept Sine, 1 sweep at -12.0 dBFS using an acoustic timing reference
* Dated: Nov 24, 2023 12:33:06 PM
* REW Settings:
*  C-weighting compensation: Off
*  Target level: 75.0 dB
* Note: ; Delay -0.0574 ms (-20 mm, -0.78 in) using estimated IR delay relative to Acoustic reference played from HEADPHONE L with no timing offset
* Measurement: KZ PR3 Nov 14 L
* Smoothing: 1/24 octave
* Frequency Step: 1/48 octave
* Start Frequency: 1.000 Hz
*
* Freq(Hz) SPL(dB) Phase(degrees)
1.000000 76.831 -35.4462
1.015000 77.566 -36.2835
1.030000 78.267 -37.1077
1.044000 78.886 -37.8625
1.060000 79.543 -38.7050
1.075000 80.103 -39.4725
1.090000 80.604 -40.2152
1.106000 81.070 -40.9803
1.120000 81.445 -41.6440
1.138000 81.895 -42.4941
1.150000 82.175 -43.0584
1.172000 82.650 -44.0871
1.180000 82.811 -44.4590
1.206000 83.295 -45.6587
1.220000 83.533 -46.2983
1.241000 83.863 -47.2484
1.250000 83.995 -47.6518
1.265000 84.204 -48.3189
1.280000 84.402 -48.9788
1.315000 84.821 -50.4883
1.320000 84.877 -50.7002
1.340000 85.094 -51.5379
1.360000 85.302 -52.3586
1.380000 85.504 -53.1613
1.400000 85.703 -53.9449
1.430000 86.005 -55.0819
1.450000 86.213 -55.8127
1.475000 86.482 -56.6925
1.500000 86.735 -57.5263
1.525000 86.967 -58.3166
1.550000 87.179 -59.0681
1.575000 87.374 -59.7858
1.600000 87.554 -60.4745
1.625000 87.722 -61.1392
1.650000 87.879 -61.7847
1.675000 88.027 -62.4158
1.700000 88.170 -63.0375
1.725000 88.309 -63.6547
1.750000 88.447 -64.2722
1.775000 88.585 -64.8950
1.800000 88.726 -65.5278
1.825000 88.873 -66.1756
1.850000 89.023 -66.8364
1.875000 89.169 -67.4962
1.900000 89.311 -68.1541
1.925000 89.449 -68.8097
1.950000 89.584 -69.4629
1.975000 89.716 -70.1133
2.000000 89.845 -70.7606
2.030000 89.997 -71.5331
2.060000 90.147 -72.3003
2.090000 90.295 -73.0619
2.120000 90.442 -73.8174
2.140000 90.540 -74.3173
2.180000 90.736 -75.3079
2.200000 90.835 -75.7983
2.240000 91.033 -76.7670
2.270000 91.181 -77.4835
2.300000 91.328 -78.1925
2.330000 91.473 -78.8950
2.360000 91.618 -79.5919
2.400000 91.807 -80.5141
2.430000 91.948 -81.2018
2.470000 92.131 -82.1153
2.500000 92.266 -82.7990
2.540000 92.441 -83.7108
2.580000 92.610 -84.6242
2.620000 92.775 -85.5361
2.650000 92.896 -86.2183
2.690000 93.053 -87.1251
2.720000 93.169 -87.8029
2.760000 93.319 -88.7033
2.800000 93.466 -89.5993
2.850000 93.645 -90.7125
2.900000 93.819 -91.8175
2.950000 93.988 -92.9138
3.000000 94.152 -94.0059
3.040000 94.279 -94.8760
3.070000 94.372 -95.5257
3.110000 94.494 -96.3871
3.150000 94.612 -97.2419
3.200000 94.755 -98.2993
3.250000 94.894 -99.3423
3.300000 95.029 -100.3686
3.350000 95.159 -101.3788
3.400000 95.283 -102.3750
3.450000 95.403 -103.3577
3.500000 95.518 -104.3276
3.550000 95.629 -105.2851
3.600000 95.737 -106.2309
3.650000 95.841 -107.1656
3.700000 95.941 -108.0904
3.750000 96.037 -109.0063
3.820000 96.164 -110.2704
3.870000 96.251 -111.1578
3.950000 96.383 -112.5457
4.000000 96.463 -113.3903
4.060000 96.555 -114.3780
4.120000 96.643 -115.3386
4.180000 96.726 -116.2746
4.250000 96.819 -117.3384
4.310000 96.895 -118.2288
4.370000 96.968 -119.1018
4.440000 97.051 -120.0997
4.500000 97.118 -120.9343
4.550000 97.172 -121.6154
4.620000 97.244 -122.5473
4.680000 97.304 -123.3264
4.750000 97.373 -124.2131
4.820000 97.439 -125.0737
4.870000 97.485 -125.6710
4.940000 97.547 -126.4860
5.000000 97.599 -127.1676
5.080000 97.666 -128.0565
5.150000 97.723 -128.8194
5.220000 97.779 -129.5635
5.300000 97.840 -130.3914
5.380000 97.900 -131.1991
5.450000 97.951 -131.8922
5.520000 98.001 -132.5751
5.600000 98.056 -133.3383
5.700000 98.123 -134.2685
5.800000 98.188 -135.1774
5.900000 98.250 -136.0701
6.000000 98.309 -136.9436
6.080000 98.355 -137.6288
6.150000 98.393 -138.2195
6.220000 98.430 -138.8026
6.300000 98.471 -139.4601
6.400000 98.519 -140.2676
6.500000 98.565 -141.0580
6.600000 98.609 -141.8300
6.700000 98.649 -142.5831
6.800000 98.688 -143.3181
6.900000 98.724 -144.0355
7.000000 98.759 -144.7354
7.100000 98.793 -145.4167
7.200000 98.824 -146.0809
7.300000 98.855 -146.7302
7.400000 98.886 -147.3645
7.500000 98.915 -147.9821
7.620000 98.950 -148.7073
7.750000 98.987 -149.4801
7.880000 99.024 -150.2348
8.000000 99.058 -150.9231
8.120000 99.091 -151.6110
8.250000 99.128 -152.3508
8.380000 99.163 -153.0919
8.500000 99.194 -153.7835
8.620000 99.224 -154.4795
8.750000 99.254 -155.2390
8.850000 99.274 -155.8285
9.000000 99.302 -156.7224
9.120000 99.319 -157.4380
9.250000 99.335 -158.2102
9.380000 99.346 -158.9821
9.500000 99.351 -159.6823
9.620000 99.349 -160.3670
9.750000 99.340 -161.0949
9.880000 99.322 -161.7922
10.000000 99.295 -162.4045
10.150000 99.250 -163.1306
10.300000 99.198 -163.7961
10.440000 99.142 -164.3568
10.600000 99.078 -164.9459
10.750000 99.025 -165.4509
10.900000 98.978 -165.9177
11.060000 98.937 -166.4202
11.200000 98.910 -166.8565
11.380000 98.881 -167.4479
11.500000 98.866 -167.8681
11.720000 98.842 -168.6947
11.800000 98.832 -169.0199
12.060000 98.800 -170.1495
12.200000 98.776 -170.7920
12.410000 98.729 -171.7824
12.500000 98.703 -172.1897
12.650000 98.651 -172.8605
12.800000 98.593 -173.4846
13.150000 98.435 -174.6726
13.200000 98.413 -174.8098
13.400000 98.325 -175.2648
13.600000 98.249 -175.6185
13.800000 98.191 -175.8748
14.000000 98.151 -176.1250
14.300000 98.124 -176.5427
14.500000 98.120 -176.9252
14.750000 98.117 -177.5300
15.000000 98.109 -178.2713
15.250000 98.085 -179.0878
15.500000 98.043 -179.8843
15.750000 97.986 179.3952
16.000000 97.922 178.8222
16.250000 97.866 178.3776
16.500000 97.826 178.0263
16.750000 97.812 177.7004
17.000000 97.819 177.2960
17.250000 97.840 176.7736
17.500000 97.864 176.0875
17.750000 97.873 175.2729
18.000000 97.863 174.3891
18.250000 97.828 173.5034
18.500000 97.771 172.7314
18.750000 97.704 172.1103
19.000000 97.636 171.6732
19.250000 97.585 171.3831
19.500000 97.554 171.1594
19.750000 97.546 170.9376
20.000000 97.551 170.6140
20.299999 97.554 170.0810
20.600000 97.535 169.4448
20.900000 97.483 168.8403
21.200001 97.402 168.4485
21.400000 97.348 168.3632
21.799999 97.275 168.5125
22.000000 97.269 168.6353
22.400000 97.322 168.6282
22.700001 97.380 168.1774
23.000000 97.405 167.3112
23.299999 97.364 166.2455
23.600000 97.255 165.2596
24.000000 97.038 164.4544
24.299999 96.876 164.3116
24.700001 96.723 164.4540
25.000000 96.660 164.4755
25.400000 96.598 164.1273
25.799999 96.496 163.5627
26.200001 96.360 163.3159
26.500000 96.291 163.4743
26.900000 96.318 163.8160
27.200001 96.431 163.6786
27.600000 96.623 162.4249
28.000000 96.712 159.9888
28.500000 96.527 156.6137
29.000000 96.073 154.9697
29.500000 95.631 155.8821
30.000000 95.486 158.0817
30.400000 95.579 159.4790
30.700001 95.699 159.9918
31.100000 95.843 160.0272
31.500000 95.926 159.5489
32.000000 95.903 158.5692
32.500000 95.689 157.7666
33.000000 95.309 158.3075
33.500000 94.979 160.9131
34.000000 95.018 164.4216
34.500000 95.422 166.2755
35.000000 95.844 165.1364
35.500000 95.981 161.9464
36.000000 95.792 158.7060
36.500000 95.421 156.6822
37.000000 95.064 155.8830
37.500000 94.821 155.6393
38.200001 94.655 155.4030
38.700001 94.640 155.1411
39.500000 94.732 154.0765
40.000000 94.770 153.0238
40.599998 94.747 151.9784
41.200001 94.715 151.6014
41.799999 94.741 151.5530
42.500000 94.806 151.2406
43.099998 94.815 150.6979
43.700001 94.753 150.1816
44.400002 94.615 149.9457
45.000000 94.497 150.1073
45.500000 94.428 150.2522
46.200001 94.333 150.1525
46.799999 94.201 150.1036
47.500000 94.069 150.6979
48.200001 94.093 151.2078
48.700001 94.138 150.7953
49.400002 94.029 149.6124
50.000000 93.780 149.5625
50.799999 93.615 151.3664
51.500000 93.801 152.3302
52.200001 94.020 151.1946
53.000000 94.032 148.5050
53.799999 93.812 146.0369
54.500000 93.510 144.7037
55.200001 93.195 144.4384
56.000000 92.944 145.1113
57.000000 92.790 146.1034
58.000000 92.564 147.0673
59.000000 92.210 149.9243
60.000000 92.186 154.5810
60.799999 92.480 156.8843
61.500000 92.748 156.9407
62.200001 92.880 155.6354
63.000000 92.840 153.7656
64.000000 92.747 152.1115
65.000000 92.744 150.2166
66.000000 92.687 148.7645
67.000000 92.722 148.2549
68.000000 92.742 147.7314
69.000000 92.648 147.9060
70.000000 92.556 148.9846
71.000000 92.622 149.5071
72.000000 92.492 148.0875
73.000000 92.121 149.3792
74.000000 92.471 151.1679
75.000000 92.727 146.6567
76.199997 91.946 144.9046
77.500000 91.991 148.0901
78.800003 91.890 144.8111
80.000000 91.493 145.4271
81.199997 91.540 144.8356
82.500000 91.411 143.6317
83.800003 91.501 143.5094
85.000000 91.641 142.6123
86.199997 91.623 141.5920
87.500000 91.343 141.2083
88.500000 90.988 142.0704
90.000000 90.542 144.8166
91.199997 90.406 146.6508
92.500000 90.397 147.3668
93.800003 90.426 147.1804
95.000000 90.452 146.8323
96.199997 90.464 146.5767
97.500000 90.432 146.5334
98.800003 90.359 146.7759
100.000000 90.281 147.0944
101.500000 90.190 147.3860
103.000000 90.119 147.5017
104.400002 90.071 147.5569
106.000000 90.025 147.6733
107.500000 89.963 147.9223
109.000000 89.871 148.3350
110.599998 89.751 148.7768
112.000000 89.634 148.8627
113.800003 89.468 148.5497
115.000000 89.376 148.2172
117.199997 89.277 147.9955
118.000000 89.276 148.1835
120.599998 89.341 149.2251
122.000000 89.315 149.7383
124.099998 89.204 150.2881
125.000000 89.142 150.3145
126.500000 89.044 150.2773
128.000000 88.996 150.1767
131.500000 88.901 150.3635
132.000000 88.892 150.4989
134.000000 88.854 150.7783
136.000000 88.750 150.8665
138.000000 88.655 151.3339
140.000000 88.639 151.7889
143.000000 88.589 151.8091
145.000000 88.490 151.8615
147.500000 88.368 152.3232
150.000000 88.305 153.0182
152.500000 88.279 153.4470
155.000000 88.226 153.5660
157.500000 88.127 153.6943
160.000000 88.005 154.1220
162.500000 87.933 154.5732
165.000000 87.909 154.6241
167.500000 87.903 154.6917
170.000000 87.906 155.0918
172.500000 87.868 155.6243
175.000000 87.785 156.0965
177.500000 87.709 156.4368
180.000000 87.656 156.7222
182.500000 87.607 157.0266
185.000000 87.549 157.3358
187.500000 87.495 157.6386
190.000000 87.445 157.9464
192.500000 87.396 158.2494
195.000000 87.350 158.4861
197.500000 87.305 158.7202
200.000000 87.251 159.0328
203.000000 87.167 159.3892
206.000000 87.082 159.6688
209.000000 87.045 160.0375
212.000000 87.026 160.4812
214.000000 87.001 160.7652
218.000000 86.938 161.1436
220.000000 86.902 161.3598
224.000000 86.825 162.0119
227.000000 86.824 162.2425
230.000000 86.868 162.2598
233.000000 86.868 162.4845
236.000000 86.775 162.9877
240.000000 86.646 163.7023
243.000000 86.597 164.1233
247.000000 86.544 164.7075
250.000000 86.512 165.1417
254.000000 86.462 165.6815
258.000000 86.402 166.2132
262.000000 86.346 166.6764
265.000000 86.308 166.9567
269.000000 86.278 167.2307
272.000000 86.264 167.4976
276.000000 86.238 168.0515
280.000000 86.213 168.6104
285.000000 86.166 169.2308
290.000000 86.132 169.6618
295.000000 86.109 170.1263
300.000000 86.072 170.7136
304.000000 86.044 171.1859
307.000000 86.024 171.5356
311.000000 85.997 172.0053
315.000000 85.969 172.4387
320.000000 85.943 172.9238
325.000000 85.920 173.4547
330.000000 85.895 173.9937
335.000000 85.868 174.4886
340.000000 85.839 174.9594
345.000000 85.799 175.4241
350.000000 85.772 175.9336
355.000000 85.764 176.4473
360.000000 85.746 176.8931
365.000000 85.731 177.4158
370.000000 85.713 178.0536
375.000000 85.686 178.5599
382.000000 85.658 179.2254
387.000000 85.636 179.7112
395.000000 85.603 -179.4921
400.000000 85.583 -179.0192
406.000000 85.555 -178.4805
412.000000 85.532 -177.8225
418.000000 85.506 -177.1141
425.000000 85.492 -176.3956
431.000000 85.493 -175.8880
437.000000 85.484 -175.3643
444.000000 85.460 -174.7275
450.000000 85.435 -174.1807
455.000000 85.424 -173.7152
462.000000 85.412 -173.0568
468.000000 85.401 -172.4933
475.000000 85.388 -171.8550
482.000000 85.375 -171.2099
487.000000 85.370 -170.7300
494.000000 85.364 -170.0849
500.000000 85.357 -169.5592
508.000000 85.351 -168.8414
515.000000 85.347 -168.1893
522.000000 85.345 -167.4964
530.000000 85.346 -166.7591
538.000000 85.345 -166.0722
545.000000 85.340 -165.4721
552.000000 85.330 -164.8863
560.000000 85.325 -164.1046
570.000000 85.347 -163.1578
580.000000 85.376 -162.2513
590.000000 85.390 -161.3253
600.000000 85.404 -160.4366
608.000000 85.415 -159.7596
615.000000 85.422 -159.1504
622.000000 85.426 -158.5129
630.000000 85.431 -157.7890
640.000000 85.439 -156.8502
650.000000 85.450 -155.8915
660.000000 85.462 -154.9926
670.000000 85.486 -154.1862
680.000000 85.513 -153.3517
690.000000 85.537 -152.4872
700.000000 85.564 -151.6158
710.000000 85.590 -150.7240
720.000000 85.620 -149.8340
730.000000 85.654 -148.9663
740.000000 85.690 -148.0786
750.000000 85.725 -147.1745
762.000000 85.767 -146.0870
775.000000 85.819 -144.9180
788.000000 85.879 -143.7926
800.000000 85.944 -142.7773
812.000000 86.011 -141.7536
825.000000 86.089 -140.6484
838.000000 86.167 -139.5313
850.000000 86.241 -138.5280
862.000000 86.325 -137.5739
875.000000 86.422 -136.5435
885.000000 86.500 -135.7741
900.000000 86.610 -134.6670
912.000000 86.705 -133.8164
925.000000 86.809 -132.9249
938.000000 86.913 -132.0981
950.000000 87.010 -131.3665
962.000000 87.106 -130.6372
975.000000 87.213 -129.8742
988.000000 87.318 -129.1472
1000.000000 87.414 -128.4938
1015.000000 87.534 -127.6711
1030.000000 87.658 -126.9207
1044.000000 87.779 -126.2681
1060.000000 87.914 -125.5410
1075.000000 88.040 -124.8633
1090.000000 88.176 -124.2376
1106.000000 88.324 -123.6322
1120.000000 88.458 -123.0918
1138.000000 88.632 -122.4948
1150.000000 88.748 -122.1407
1172.000000 88.964 -121.4953
1180.000000 89.039 -121.3015
1206.000000 89.285 -120.7134
1220.000000 89.413 -120.4285
1241.000000 89.610 -120.0464
1250.000000 89.694 -119.9240
1265.000000 89.835 -119.7955
1280.000000 89.973 -119.7161
1315.000000 90.240 -119.8209
1320.000000 90.269 -119.8714
1340.000000 90.348 -120.1320
1360.000000 90.352 -120.3510
1380.000000 90.302 -120.2406
1400.000000 90.246 -119.6263
1430.000000 90.232 -117.8100
1450.000000 90.297 -116.3244
1475.000000 90.451 -114.5217
1500.000000 90.658 -112.9671
1525.000000 90.893 -111.6670
1550.000000 91.136 -110.6015
1575.000000 91.381 -109.6671
1600.000000 91.625 -108.8632
1625.000000 91.871 -108.1290
1650.000000 92.122 -107.5215
1675.000000 92.369 -106.9957
1700.000000 92.618 -106.5425
1725.000000 92.871 -106.2052
1750.000000 93.128 -105.9483
1775.000000 93.384 -105.8458
1800.000000 93.635 -105.8176
1825.000000 93.881 -105.9490
1850.000000 94.120 -106.1566
1875.000000 94.357 -106.4064
1900.000000 94.603 -106.7550
1925.000000 94.860 -107.2113
1950.000000 95.123 -107.9013
1975.000000 95.375 -108.8968
2000.000000 95.595 -110.2417
2030.000000 95.788 -112.3151
2060.000000 95.865 -114.6485
2090.000000 95.801 -116.7462
2120.000000 95.623 -118.0421
2140.000000 95.486 -118.2737
2180.000000 95.319 -117.6297
2200.000000 95.313 -117.0649
2240.000000 95.422 -116.1757
2270.000000 95.559 -115.9417
2300.000000 95.706 -116.0430
2330.000000 95.846 -116.4543
2360.000000 95.968 -117.0232
2400.000000 96.099 -118.0109
2430.000000 96.172 -118.8549
2470.000000 96.235 -120.1344
2500.000000 96.254 -121.1511
2540.000000 96.239 -122.4916
2580.000000 96.179 -123.7998
2620.000000 96.070 -125.0126
2650.000000 95.954 -125.8338
2690.000000 95.754 -126.6719
2720.000000 95.580 -127.0145
2760.000000 95.350 -127.0473
2800.000000 95.156 -126.7662
2850.000000 94.956 -126.2686
2900.000000 94.774 -125.7372
2950.000000 94.598 -125.1781
3000.000000 94.415 -124.5070
3040.000000 94.261 -123.8244
3070.000000 94.145 -123.1471
3110.000000 94.010 -122.0176
3150.000000 93.917 -120.7644
3200.000000 93.861 -119.1121
3250.000000 93.872 -117.6547
3300.000000 93.920 -116.5698
3350.000000 93.961 -116.0941
3400.000000 93.919 -115.9733
3450.000000 93.782 -115.5103
3500.000000 93.646 -114.2891
3550.000000 93.593 -112.6344
3600.000000 93.632 -111.1963
3650.000000 93.703 -110.1094
3700.000000 93.777 -109.3690
3750.000000 93.836 -108.8502
3820.000000 93.891 -108.2170
3870.000000 93.943 -107.8786
3950.000000 94.035 -108.0518
4000.000000 94.055 -108.9467
4060.000000 93.928 -110.8225
4120.000000 93.505 -112.8554
4180.000000 92.733 -112.9656
4250.000000 91.790 -108.8871
4310.000000 91.369 -103.6032
4370.000000 91.254 -98.6987
4440.000000 91.290 -93.7285
4500.000000 91.435 -89.8879
4550.000000 91.636 -87.2348
4620.000000 91.956 -84.5411
4680.000000 92.193 -83.0334
4750.000000 92.391 -81.7347
4820.000000 92.528 -80.4719
4870.000000 92.613 -79.5802
4940.000000 92.701 -78.3200
5000.000000 92.767 -77.1395
5080.000000 92.906 -75.4996
5150.000000 93.076 -74.4617
5220.000000 93.225 -73.9949
5300.000000 93.306 -73.7849
5380.000000 93.306 -73.5952
5450.000000 93.265 -73.3512
5520.000000 93.194 -73.0231
5600.000000 93.071 -72.5689
5700.000000 92.826 -71.6687
5800.000000 92.509 -69.9994
5900.000000 92.209 -67.3496
6000.000000 92.009 -64.1222
6080.000000 91.915 -61.5129
6150.000000 91.856 -59.3475
6220.000000 91.794 -57.2343
6300.000000 91.698 -54.6746
6400.000000 91.574 -50.9812
6500.000000 91.506 -46.5487
6600.000000 91.585 -41.8039
6700.000000 91.792 -37.3054
6800.000000 92.067 -33.2880
6900.000000 92.371 -29.5068
7000.000000 92.721 -25.4623
7100.000000 93.204 -21.1213
7200.000000 93.840 -17.0076
7300.000000 94.597 -13.5016
7400.000000 95.480 -10.6033
7500.000000 96.532 -8.6867
7620.000000 97.938 -8.9269
7750.000000 99.259 -13.1857
7880.000000 99.995 -20.2515
8000.000000 100.157 -26.9960
8120.000000 99.980 -32.7967
8250.000000 99.496 -37.5169
8380.000000 98.820 -40.1275
8500.000000 98.155 -40.5381
8620.000000 97.560 -39.4461
8750.000000 97.043 -37.2176
8850.000000 96.730 -35.0157
9000.000000 96.444 -30.9874
9120.000000 96.447 -27.3962
9250.000000 96.731 -24.1828
9380.000000 97.181 -22.6544
9500.000000 97.596 -23.0477
9620.000000 97.899 -24.9137
9750.000000 98.027 -27.8963
9880.000000 97.956 -31.1433
10000.000000 97.741 -33.9591
10150.000000 97.313 -37.0055
10300.000000 96.749 -39.3781
10440.000000 96.124 -40.8612
10600.000000 95.350 -41.6011
10750.000000 94.632 -41.3269
10900.000000 94.010 -40.4881
11060.000000 93.494 -39.9143
11200.000000 93.093 -40.4294
11380.000000 92.468 -42.8294
11500.000000 91.869 -45.2066
11720.000000 90.221 -49.5997
11800.000000 89.420 -50.6168
12060.000000 86.078 -48.0530
12200.000000 83.999 -41.3277
12410.000000 81.164 -24.5322
12500.000000 80.260 -15.8974
12650.000000 79.293 -1.2415
12800.000000 78.869 12.6035
13150.000000 78.926 40.3216
13200.000000 78.995 43.8859
13400.000000 79.404 57.5292
13600.000000 80.056 70.3198
13800.000000 81.001 81.9153
14000.000000 82.206 91.6067
14300.000000 84.247 101.2975
14500.000000 85.534 103.8883
14750.000000 86.683 102.9812
15000.000000 87.066 100.2028
15250.000000 86.803 99.5884
15500.000000 86.381 102.8997
15750.000000 86.239 109.1924
16000.000000 86.576 116.5338
16250.000000 87.408 122.8005
16500.000000 88.561 125.6709
16750.000000 89.583 123.2693
17000.000000 89.936 116.4600
17250.000000 89.417 109.5251
17500.000000 88.287 106.0454
17750.000000 86.940 106.3885
18000.000000 85.617 109.4610
18250.000000 84.430 114.3408
18500.000000 83.478 120.5416
18750.000000 82.905 127.7648
19000.000000 82.720 135.7479
19250.000000 82.692 144.2109
19500.000000 82.599 152.8224
19750.000000 82.430 161.3291
20000.000000 82.232 169.4822
20300.000000 82.064 178.5194
20600.000000 82.013 -173.0608
20900.000000 82.010 -164.8827
21200.000000 82.074 -156.5457
21400.000000 82.168 -151.1624
21800.000000 81.940 -150.6921
22000.000000 80.993 171.9081
22400.000000 76.413 92.9470
22700.000000 70.922 54.4585
23000.000000 64.118 -75.5645
23300.000000 56.862 -88.7266
23600.000000 52.498 104.1250
24000.000000 51.836 -70.2734
