* Measurement data measured by REW V5.20.13
* Source: Headset (DS by VECLAN.COM), MICROPHONE (Master Volume), L, volume: 0.720. Timing signal peak level -18.7 dBFS, measurement signal peak level -16.0 dBFS
* Format: 2M Log Swept Sine, 1 sweep at -12.0 dBFS using an acoustic timing reference
* Dated: Feb 6, 2024 3:37:52 PM
* REW Settings:
*  C-weighting compensation: Off
*  Target level: 75.0 dB
* Note: ; Delay -0.0140 ms (-4.8 mm, -0.19 in) using estimated IR delay relative to Acoustic reference played from HEADPHONE R with no timing offset
* Measurement: Cadenza 12 Velvet R
* Smoothing: 1/24 octave
* Frequency Step: 1/48 octave
* Start Frequency: 1.000 Hz
*
* Freq(Hz) SPL(dB) Phase(degrees)
1.000000 85.560 -97.9905
1.015000 86.185 -99.0950
1.030000 86.783 -100.1507
1.044000 87.311 -101.0876
1.060000 87.873 -102.0954
1.075000 88.355 -102.9741
1.090000 88.786 -103.7835
1.106000 89.191 -104.5657
1.120000 89.519 -105.1844
1.138000 89.914 -105.8967
1.150000 90.161 -106.3230
1.172000 90.583 -107.0122
1.180000 90.727 -107.2354
1.206000 91.162 -107.8706
1.220000 91.377 -108.1613
1.241000 91.677 -108.5400
1.250000 91.798 -108.6838
1.265000 91.990 -108.9023
1.280000 92.172 -109.0982
1.315000 92.559 -109.4924
1.320000 92.610 -109.5439
1.340000 92.810 -109.7447
1.360000 93.000 -109.9447
1.380000 93.183 -110.1545
1.400000 93.361 -110.3845
1.430000 93.625 -110.7905
1.450000 93.803 -111.1172
1.475000 94.029 -111.5994
1.500000 94.235 -112.1086
1.525000 94.419 -112.6274
1.550000 94.582 -113.1536
1.575000 94.728 -113.6845
1.600000 94.857 -114.2177
1.625000 94.973 -114.7507
1.650000 95.078 -115.2811
1.675000 95.175 -115.8063
1.700000 95.265 -116.3239
1.725000 95.351 -116.8314
1.750000 95.435 -117.3263
1.775000 95.521 -117.8062
1.800000 95.609 -118.2685
1.825000 95.702 -118.7108
1.850000 95.799 -119.1306
1.875000 95.891 -119.5280
1.900000 95.979 -119.9058
1.925000 96.062 -120.2666
1.950000 96.141 -120.6134
1.975000 96.216 -120.9488
2.000000 96.290 -121.2757
2.030000 96.375 -121.6605
2.060000 96.458 -122.0417
2.090000 96.540 -122.4243
2.120000 96.621 -122.8129
2.140000 96.676 -123.0777
2.180000 96.788 -123.6274
2.200000 96.846 -123.9151
2.240000 96.963 -124.5039
2.270000 97.051 -124.9521
2.300000 97.139 -125.4050
2.330000 97.226 -125.8620
2.360000 97.313 -126.3225
2.400000 97.427 -126.9406
2.430000 97.511 -127.4065
2.470000 97.619 -128.0294
2.500000 97.698 -128.4971
2.540000 97.799 -129.1199
2.580000 97.895 -129.7414
2.620000 97.986 -130.3692
2.650000 98.051 -130.8441
2.690000 98.136 -131.4805
2.720000 98.196 -131.9589
2.760000 98.275 -132.5960
2.800000 98.350 -133.2300
2.850000 98.440 -134.0143
2.900000 98.527 -134.7846
2.950000 98.611 -135.5363
3.000000 98.690 -136.2703
3.040000 98.751 -136.8474
3.070000 98.795 -137.2757
3.110000 98.851 -137.8423
3.150000 98.905 -138.4057
3.200000 98.968 -139.1083
3.250000 99.029 -139.8128
3.300000 99.085 -140.5231
3.350000 99.138 -141.2452
3.400000 99.187 -141.9765
3.450000 99.232 -142.7102
3.500000 99.273 -143.4393
3.550000 99.311 -144.1569
3.600000 99.346 -144.8560
3.650000 99.378 -145.5297
3.700000 99.407 -146.1745
3.750000 99.432 -146.7969
3.820000 99.462 -147.6369
3.870000 99.480 -148.2184
3.950000 99.504 -149.1252
4.000000 99.516 -149.6818
4.060000 99.530 -150.3442
4.120000 99.540 -151.0003
4.180000 99.548 -151.6449
4.250000 99.553 -152.3754
4.310000 99.556 -152.9771
4.370000 99.557 -153.5505
4.440000 99.558 -154.1778
4.500000 99.555 -154.6817
4.550000 99.552 -155.0815
4.620000 99.547 -155.6157
4.680000 99.542 -156.0550
4.750000 99.537 -156.5524
4.820000 99.534 -157.0332
4.870000 99.532 -157.3617
4.940000 99.528 -157.8033
5.000000 99.526 -158.1674
5.080000 99.525 -158.6365
5.150000 99.526 -159.0344
5.220000 99.529 -159.4113
5.300000 99.534 -159.8206
5.380000 99.541 -160.2189
5.450000 99.549 -160.5677
5.520000 99.558 -160.9237
5.600000 99.571 -161.3271
5.700000 99.591 -161.8298
5.800000 99.612 -162.3441
5.900000 99.633 -162.8827
6.000000 99.655 -163.4413
6.080000 99.674 -163.9003
6.150000 99.689 -164.3104
6.220000 99.701 -164.7283
6.300000 99.714 -165.2182
6.400000 99.728 -165.8492
6.500000 99.739 -166.4904
6.600000 99.744 -167.1309
6.700000 99.743 -167.7789
6.800000 99.738 -168.4319
6.900000 99.727 -169.0715
7.000000 99.711 -169.6824
7.100000 99.689 -170.2772
7.200000 99.662 -170.8492
7.300000 99.632 -171.3854
7.400000 99.599 -171.8797
7.500000 99.562 -172.3394
7.620000 99.516 -172.8397
7.750000 99.466 -173.3089
7.880000 99.416 -173.7007
8.000000 99.371 -174.0067
8.120000 99.332 -174.2682
8.250000 99.294 -174.4910
8.380000 99.262 -174.6752
8.500000 99.239 -174.8275
8.620000 99.222 -174.9519
8.750000 99.210 -175.0765
8.850000 99.204 -175.1771
9.000000 99.203 -175.3234
9.120000 99.206 -175.4471
9.250000 99.214 -175.5965
9.380000 99.227 -175.7571
9.500000 99.240 -175.9198
9.620000 99.252 -176.0987
9.750000 99.266 -176.3089
9.880000 99.275 -176.5383
10.000000 99.277 -176.7685
10.150000 99.273 -177.0795
10.300000 99.263 -177.4132
10.440000 99.246 -177.7439
10.600000 99.223 -178.1486
10.750000 99.200 -178.5570
10.900000 99.175 -178.9917
11.060000 99.144 -179.4829
11.200000 99.114 -179.9403
11.380000 99.068 179.4680
11.500000 99.032 179.0734
11.720000 98.957 178.3707
11.800000 98.927 178.1310
12.060000 98.824 177.4030
12.200000 98.768 177.0555
12.410000 98.682 176.5906
12.500000 98.646 176.4126
12.650000 98.586 176.1469
12.800000 98.528 175.9075
13.150000 98.401 175.4268
13.200000 98.384 175.3628
13.400000 98.319 175.1169
13.600000 98.258 174.8831
13.800000 98.200 174.6583
14.000000 98.143 174.4478
14.300000 98.060 174.1632
14.500000 98.005 174.0050
14.750000 97.940 173.8425
15.000000 97.881 173.7176
15.250000 97.831 173.6183
15.500000 97.788 173.5488
15.750000 97.751 173.5115
16.000000 97.721 173.5146
16.250000 97.702 173.5446
16.500000 97.696 173.5814
16.750000 97.709 173.5915
17.000000 97.736 173.5093
17.250000 97.773 173.3046
17.500000 97.810 172.9394
17.750000 97.833 172.4325
18.000000 97.834 171.8350
18.250000 97.807 171.2050
18.500000 97.753 170.6625
18.750000 97.684 170.2578
19.000000 97.607 170.0369
19.250000 97.542 169.9850
19.500000 97.498 170.0258
19.750000 97.478 170.0959
20.000000 97.480 170.0755
20.299999 97.493 169.8753
20.600000 97.498 169.4804
20.900000 97.480 168.9633
21.200001 97.431 168.4590
21.400000 97.387 168.2007
21.799999 97.292 167.9070
22.000000 97.252 167.8588
22.400000 97.203 167.8469
22.700001 97.192 167.7881
23.000000 97.193 167.6043
23.299999 97.190 167.3024
23.600000 97.176 166.9348
24.000000 97.137 166.4489
24.299999 97.099 166.1531
24.700001 97.046 165.8723
25.000000 97.011 165.7279
25.400000 96.972 165.5900
25.799999 96.941 165.4946
26.200001 96.920 165.4278
26.500000 96.912 165.3750
26.900000 96.909 165.2618
27.200001 96.906 165.1265
27.600000 96.895 164.8927
28.000000 96.869 164.6644
28.500000 96.825 164.4843
29.000000 96.790 164.3965
29.500000 96.767 164.2627
30.000000 96.738 164.0262
30.400000 96.702 163.8365
30.700001 96.673 163.7371
31.100000 96.642 163.6486
31.500000 96.627 163.5249
32.000000 96.618 163.1761
32.500000 96.585 162.6296
33.000000 96.514 162.1318
33.500000 96.429 161.8887
34.000000 96.372 161.8463
34.500000 96.351 161.7684
35.000000 96.341 161.5276
35.500000 96.314 161.2116
36.000000 96.274 160.9758
36.500000 96.238 160.8546
37.000000 96.217 160.7573
37.500000 96.204 160.5975
38.200001 96.176 160.2662
38.700001 96.144 160.0065
39.500000 96.074 159.6349
40.000000 96.022 159.4740
40.599998 95.965 159.3732
41.200001 95.924 159.2965
41.799999 95.895 159.1340
42.500000 95.855 158.8339
43.099998 95.810 158.5955
43.700001 95.767 158.4153
44.400002 95.724 158.2161
45.000000 95.686 158.0426
45.500000 95.654 157.9272
46.200001 95.618 157.7900
46.799999 95.593 157.6213
47.500000 95.553 157.3707
48.200001 95.502 157.1777
48.700001 95.468 157.0851
49.400002 95.428 156.9387
50.000000 95.392 156.7752
50.799999 95.338 156.5753
51.500000 95.294 156.4242
52.200001 95.251 156.2562
53.000000 95.201 156.0755
53.799999 95.155 155.9145
54.500000 95.117 155.7460
55.200001 95.077 155.5766
56.000000 95.035 155.3920
57.000000 94.977 155.0731
58.000000 94.887 154.9170
59.000000 94.830 155.0479
60.000000 94.810 154.9862
60.799999 94.778 154.8421
61.500000 94.748 154.7461
62.200001 94.717 154.6133
63.000000 94.667 154.4459
64.000000 94.599 154.4062
65.000000 94.561 154.3581
66.000000 94.521 154.1367
67.000000 94.467 153.9026
68.000000 94.402 153.7076
69.000000 94.336 153.6429
70.000000 94.287 153.6370
71.000000 94.246 153.5530
72.000000 94.197 153.4437
73.000000 94.145 153.3748
74.000000 94.099 153.3032
75.000000 94.049 153.1891
76.199997 93.984 153.1576
77.500000 93.939 153.0839
78.800003 93.876 152.8931
80.000000 93.806 152.8525
81.199997 93.757 152.9137
82.500000 93.730 152.8142
83.800003 93.681 152.5684
85.000000 93.621 152.4642
86.199997 93.570 152.4646
87.500000 93.522 152.4713
88.500000 93.482 152.4680
90.000000 93.410 152.4574
91.199997 93.354 152.4592
92.500000 93.295 152.3591
93.800003 93.234 152.2742
95.000000 93.191 152.1992
96.199997 93.154 152.1263
97.500000 93.120 152.0450
98.800003 93.075 151.9589
100.000000 93.020 151.9561
101.500000 92.947 152.0448
103.000000 92.878 152.1697
104.400002 92.825 152.2355
106.000000 92.769 152.2907
107.500000 92.731 152.3082
109.000000 92.687 152.2642
110.599998 92.629 152.2359
112.000000 92.572 152.2188
113.800003 92.499 152.2462
115.000000 92.469 152.2435
117.199997 92.419 151.9348
118.000000 92.388 151.7991
120.599998 92.263 151.6996
122.000000 92.200 151.8649
124.099998 92.148 152.3625
125.000000 92.146 152.5066
126.500000 92.130 152.5876
128.000000 92.095 152.6489
131.500000 91.994 152.6375
132.000000 91.980 152.6333
134.000000 91.935 152.6379
136.000000 91.899 152.6985
138.000000 91.857 152.8390
140.000000 91.805 152.9658
143.000000 91.731 153.0210
145.000000 91.704 153.0300
147.500000 91.675 153.0836
150.000000 91.622 153.2223
152.500000 91.559 153.3840
155.000000 91.506 153.4850
157.500000 91.462 153.5897
160.000000 91.418 153.6763
162.500000 91.363 153.7308
165.000000 91.311 153.7958
167.500000 91.267 153.8750
170.000000 91.228 153.9890
172.500000 91.187 154.1428
175.000000 91.144 154.2999
177.500000 91.097 154.4205
180.000000 91.049 154.4990
182.500000 91.000 154.5919
185.000000 90.952 154.7316
187.500000 90.905 154.8768
190.000000 90.868 155.0377
192.500000 90.843 155.1622
195.000000 90.805 155.2149
197.500000 90.752 155.3146
200.000000 90.715 155.4528
203.000000 90.691 155.5934
206.000000 90.657 155.6871
209.000000 90.613 155.7957
212.000000 90.581 155.9055
214.000000 90.564 156.0227
218.000000 90.532 156.3052
220.000000 90.508 156.4155
224.000000 90.452 156.5653
227.000000 90.412 156.6821
230.000000 90.376 156.8350
233.000000 90.339 156.8977
236.000000 90.303 156.8804
240.000000 90.261 157.0032
243.000000 90.233 157.2491
247.000000 90.195 157.5502
250.000000 90.163 157.7045
254.000000 90.120 157.8717
258.000000 90.086 158.0638
262.000000 90.061 158.2190
265.000000 90.047 158.2903
269.000000 90.022 158.4161
272.000000 89.999 158.5480
276.000000 89.972 158.7075
280.000000 89.949 158.8365
285.000000 89.917 158.9905
290.000000 89.886 159.1634
295.000000 89.861 159.4117
300.000000 89.837 159.6895
304.000000 89.823 159.8669
307.000000 89.813 159.9479
311.000000 89.803 160.0059
315.000000 89.796 160.0597
320.000000 89.779 160.1259
325.000000 89.757 160.2264
330.000000 89.737 160.3759
335.000000 89.714 160.5057
340.000000 89.691 160.6315
345.000000 89.669 160.7482
350.000000 89.643 160.8638
355.000000 89.614 160.9847
360.000000 89.585 161.1227
365.000000 89.557 161.2574
370.000000 89.534 161.3599
375.000000 89.513 161.4500
382.000000 89.481 161.5904
387.000000 89.458 161.7009
395.000000 89.422 161.8673
400.000000 89.396 161.9639
406.000000 89.367 162.0862
412.000000 89.339 162.2543
418.000000 89.310 162.4561
425.000000 89.277 162.6416
431.000000 89.252 162.7800
437.000000 89.228 162.9132
444.000000 89.200 163.0740
450.000000 89.178 163.2152
455.000000 89.159 163.3252
462.000000 89.129 163.4879
468.000000 89.101 163.6402
475.000000 89.069 163.8250
482.000000 89.042 164.0140
487.000000 89.026 164.1418
494.000000 89.008 164.3036
500.000000 88.995 164.4418
508.000000 88.972 164.6263
515.000000 88.949 164.7972
522.000000 88.928 164.9711
530.000000 88.904 165.1298
538.000000 88.883 165.2620
545.000000 88.864 165.3795
552.000000 88.845 165.5071
560.000000 88.820 165.6403
570.000000 88.781 165.8140
580.000000 88.737 166.0079
590.000000 88.687 166.2122
600.000000 88.636 166.4309
608.000000 88.593 166.6175
615.000000 88.552 166.8011
622.000000 88.507 167.0016
630.000000 88.450 167.2762
640.000000 88.366 167.7261
650.000000 88.284 168.2701
660.000000 88.211 168.9135
670.000000 88.141 169.6597
680.000000 88.082 170.4745
690.000000 88.043 171.3852
700.000000 88.024 172.3809
710.000000 88.033 173.4070
720.000000 88.064 174.4138
730.000000 88.111 175.3693
740.000000 88.175 176.2665
750.000000 88.254 177.0620
762.000000 88.361 177.8325
775.000000 88.482 178.4943
788.000000 88.597 179.0520
800.000000 88.696 179.4951
812.000000 88.789 179.8586
825.000000 88.887 -179.8426
838.000000 88.983 -179.6024
850.000000 89.067 -179.4022
862.000000 89.146 -179.2048
875.000000 89.228 -179.0071
885.000000 89.289 -178.8742
900.000000 89.381 -178.6983
912.000000 89.449 -178.5705
925.000000 89.519 -178.4332
938.000000 89.588 -178.2924
950.000000 89.653 -178.1801
962.000000 89.723 -178.0964
975.000000 89.799 -178.0339
988.000000 89.874 -177.9864
1000.000000 89.940 -177.9482
1015.000000 90.020 -177.9194
1030.000000 90.097 -177.9283
1044.000000 90.168 -177.9680
1060.000000 90.249 -178.0335
1075.000000 90.325 -178.1140
1090.000000 90.408 -178.2317
1106.000000 90.507 -178.3840
1120.000000 90.595 -178.5427
1138.000000 90.699 -178.7674
1150.000000 90.761 -178.9142
1172.000000 90.859 -179.1768
1180.000000 90.893 -179.2770
1206.000000 91.011 -179.6555
1220.000000 91.079 -179.8730
1241.000000 91.179 179.8084
1250.000000 91.218 179.6791
1265.000000 91.281 179.4728
1280.000000 91.341 179.2603
1315.000000 91.474 178.7755
1320.000000 91.490 178.7102
1340.000000 91.545 178.4623
1360.000000 91.575 178.2546
1380.000000 91.605 178.0619
1400.000000 91.655 177.8710
1430.000000 91.743 177.6218
1450.000000 91.799 177.4879
1475.000000 91.866 177.3471
1500.000000 91.927 177.2433
1525.000000 91.985 177.1712
1550.000000 92.048 177.1182
1575.000000 92.120 177.0680
1600.000000 92.195 177.0458
1625.000000 92.270 177.0466
1650.000000 92.345 177.0618
1675.000000 92.421 177.0939
1700.000000 92.502 177.1239
1725.000000 92.586 177.1635
1750.000000 92.677 177.2054
1775.000000 92.776 177.2278
1800.000000 92.881 177.2422
1825.000000 92.986 177.2664
1850.000000 93.096 177.2767
1875.000000 93.213 177.2575
1900.000000 93.334 177.2312
1925.000000 93.458 177.1861
1950.000000 93.589 177.1026
1975.000000 93.723 176.9945
2000.000000 93.862 176.8665
2030.000000 94.038 176.6542
2060.000000 94.224 176.3793
2090.000000 94.413 176.0531
2120.000000 94.602 175.6569
2140.000000 94.729 175.3589
2180.000000 94.986 174.6608
2200.000000 95.117 174.2485
2240.000000 95.382 173.3037
2270.000000 95.581 172.4819
2300.000000 95.777 171.5656
2330.000000 95.965 170.5529
2360.000000 96.146 169.4362
2400.000000 96.370 167.7988
2430.000000 96.523 166.4720
2470.000000 96.704 164.5769
2500.000000 96.820 163.0938
2540.000000 96.945 161.0699
2580.000000 97.039 159.0246
2620.000000 97.100 157.0125
2650.000000 97.124 155.5490
2690.000000 97.133 153.6760
2720.000000 97.125 152.3365
2760.000000 97.099 150.6528
2800.000000 97.058 149.0803
2850.000000 96.990 147.2626
2900.000000 96.909 145.5949
2950.000000 96.821 144.0559
3000.000000 96.734 142.6212
3040.000000 96.663 141.5366
3070.000000 96.607 140.7651
3110.000000 96.525 139.7964
3150.000000 96.436 138.8871
3200.000000 96.320 137.8430
3250.000000 96.205 136.8943
3300.000000 96.102 135.9983
3350.000000 96.004 135.1393
3400.000000 95.907 134.2920
3450.000000 95.812 133.4279
3500.000000 95.711 132.5485
3550.000000 95.597 131.6705
3600.000000 95.464 130.8265
3650.000000 95.314 130.0656
3700.000000 95.148 129.4355
3750.000000 94.974 128.9711
3820.000000 94.730 128.6252
3870.000000 94.555 128.6021
3950.000000 94.288 128.9109
4000.000000 94.141 129.2781
4060.000000 93.988 129.8533
4120.000000 93.862 130.5284
4180.000000 93.762 131.2665
4250.000000 93.678 132.1616
4310.000000 93.627 132.9424
4370.000000 93.592 133.7161
4440.000000 93.573 134.5939
4500.000000 93.570 135.3264
4550.000000 93.573 135.9370
4620.000000 93.590 136.8017
4680.000000 93.629 137.5455
4750.000000 93.718 138.3951
4820.000000 93.860 139.1803
4870.000000 93.996 139.6343
4940.000000 94.236 139.9611
5000.000000 94.477 139.7878
5080.000000 94.802 138.7053
5150.000000 95.037 136.9526
5220.000000 95.188 134.6209
5300.000000 95.235 131.5775
5380.000000 95.155 128.4270
5450.000000 94.994 125.7234
5520.000000 94.751 123.1489
5600.000000 94.366 120.4605
5700.000000 93.718 117.7514
5800.000000 92.895 116.3304
5900.000000 91.978 116.8070
6000.000000 91.115 119.2614
6080.000000 90.552 122.2348
6150.000000 90.175 125.1904
6220.000000 89.900 128.2386
6300.000000 89.691 131.6705
6400.000000 89.552 135.7472
6500.000000 89.504 139.5518
6600.000000 89.510 143.1188
6700.000000 89.559 146.4894
6800.000000 89.666 149.6779
6900.000000 89.853 152.6844
7000.000000 90.118 155.4902
7100.000000 90.446 158.0501
7200.000000 90.836 160.2851
7300.000000 91.279 162.0895
7400.000000 91.759 163.3595
7500.000000 92.270 163.9730
7620.000000 92.919 163.6601
7750.000000 93.605 161.8065
7880.000000 94.100 158.2886
8000.000000 94.303 153.8374
8120.000000 94.216 148.8843
8250.000000 93.791 143.9426
8380.000000 93.089 140.3385
8500.000000 92.291 138.5993
8620.000000 91.433 138.3892
8750.000000 90.512 139.6535
8850.000000 89.849 141.4707
9000.000000 88.970 145.2353
9120.000000 88.375 148.9032
9250.000000 87.845 153.3051
9380.000000 87.434 157.9838
9500.000000 87.153 162.4381
9620.000000 86.963 166.9287
9750.000000 86.863 171.7260
9880.000000 86.869 176.3305
10000.000000 86.960 -179.7030
10150.000000 87.175 -175.2937
10300.000000 87.478 -171.6960
10440.000000 87.803 -169.2523
10600.000000 88.167 -167.7185
10750.000000 88.426 -167.5468
10900.000000 88.527 -168.4369
11060.000000 88.389 -170.0386
11200.000000 88.025 -171.2578
11380.000000 87.261 -171.3070
11500.000000 86.646 -169.9456
11720.000000 85.529 -164.6520
11800.000000 85.170 -161.9904
12060.000000 84.312 -151.5663
12200.000000 84.076 -145.3490
12410.000000 84.011 -135.9982
12500.000000 84.082 -132.1436
12650.000000 84.314 -126.1011
12800.000000 84.666 -120.6820
13150.000000 85.787 -110.9803
13200.000000 85.967 -109.9468
13400.000000 86.716 -106.7276
13600.000000 87.475 -105.0755
13800.000000 88.182 -105.0915
14000.000000 88.751 -106.6425
14300.000000 89.199 -110.6397
14500.000000 89.240 -113.4053
14750.000000 89.121 -116.4588
15000.000000 88.896 -119.9743
15250.000000 88.302 -124.3087
15500.000000 87.145 -125.2824
15750.000000 86.170 -120.4646
16000.000000 86.109 -114.8007
16250.000000 86.510 -113.3148
16500.000000 86.592 -113.7669
16750.000000 87.270 -112.6678
17000.000000 88.567 -120.4722
17250.000000 88.618 -139.1216
17500.000000 87.379 -158.9425
17750.000000 85.396 179.3093
18000.000000 81.942 162.8176
18250.000000 76.690 166.6425
18500.000000 70.307 -164.3519
18750.000000 65.658 -123.8520
19000.000000 66.146 -95.0098
19250.000000 67.544 -81.8492
19500.000000 68.048 -75.7236
19750.000000 67.798 -70.7377
20000.000000 67.090 -65.4189
20300.000000 65.918 -59.2155
20600.000000 64.465 -53.6634
20900.000000 62.551 -48.5478
21200.000000 60.065 -52.3985
21400.000000 58.107 -97.0998
21800.000000 53.561 167.4556
22000.000000 50.777 121.5981
22400.000000 43.385 26.9424
22700.000000 37.075 21.4902
23000.000000 33.024 -114.6875
23300.000000 31.876 -54.9023
23600.000000 31.532 176.0547
24000.000000 30.922 126.4922
