* Measurement data measured by REW V5.20.13
* Source: Headset (DS by VECLAN.COM), MICROPHONE (Master Volume), L, volume: 1.000
* Format: 2M Log Swept Sine, 1 sweep at -12.0 dBFS with no timing reference
* Dated: May 11, 2023 5:12:47 PM
* REW Settings:
*  C-weighting compensation: Off
*  Target level: 75.0 dB
* Note: ; 
* Measurement: S12 L
* Smoothing: 1/24 octave
* Frequency Step: 1/48 octave
* Start Frequency: 1.000 Hz
*
* Freq(Hz) SPL(dB) Phase(degrees)
1.000000 79.629 -67.4606
1.015000 79.902 -67.5385
1.030000 80.167 -67.6119
1.044000 80.405 -67.6762
1.060000 80.664 -67.7443
1.075000 80.894 -67.8029
1.090000 81.110 -67.8562
1.106000 81.324 -67.9065
1.120000 81.503 -67.9425
1.138000 81.723 -67.9780
1.150000 81.864 -67.9954
1.172000 82.109 -68.0157
1.180000 82.195 -68.0196
1.206000 82.460 -68.0214
1.220000 82.595 -68.0164
1.241000 82.787 -68.0023
1.250000 82.866 -67.9942
1.265000 82.994 -67.9787
1.280000 83.117 -67.9611
1.315000 83.385 -67.9157
1.320000 83.422 -67.9091
1.340000 83.563 -67.8833
1.360000 83.698 -67.8597
1.380000 83.828 -67.8400
1.400000 83.953 -67.8256
1.430000 84.133 -67.8175
1.450000 84.249 -67.8235
1.475000 84.390 -67.8463
1.500000 84.515 -67.8853
1.525000 84.624 -67.9377
1.550000 84.717 -68.0007
1.575000 84.799 -68.0715
1.600000 84.869 -68.1475
1.625000 84.932 -68.2259
1.650000 84.987 -68.3040
1.675000 85.038 -68.3789
1.700000 85.087 -68.4480
1.725000 85.135 -68.5084
1.750000 85.185 -68.5576
1.775000 85.238 -68.5926
1.800000 85.296 -68.6108
1.825000 85.363 -68.6095
1.850000 85.435 -68.5851
1.875000 85.506 -68.5368
1.900000 85.576 -68.4680
1.925000 85.645 -68.3821
1.950000 85.713 -68.2826
1.975000 85.782 -68.1732
2.000000 85.852 -68.0572
2.030000 85.937 -67.9143
2.060000 86.024 -67.7733
2.090000 86.114 -67.6401
2.120000 86.209 -67.5208
2.140000 86.275 -67.4520
2.180000 86.413 -67.3483
2.200000 86.487 -67.3169
2.240000 86.642 -67.2752
2.270000 86.766 -67.2556
2.300000 86.893 -67.2464
2.330000 87.025 -67.2479
2.360000 87.161 -67.2604
2.400000 87.345 -67.2948
2.430000 87.486 -67.3344
2.470000 87.674 -67.4062
2.500000 87.816 -67.4746
2.540000 88.004 -67.5861
2.580000 88.190 -67.7206
2.620000 88.379 -67.8729
2.650000 88.521 -67.9991
2.690000 88.714 -68.1849
2.720000 88.859 -68.3387
2.760000 89.053 -68.5645
2.800000 89.247 -68.8161
2.850000 89.488 -69.1701
2.900000 89.728 -69.5716
2.950000 89.964 -70.0247
3.000000 90.201 -70.5287
3.040000 90.391 -70.9664
3.070000 90.533 -71.3137
3.110000 90.721 -71.8005
3.150000 90.908 -72.3132
3.200000 91.137 -72.9877
3.250000 91.362 -73.6964
3.300000 91.580 -74.4361
3.350000 91.794 -75.2193
3.400000 92.003 -76.0504
3.450000 92.209 -76.9206
3.500000 92.409 -77.8212
3.550000 92.604 -78.7436
3.600000 92.794 -79.6789
3.650000 92.976 -80.6185
3.700000 93.152 -81.5626
3.750000 93.322 -82.5265
3.820000 93.550 -83.9038
3.870000 93.706 -84.9028
3.950000 93.943 -86.5181
4.000000 94.083 -87.5327
4.060000 94.243 -88.7551
4.120000 94.393 -90.0027
4.180000 94.535 -91.2662
4.250000 94.690 -92.7422
4.310000 94.813 -93.9931
4.370000 94.930 -95.2165
4.440000 95.056 -96.6019
4.500000 95.154 -97.7731
4.550000 95.230 -98.7358
4.620000 95.328 -100.0577
4.680000 95.405 -101.1616
4.750000 95.490 -102.4087
4.820000 95.567 -103.6144
4.870000 95.616 -104.4564
4.940000 95.678 -105.6022
5.000000 95.726 -106.5484
5.080000 95.787 -107.7494
5.150000 95.839 -108.7352
5.220000 95.886 -109.6592
5.300000 95.934 -110.6476
5.380000 95.980 -111.5731
5.450000 96.021 -112.3387
5.520000 96.066 -113.0674
5.600000 96.117 -113.8359
5.700000 96.182 -114.7169
5.800000 96.252 -115.5450
5.900000 96.330 -116.3505
6.000000 96.416 -117.1017
6.080000 96.489 -117.6783
6.150000 96.555 -118.1823
6.220000 96.624 -118.7003
6.300000 96.705 -119.3058
6.400000 96.813 -120.0650
6.500000 96.923 -120.8437
6.600000 97.029 -121.6602
6.700000 97.135 -122.5222
6.800000 97.240 -123.4183
6.900000 97.340 -124.3355
7.000000 97.431 -125.2652
7.100000 97.515 -126.2244
7.200000 97.591 -127.1948
7.300000 97.660 -128.1496
7.400000 97.718 -129.0804
7.500000 97.767 -130.0050
7.620000 97.816 -131.0725
7.750000 97.860 -132.1364
7.880000 97.891 -133.1188
8.000000 97.914 -133.9466
8.120000 97.937 -134.6841
8.250000 97.959 -135.3797
8.380000 97.983 -135.9950
8.500000 98.013 -136.5042
8.620000 98.047 -136.9427
8.750000 98.091 -137.3847
8.850000 98.131 -137.7253
9.000000 98.200 -138.2093
9.120000 98.260 -138.6060
9.250000 98.328 -139.0725
9.380000 98.402 -139.5633
9.500000 98.467 -140.0409
9.620000 98.525 -140.5501
9.750000 98.585 -141.1332
9.880000 98.632 -141.7222
10.000000 98.662 -142.2691
10.150000 98.684 -142.9558
10.300000 98.692 -143.5939
10.440000 98.685 -144.1456
10.600000 98.670 -144.7207
10.750000 98.657 -145.1903
10.900000 98.643 -145.6046
11.060000 98.635 -146.0151
11.200000 98.634 -146.3404
11.380000 98.639 -146.7556
11.500000 98.647 -147.0345
11.720000 98.669 -147.5730
11.800000 98.678 -147.7887
12.060000 98.715 -148.5514
12.200000 98.732 -149.0127
12.410000 98.755 -149.7590
12.500000 98.760 -150.0862
12.650000 98.765 -150.6491
12.800000 98.763 -151.2128
13.150000 98.735 -152.4829
13.200000 98.729 -152.6559
13.400000 98.702 -153.3248
13.600000 98.672 -153.9563
13.800000 98.639 -154.5480
14.000000 98.605 -155.1112
14.300000 98.549 -155.9041
14.500000 98.509 -156.3966
14.750000 98.456 -156.9516
15.000000 98.404 -157.4290
15.250000 98.358 -157.8098
15.500000 98.326 -158.1003
15.750000 98.312 -158.3182
16.000000 98.322 -158.5100
16.250000 98.356 -158.7631
16.500000 98.411 -159.1284
16.750000 98.480 -159.6736
17.000000 98.547 -160.4180
17.250000 98.602 -161.3393
17.500000 98.633 -162.4030
17.750000 98.629 -163.4949
18.000000 98.594 -164.5327
18.250000 98.528 -165.4256
18.500000 98.446 -166.0722
18.750000 98.365 -166.4646
19.000000 98.298 -166.5979
19.250000 98.265 -166.5618
19.500000 98.271 -166.4665
19.750000 98.315 -166.4018
20.000000 98.387 -166.4992
20.299999 98.487 -166.8754
20.600000 98.580 -167.5298
20.900000 98.645 -168.3840
21.200001 98.673 -169.3032
21.400000 98.673 -169.8763
21.799999 98.642 -170.8454
22.000000 98.619 -171.2199
22.400000 98.581 -171.7742
22.700001 98.565 -172.0925
23.000000 98.561 -172.4024
23.299999 98.564 -172.7419
23.600000 98.566 -173.1143
24.000000 98.565 -173.6346
24.299999 98.560 -174.0104
24.700001 98.554 -174.4722
25.000000 98.552 -174.8024
25.400000 98.556 -175.2646
25.799999 98.561 -175.7985
26.200001 98.555 -176.4058
26.500000 98.538 -176.8719
26.900000 98.497 -177.4338
27.200001 98.458 -177.7607
27.600000 98.406 -178.0388
28.000000 98.369 -178.1671
28.500000 98.357 -178.2576
29.000000 98.376 -178.4626
29.500000 98.403 -178.8838
30.000000 98.408 -179.4782
30.400000 98.387 -179.9742
30.700001 98.358 179.7051
31.100000 98.311 179.4076
31.500000 98.271 179.2636
32.000000 98.255 179.1811
32.500000 98.279 178.9698
33.000000 98.312 178.4612
33.500000 98.319 177.7247
34.000000 98.291 176.9868
34.500000 98.250 176.3954
35.000000 98.220 175.9025
35.500000 98.201 175.3730
36.000000 98.175 174.7755
36.500000 98.130 174.2144
37.000000 98.078 173.8015
37.500000 98.037 173.5247
38.200001 98.008 173.1532
38.700001 97.988 172.8122
39.500000 97.931 172.3215
40.000000 97.895 172.1658
40.599998 97.878 172.0435
41.200001 97.883 171.7591
41.799999 97.875 171.2632
42.500000 97.826 170.6935
43.099998 97.780 170.3925
43.700001 97.759 170.1282
44.400002 97.746 169.6491
45.000000 97.717 169.1345
45.500000 97.676 168.7482
46.200001 97.604 168.3789
46.799999 97.546 168.2683
47.500000 97.511 168.3287
48.200001 97.526 168.3184
48.700001 97.551 168.1068
49.400002 97.564 167.5272
50.000000 97.538 166.9276
50.799999 97.459 166.2321
51.500000 97.378 165.8316
52.200001 97.314 165.5291
53.000000 97.253 165.1144
53.799999 97.181 164.7783
54.500000 97.137 164.6713
55.200001 97.129 164.5307
56.000000 97.124 164.2276
57.000000 97.112 163.9152
58.000000 97.104 163.5213
59.000000 97.057 163.1241
60.000000 97.006 162.8600
60.799999 96.962 162.5427
61.500000 96.906 162.2565
62.200001 96.845 162.0598
63.000000 96.791 161.9017
64.000000 96.755 161.6112
65.000000 96.722 161.1653
66.000000 96.676 160.7826
67.000000 96.637 160.5415
68.000000 96.607 160.3358
69.000000 96.572 160.0980
70.000000 96.520 159.8769
71.000000 96.461 159.7291
72.000000 96.409 159.5545
73.000000 96.354 159.3292
74.000000 96.308 159.1033
75.000000 96.277 158.7723
76.199997 96.225 158.2573
77.500000 96.161 157.8466
78.800003 96.107 157.4943
80.000000 96.057 157.2731
81.199997 96.022 157.0590
82.500000 95.966 156.7085
83.800003 95.873 156.4999
85.000000 95.798 156.5162
86.199997 95.756 156.4303
87.500000 95.700 156.0225
88.500000 95.629 155.7158
90.000000 95.535 155.5067
91.199997 95.490 155.3155
92.500000 95.440 155.0773
93.800003 95.394 154.9319
95.000000 95.362 154.8074
96.199997 95.331 154.5972
97.500000 95.277 154.2959
98.800003 95.211 154.1025
100.000000 95.161 153.9260
101.500000 95.085 153.6655
103.000000 94.999 153.5439
104.400002 94.926 153.5042
106.000000 94.849 153.4388
107.500000 94.775 153.3364
109.000000 94.702 153.2185
110.599998 94.631 153.0769
112.000000 94.574 152.9341
113.800003 94.496 152.7547
115.000000 94.439 152.7065
117.199997 94.343 152.7849
118.000000 94.313 152.8105
120.599998 94.209 152.7296
122.000000 94.147 152.6019
124.099998 94.063 152.4079
125.000000 94.032 152.3327
126.500000 93.985 152.2401
128.000000 93.939 152.2020
131.500000 93.812 152.1974
132.000000 93.791 152.1953
134.000000 93.716 152.1512
136.000000 93.638 152.0783
138.000000 93.567 152.1692
140.000000 93.510 152.2175
143.000000 93.400 152.1306
145.000000 93.334 152.0497
147.500000 93.254 151.9566
150.000000 93.176 152.1242
152.500000 93.124 152.3283
155.000000 93.052 152.3140
157.500000 92.967 152.3405
160.000000 92.893 152.3590
162.500000 92.818 152.4033
165.000000 92.746 152.4796
167.500000 92.672 152.5683
170.000000 92.599 152.6685
172.500000 92.517 152.7480
175.000000 92.426 152.8541
177.500000 92.340 153.0075
180.000000 92.274 153.1582
182.500000 92.219 153.2983
185.000000 92.158 153.4499
187.500000 92.085 153.5966
190.000000 92.015 153.7289
192.500000 91.960 153.8300
195.000000 91.910 153.9477
197.500000 91.848 154.1566
200.000000 91.790 154.3944
203.000000 91.721 154.4793
206.000000 91.631 154.6013
209.000000 91.557 154.8620
212.000000 91.499 155.0612
214.000000 91.463 155.1926
218.000000 91.390 155.5473
220.000000 91.350 155.7520
224.000000 91.264 156.0792
227.000000 91.196 156.1805
230.000000 91.131 156.2687
233.000000 91.083 156.4729
236.000000 91.040 156.7247
240.000000 90.960 157.1079
243.000000 90.894 157.3887
247.000000 90.814 157.7268
250.000000 90.760 157.9581
254.000000 90.699 158.2281
258.000000 90.636 158.4776
262.000000 90.565 158.7794
265.000000 90.518 159.0455
269.000000 90.462 159.4381
272.000000 90.418 159.7376
276.000000 90.357 160.0790
280.000000 90.302 160.3820
285.000000 90.240 160.7722
290.000000 90.173 161.1543
295.000000 90.104 161.5419
300.000000 90.046 162.0027
304.000000 90.006 162.3727
307.000000 89.974 162.6377
311.000000 89.929 162.9613
315.000000 89.885 163.2671
320.000000 89.831 163.7065
325.000000 89.784 164.1846
330.000000 89.738 164.6423
335.000000 89.689 165.0512
340.000000 89.647 165.4990
345.000000 89.620 165.9550
350.000000 89.582 166.3267
355.000000 89.523 166.7544
360.000000 89.468 167.2334
365.000000 89.428 167.6883
370.000000 89.391 168.1219
375.000000 89.353 168.5472
382.000000 89.301 169.1549
387.000000 89.266 169.6135
395.000000 89.208 170.3066
400.000000 89.174 170.7479
406.000000 89.133 171.2650
412.000000 89.095 171.7663
418.000000 89.056 172.2646
425.000000 89.005 172.8288
431.000000 88.965 173.3081
437.000000 88.936 173.8281
444.000000 88.905 174.4888
450.000000 88.877 175.0320
455.000000 88.856 175.4841
462.000000 88.831 176.1323
468.000000 88.806 176.6273
475.000000 88.777 177.1724
482.000000 88.753 177.7445
487.000000 88.734 178.1359
494.000000 88.710 178.6974
500.000000 88.694 179.2171
508.000000 88.670 179.9065
515.000000 88.646 -179.5261
522.000000 88.627 -178.9831
530.000000 88.609 -178.3282
538.000000 88.592 -177.6299
545.000000 88.582 -177.0388
552.000000 88.575 -176.4544
560.000000 88.567 -175.7878
570.000000 88.556 -174.9918
580.000000 88.545 -174.1797
590.000000 88.540 -173.3474
600.000000 88.536 -172.5219
608.000000 88.533 -171.8803
615.000000 88.532 -171.3394
622.000000 88.532 -170.7979
630.000000 88.533 -170.1687
640.000000 88.529 -169.3583
650.000000 88.525 -168.5404
660.000000 88.524 -167.7416
670.000000 88.525 -166.9597
680.000000 88.529 -166.1672
690.000000 88.535 -165.3776
700.000000 88.542 -164.5845
710.000000 88.553 -163.7700
720.000000 88.569 -162.9473
730.000000 88.590 -162.1357
740.000000 88.617 -161.3812
750.000000 88.649 -160.6420
762.000000 88.688 -159.6956
775.000000 88.724 -158.6514
788.000000 88.760 -157.6535
800.000000 88.799 -156.7202
812.000000 88.838 -155.7874
825.000000 88.884 -154.8074
838.000000 88.941 -153.8463
850.000000 88.998 -152.9519
862.000000 89.057 -152.0754
875.000000 89.123 -151.1407
885.000000 89.175 -150.4315
900.000000 89.255 -149.3948
912.000000 89.317 -148.5697
925.000000 89.388 -147.6845
938.000000 89.469 -146.8451
950.000000 89.554 -146.1242
962.000000 89.641 -145.4189
975.000000 89.734 -144.6573
988.000000 89.825 -143.9135
1000.000000 89.911 -143.2616
1015.000000 90.019 -142.4962
1030.000000 90.126 -141.7486
1044.000000 90.224 -141.0751
1060.000000 90.339 -140.3694
1075.000000 90.450 -139.7444
1090.000000 90.566 -139.1378
1106.000000 90.703 -138.5240
1120.000000 90.829 -138.0371
1138.000000 90.988 -137.4461
1150.000000 91.088 -137.0490
1172.000000 91.262 -136.3539
1180.000000 91.325 -136.1151
1206.000000 91.528 -135.3593
1220.000000 91.638 -134.9634
1241.000000 91.804 -134.3658
1250.000000 91.876 -134.1006
1265.000000 91.997 -133.6519
1280.000000 92.127 -133.2234
1315.000000 92.441 -132.3905
1320.000000 92.484 -132.2764
1340.000000 92.641 -131.8282
1360.000000 92.780 -131.4163
1380.000000 92.922 -131.0295
1400.000000 93.074 -130.6428
1430.000000 93.307 -130.0652
1450.000000 93.467 -129.7303
1475.000000 93.669 -129.3377
1500.000000 93.871 -128.9381
1525.000000 94.074 -128.5644
1550.000000 94.276 -128.2075
1575.000000 94.475 -127.8599
1600.000000 94.675 -127.5310
1625.000000 94.881 -127.2419
1650.000000 95.095 -126.9862
1675.000000 95.321 -126.7893
1700.000000 95.556 -126.6526
1725.000000 95.794 -126.5713
1750.000000 96.034 -126.5566
1775.000000 96.280 -126.6225
1800.000000 96.536 -126.7822
1825.000000 96.802 -127.0555
1850.000000 97.078 -127.4567
1875.000000 97.364 -128.0194
1900.000000 97.654 -128.7726
1925.000000 97.951 -129.7450
1950.000000 98.253 -131.0249
1975.000000 98.551 -132.6695
2000.000000 98.819 -134.7434
2030.000000 99.057 -137.8613
2060.000000 99.140 -141.4957
2090.000000 99.019 -145.0937
2120.000000 98.716 -147.7254
2140.000000 98.472 -148.5980
2180.000000 98.091 -148.5338
2200.000000 98.007 -148.0955
2240.000000 98.030 -147.5021
2270.000000 98.136 -147.7197
2300.000000 98.243 -148.6290
2330.000000 98.300 -150.1234
2360.000000 98.270 -151.8968
2400.000000 98.087 -154.0242
2430.000000 97.872 -155.1158
2470.000000 97.552 -155.7734
2500.000000 97.324 -155.7790
2540.000000 97.051 -155.2666
2580.000000 96.839 -154.0427
2620.000000 96.784 -152.3284
2650.000000 96.866 -151.3632
2690.000000 97.039 -151.1193
2720.000000 97.139 -151.5944
2760.000000 97.185 -152.6140
2800.000000 97.138 -153.6557
2850.000000 96.991 -154.6612
2900.000000 96.797 -155.2435
2950.000000 96.587 -155.4529
3000.000000 96.387 -155.4441
3040.000000 96.230 -155.3079
3070.000000 96.108 -155.1178
3110.000000 95.938 -154.7056
3150.000000 95.768 -154.0634
3200.000000 95.584 -152.9437
3250.000000 95.467 -151.6540
3300.000000 95.404 -150.4351
3350.000000 95.364 -149.3954
3400.000000 95.336 -148.5361
3450.000000 95.315 -147.7908
3500.000000 95.293 -147.1120
3550.000000 95.266 -146.4236
3600.000000 95.247 -145.7428
3650.000000 95.240 -145.1534
3700.000000 95.215 -144.7633
3750.000000 95.125 -144.4410
3820.000000 94.899 -143.1665
3870.000000 94.784 -141.4578
3950.000000 94.779 -138.5174
4000.000000 94.842 -136.9316
4060.000000 94.958 -135.3232
4120.000000 95.101 -134.0323
4180.000000 95.251 -133.0144
4250.000000 95.417 -132.1343
4310.000000 95.542 -131.6081
4370.000000 95.651 -131.1848
4440.000000 95.809 -130.8777
4500.000000 95.975 -131.3880
4550.000000 96.047 -132.8384
4620.000000 95.768 -135.8925
4680.000000 95.003 -136.1988
4750.000000 94.134 -129.9608
4820.000000 94.332 -121.7549
4870.000000 94.867 -118.2411
4940.000000 95.599 -116.4034
5000.000000 96.107 -116.3516
5080.000000 96.630 -117.4315
5150.000000 96.932 -119.1567
5220.000000 97.059 -121.2699
5300.000000 96.986 -123.2775
5380.000000 96.764 -123.9600
5450.000000 96.571 -123.2751
5520.000000 96.500 -121.7964
5600.000000 96.599 -120.1039
5700.000000 96.850 -118.8912
5800.000000 97.089 -118.6247
5900.000000 97.281 -118.8868
6000.000000 97.427 -119.3893
6080.000000 97.504 -119.9213
6150.000000 97.532 -120.4502
6220.000000 97.517 -120.9170
6300.000000 97.460 -121.1458
6400.000000 97.394 -120.9052
6500.000000 97.350 -120.4425
6600.000000 97.304 -119.5689
6700.000000 97.349 -118.2936
6800.000000 97.511 -117.2937
6900.000000 97.723 -116.9198
7000.000000 97.905 -117.1682
7100.000000 97.934 -117.6298
7200.000000 97.761 -116.4647
7300.000000 97.829 -111.9640
7400.000000 98.628 -107.2095
7500.000000 99.759 -105.9365
7620.000000 101.031 -108.3761
7750.000000 102.189 -113.9835
7880.000000 102.964 -122.0480
8000.000000 103.302 -130.8615
8120.000000 103.305 -140.5035
8250.000000 102.818 -151.1609
8380.000000 101.802 -160.0431
8500.000000 100.565 -165.3943
8620.000000 99.276 -168.0459
8750.000000 98.032 -169.4278
8850.000000 97.150 -170.4501
9000.000000 95.673 -171.6103
9120.000000 94.230 -170.0733
9250.000000 92.696 -164.1495
9380.000000 91.752 -156.1947
9500.000000 91.398 -149.8959
9620.000000 91.251 -145.1161
9750.000000 91.165 -141.1018
9880.000000 91.111 -137.7903
10000.000000 91.095 -135.2279
10150.000000 91.105 -132.6940
10300.000000 91.151 -130.7188
10440.000000 91.265 -129.7158
10600.000000 91.388 -130.3874
10750.000000 91.348 -132.5731
10900.000000 91.113 -135.8675
11060.000000 90.581 -140.6020
11200.000000 89.702 -145.2509
11380.000000 87.722 -147.5318
11500.000000 86.020 -143.6763
11720.000000 83.602 -128.3228
11800.000000 83.191 -122.3219
12060.000000 82.894 -106.2304
12200.000000 83.010 -99.7366
12410.000000 83.280 -92.4885
12500.000000 83.380 -90.2560
12650.000000 83.452 -87.3459
12800.000000 83.396 -84.7504
13150.000000 83.098 -79.1102
13200.000000 83.027 -78.5804
13400.000000 82.481 -76.7468
13600.000000 81.412 -72.5787
13800.000000 80.144 -62.8133
14000.000000 79.441 -48.1905
14300.000000 80.209 -24.9589
14500.000000 81.642 -11.8357
14750.000000 84.128 0.1416
15000.000000 86.971 5.1615
15250.000000 89.497 1.4692
15500.000000 91.101 -9.3497
15750.000000 91.661 -21.4097
16000.000000 91.575 -30.1779
16250.000000 91.347 -35.7194
16500.000000 91.254 -40.4697
16750.000000 91.153 -47.1570
17000.000000 90.579 -55.5490
17250.000000 89.357 -62.3354
17500.000000 87.719 -65.2513
17750.000000 85.996 -64.3859
18000.000000 84.400 -60.7757
18250.000000 83.040 -55.3851
18500.000000 82.011 -48.9270
18750.000000 81.407 -41.9838
19000.000000 81.129 -34.8190
19250.000000 80.866 -27.0800
19500.000000 80.408 -18.3167
19750.000000 79.798 -8.8275
20000.000000 79.069 0.3372
20300.000000 77.966 9.7154
20600.000000 76.480 17.1375
20900.000000 74.371 22.8467
21200.000000 71.466 27.2290
21400.000000 69.036 29.4818
21800.000000 62.866 28.8932
22000.000000 59.085 10.0493
22400.000000 50.099 -77.4574
22700.000000 42.156 35.2129
23000.000000 33.275 -15.9492
23300.000000 23.690 -138.8477
23600.000000 14.693 -18.8125
24000.000000 9.890 68.7344
