* Measurement data measured by REW V5.20.13
* Source: Headset (DS by VECLAN.COM), MICROPHONE (Master Volume), L, volume: 0.720. Timing signal peak level -17.4 dBFS, measurement signal peak level -15.7 dBFS
* Format: 2M Log Swept Sine, 1 sweep at -12.0 dBFS using an acoustic timing reference
* Dated: Feb 24, 2024 3:48:29 PM
* REW Settings:
*  C-weighting compensation: Off
*  Target level: 75.0 dB
* Note: ; Delay -0.0758 ms (-26 mm, -1.02 in) using estimated IR delay relative to Acoustic reference played from HEADPHONE L with no timing offset
* Measurement: Letshuoer Galileo L
* Smoothing: 1/24 octave
* Frequency Step: 1/48 octave
* Start Frequency: 1.000 Hz
*
* Freq(Hz) SPL(dB) Phase(degrees)
1.000000 70.701 11.8461
1.015000 71.201 9.9654
1.030000 71.686 8.1121
1.044000 72.120 6.4132
1.060000 72.591 4.5154
1.075000 73.005 2.7858
1.090000 73.387 1.1114
1.106000 73.760 -0.6165
1.120000 74.074 -2.1325
1.138000 74.468 -4.0995
1.150000 74.724 -5.4190
1.172000 75.181 -7.8487
1.180000 75.343 -8.7338
1.206000 75.856 -11.6075
1.220000 76.124 -13.1484
1.241000 76.514 -15.4434
1.250000 76.678 -16.4189
1.265000 76.945 -18.0311
1.280000 77.206 -19.6232
1.315000 77.794 -23.2402
1.320000 77.876 -23.7437
1.340000 78.196 -25.7200
1.360000 78.508 -27.6291
1.380000 78.811 -29.4626
1.400000 79.107 -31.2121
1.430000 79.537 -33.6606
1.450000 79.815 -35.1635
1.475000 80.154 -36.8813
1.500000 80.474 -38.4126
1.525000 80.774 -39.7730
1.550000 81.055 -40.9808
1.575000 81.321 -42.0546
1.600000 81.571 -43.0128
1.625000 81.810 -43.8739
1.650000 82.037 -44.6563
1.675000 82.256 -45.3785
1.700000 82.467 -46.0589
1.725000 82.673 -46.7161
1.750000 82.876 -47.3684
1.775000 83.077 -48.0344
1.800000 83.278 -48.7326
1.825000 83.481 -49.4812
1.850000 83.685 -50.2705
1.875000 83.882 -51.0422
1.900000 84.074 -51.7943
1.925000 84.259 -52.5280
1.950000 84.440 -53.2439
1.975000 84.616 -53.9431
2.000000 84.788 -54.6265
2.030000 84.989 -55.4269
2.060000 85.186 -56.2072
2.090000 85.378 -56.9692
2.120000 85.568 -57.7143
2.140000 85.694 -58.2025
2.180000 85.942 -59.1602
2.200000 86.066 -59.6306
2.240000 86.311 -60.5403
2.270000 86.489 -61.1932
2.300000 86.665 -61.8241
2.330000 86.837 -62.4356
2.360000 87.005 -63.0305
2.400000 87.225 -63.8024
2.430000 87.387 -64.3689
2.470000 87.597 -65.1128
2.500000 87.752 -65.6656
2.540000 87.953 -66.4011
2.580000 88.150 -67.1383
2.620000 88.341 -67.8616
2.650000 88.480 -68.3935
2.690000 88.661 -69.0906
2.720000 88.793 -69.6057
2.760000 88.965 -70.2843
2.800000 89.132 -70.9560
2.850000 89.336 -71.7895
2.900000 89.535 -72.6211
2.950000 89.729 -73.4556
3.000000 89.917 -74.2936
3.040000 90.062 -74.9635
3.070000 90.169 -75.4639
3.110000 90.307 -76.1264
3.150000 90.442 -76.7813
3.200000 90.607 -77.5853
3.250000 90.768 -78.3684
3.300000 90.926 -79.1256
3.350000 91.079 -79.8517
3.400000 91.227 -80.5501
3.450000 91.371 -81.2277
3.500000 91.510 -81.8915
3.550000 91.647 -82.5483
3.600000 91.780 -83.2052
3.650000 91.910 -83.8690
3.700000 92.039 -84.5435
3.750000 92.163 -85.2227
3.820000 92.332 -86.1745
3.870000 92.449 -86.8503
3.950000 92.632 -87.9150
4.000000 92.743 -88.5647
4.060000 92.875 -89.3224
4.120000 93.004 -90.0546
4.180000 93.130 -90.7687
4.250000 93.272 -91.5896
4.310000 93.392 -92.2920
4.370000 93.509 -93.0016
4.440000 93.643 -93.8455
4.500000 93.755 -94.5755
4.550000 93.847 -95.1862
4.620000 93.972 -96.0420
4.680000 94.077 -96.7736
4.750000 94.196 -97.6217
4.820000 94.312 -98.4618
4.870000 94.393 -99.0585
4.940000 94.504 -99.8908
5.000000 94.596 -100.6025
5.080000 94.716 -101.5512
5.150000 94.816 -102.3833
5.220000 94.913 -103.2191
5.300000 95.020 -104.1755
5.380000 95.122 -105.1284
5.450000 95.209 -105.9554
5.520000 95.291 -106.7733
5.600000 95.382 -107.7025
5.700000 95.489 -108.8535
5.800000 95.590 -109.9856
5.900000 95.686 -111.0923
6.000000 95.775 -112.1777
6.080000 95.843 -113.0301
6.150000 95.901 -113.7630
6.220000 95.956 -114.4826
6.300000 96.018 -115.2890
6.400000 96.091 -116.2744
6.500000 96.161 -117.2336
6.600000 96.229 -118.1654
6.700000 96.296 -119.0663
6.800000 96.361 -119.9393
6.900000 96.424 -120.7910
7.000000 96.488 -121.6266
7.100000 96.551 -122.4416
7.200000 96.613 -123.2387
7.300000 96.675 -124.0226
7.400000 96.736 -124.7952
7.500000 96.797 -125.5537
7.620000 96.869 -126.4491
7.750000 96.945 -127.4058
7.880000 97.019 -128.3485
8.000000 97.085 -129.2028
8.120000 97.149 -130.0399
8.250000 97.215 -130.9294
8.380000 97.279 -131.7961
8.500000 97.335 -132.5719
8.620000 97.389 -133.3264
8.750000 97.445 -134.1182
8.850000 97.488 -134.7076
9.000000 97.550 -135.5595
9.120000 97.599 -136.2183
9.250000 97.654 -136.9109
9.380000 97.709 -137.5797
9.500000 97.758 -138.1871
9.620000 97.806 -138.7894
9.750000 97.855 -139.4324
9.880000 97.898 -140.0733
10.000000 97.929 -140.6676
10.150000 97.959 -141.4091
10.300000 97.979 -142.1420
10.440000 97.987 -142.8197
10.600000 97.990 -143.5804
10.750000 97.989 -144.2752
10.900000 97.983 -144.9532
11.060000 97.976 -145.6519
11.200000 97.967 -146.2444
11.380000 97.953 -146.9684
11.500000 97.943 -147.4227
11.720000 97.925 -148.2104
11.800000 97.921 -148.4833
12.060000 97.910 -149.3310
12.200000 97.910 -149.7857
12.410000 97.915 -150.4674
12.500000 97.918 -150.7682
12.650000 97.923 -151.2780
12.800000 97.929 -151.8027
13.150000 97.934 -153.0986
13.200000 97.933 -153.2883
13.400000 97.929 -154.0636
13.600000 97.918 -154.8340
13.800000 97.901 -155.5906
14.000000 97.880 -156.3116
14.300000 97.842 -157.3152
14.500000 97.816 -157.9189
14.750000 97.790 -158.6192
15.000000 97.774 -159.2735
15.250000 97.773 -159.9297
15.500000 97.782 -160.6178
15.750000 97.796 -161.3544
16.000000 97.810 -162.1530
16.250000 97.816 -162.9972
16.500000 97.813 -163.8669
16.750000 97.798 -164.7270
17.000000 97.773 -165.5332
17.250000 97.741 -166.2656
17.500000 97.704 -166.9019
17.750000 97.668 -167.4405
18.000000 97.636 -167.8921
18.250000 97.610 -168.2693
18.500000 97.593 -168.5979
18.750000 97.584 -168.8926
19.000000 97.585 -169.1680
19.250000 97.594 -169.4421
19.500000 97.611 -169.7281
19.750000 97.635 -170.0381
20.000000 97.665 -170.3940
20.299999 97.703 -170.9044
20.600000 97.738 -171.5208
20.900000 97.764 -172.2419
21.200001 97.772 -173.0403
21.400000 97.765 -173.5836
21.799999 97.724 -174.6273
22.000000 97.693 -175.0945
22.400000 97.622 -175.8764
22.700001 97.573 -176.3423
23.000000 97.536 -176.7546
23.299999 97.512 -177.1774
23.600000 97.495 -177.6526
24.000000 97.473 -178.3878
24.299999 97.447 -178.9788
24.700001 97.397 -179.7273
25.000000 97.354 179.8010
25.400000 97.303 179.3132
25.799999 97.275 178.9117
26.200001 97.270 178.4629
26.500000 97.270 178.0386
26.900000 97.263 177.3625
27.200001 97.243 176.8314
27.600000 97.195 176.1953
28.000000 97.136 175.7210
28.500000 97.073 175.3209
29.000000 97.033 174.9454
29.500000 96.995 174.4672
30.000000 96.937 173.9544
30.400000 96.880 173.6188
30.700001 96.837 173.4272
31.100000 96.792 173.2008
31.500000 96.760 172.9238
32.000000 96.721 172.4270
32.500000 96.662 171.8342
33.000000 96.582 171.3287
33.500000 96.506 170.9915
34.000000 96.458 170.7110
34.500000 96.430 170.3123
35.000000 96.396 169.7715
35.500000 96.339 169.2490
36.000000 96.273 168.8998
36.500000 96.226 168.6884
37.000000 96.201 168.4264
37.500000 96.176 168.0098
38.200001 96.097 167.3962
38.700001 96.022 167.1652
39.500000 95.946 167.0201
40.000000 95.921 166.7963
40.599998 95.874 166.3579
41.200001 95.796 165.9833
41.799999 95.716 165.8140
42.500000 95.658 165.7276
43.099998 95.632 165.5641
43.700001 95.610 165.2887
44.400002 95.574 164.8898
45.000000 95.532 164.5265
45.500000 95.486 164.2356
46.200001 95.405 163.9158
46.799999 95.330 163.7887
47.500000 95.259 163.7816
48.200001 95.213 163.7539
48.700001 95.188 163.6442
49.400002 95.143 163.3876
50.000000 95.094 163.1464
50.799999 95.019 162.8646
51.500000 94.951 162.6767
52.200001 94.886 162.5493
53.000000 94.820 162.4573
53.799999 94.763 162.3842
54.500000 94.717 162.3147
55.200001 94.674 162.2199
56.000000 94.622 162.0200
57.000000 94.518 161.7054
58.000000 94.391 161.7726
59.000000 94.338 161.9811
60.000000 94.306 161.7295
60.799999 94.248 161.5097
61.500000 94.202 161.4441
62.200001 94.172 161.3419
63.000000 94.130 161.1299
64.000000 94.054 160.9754
65.000000 93.989 160.9439
66.000000 93.930 160.8920
67.000000 93.874 160.8215
68.000000 93.811 160.7443
69.000000 93.757 160.7957
70.000000 93.729 160.7734
71.000000 93.681 160.6647
72.000000 93.621 160.7549
73.000000 93.575 160.9485
74.000000 93.537 161.1149
75.000000 93.493 161.2098
76.199997 93.430 161.2965
77.500000 93.365 161.2664
78.800003 93.284 161.2047
80.000000 93.229 161.2172
81.199997 93.183 161.1500
82.500000 93.123 161.1525
83.800003 93.074 161.2919
85.000000 93.039 161.3056
86.199997 92.975 161.2344
87.500000 92.892 161.3173
88.500000 92.837 161.4114
90.000000 92.762 161.6180
91.199997 92.726 161.8443
92.500000 92.705 162.0416
93.800003 92.687 162.1686
95.000000 92.659 162.2661
96.199997 92.619 162.4212
97.500000 92.572 162.6412
98.800003 92.526 162.8504
100.000000 92.486 162.9819
101.500000 92.440 162.9940
103.000000 92.379 162.8124
104.400002 92.294 162.8349
106.000000 92.249 163.2450
107.500000 92.249 163.4219
109.000000 92.215 163.4288
110.599998 92.146 163.5049
112.000000 92.089 163.6764
113.800003 92.069 163.8481
115.000000 92.067 163.7787
117.199997 91.999 163.9529
118.000000 91.981 164.1940
120.599998 91.918 164.6808
122.000000 91.868 164.8705
124.099998 91.828 164.8881
125.000000 91.812 164.8093
126.500000 91.779 164.7800
128.000000 91.751 164.9613
131.500000 91.727 165.5102
132.000000 91.719 165.5177
134.000000 91.671 165.5294
136.000000 91.627 165.6923
138.000000 91.611 166.0378
140.000000 91.605 166.3326
143.000000 91.531 166.4481
145.000000 91.478 166.4173
147.500000 91.390 166.5158
150.000000 91.363 167.1694
152.500000 91.350 167.6687
155.000000 91.340 168.1888
157.500000 91.354 168.5508
160.000000 91.336 168.5464
162.500000 91.291 168.5278
165.000000 91.258 168.4431
167.500000 91.198 168.6533
170.000000 91.182 168.8820
172.500000 91.207 168.6078
175.000000 91.240 168.4782
177.500000 91.248 168.9647
180.000000 91.188 169.6331
182.500000 91.092 169.9663
185.000000 91.050 169.9446
187.500000 91.066 169.9110
190.000000 91.066 170.1267
192.500000 91.024 170.5801
195.000000 90.981 171.0420
197.500000 90.951 171.3475
200.000000 90.921 171.5680
203.000000 90.899 171.8208
206.000000 90.911 172.1729
209.000000 90.944 172.4783
212.000000 90.918 172.4663
214.000000 90.866 172.4596
218.000000 90.810 172.8506
220.000000 90.828 173.1224
224.000000 90.862 173.6695
227.000000 90.880 174.1532
230.000000 90.882 174.3506
233.000000 90.834 174.3092
236.000000 90.753 174.4244
240.000000 90.699 174.5256
243.000000 90.626 174.4298
247.000000 90.598 175.0507
250.000000 90.673 175.3945
254.000000 90.712 175.6037
258.000000 90.615 175.4195
262.000000 90.503 175.3440
265.000000 90.508 175.6596
269.000000 90.591 176.2830
272.000000 90.649 176.5435
276.000000 90.642 176.6172
280.000000 90.598 176.4795
285.000000 90.616 176.6472
290.000000 90.570 177.1745
295.000000 90.504 177.5855
300.000000 90.467 178.1561
304.000000 90.421 178.6559
307.000000 90.402 178.9710
311.000000 90.408 179.1769
315.000000 90.430 179.2564
320.000000 90.425 179.4901
325.000000 90.392 179.8914
330.000000 90.391 -179.6581
335.000000 90.396 -179.3346
340.000000 90.414 -179.4788
345.000000 90.399 -179.5277
350.000000 90.307 -178.7948
355.000000 90.231 -178.0018
360.000000 90.218 -177.5938
365.000000 90.280 -177.3631
370.000000 90.374 -176.9241
375.000000 90.499 -176.5293
382.000000 90.503 -176.9207
387.000000 90.384 -176.6087
395.000000 90.278 -175.4138
400.000000 90.229 -174.6163
406.000000 90.192 -174.4483
412.000000 90.171 -174.6211
418.000000 90.213 -173.6608
425.000000 90.253 -172.9149
431.000000 90.268 -172.7246
437.000000 90.272 -172.5340
444.000000 90.252 -172.1150
450.000000 90.272 -171.8218
455.000000 90.304 -171.6719
462.000000 90.312 -171.5401
468.000000 90.300 -171.3674
475.000000 90.290 -171.3504
482.000000 90.243 -171.1357
487.000000 90.220 -170.7799
494.000000 90.224 -170.4431
500.000000 90.248 -170.3491
508.000000 90.274 -169.7970
515.000000 90.248 -168.6202
522.000000 90.215 -167.9089
530.000000 90.199 -167.5274
538.000000 90.184 -167.3611
545.000000 90.178 -167.0562
552.000000 90.144 -166.6157
560.000000 90.104 -166.0780
570.000000 90.089 -165.3831
580.000000 90.103 -164.8621
590.000000 90.112 -164.2860
600.000000 90.139 -163.6589
608.000000 90.178 -163.1164
615.000000 90.225 -162.6801
622.000000 90.250 -162.2438
630.000000 90.219 -161.6932
640.000000 90.148 -161.0727
650.000000 90.104 -160.4100
660.000000 90.095 -159.7676
670.000000 90.112 -159.0998
680.000000 90.126 -158.4443
690.000000 90.136 -157.8060
700.000000 90.133 -157.1360
710.000000 90.123 -156.5144
720.000000 90.133 -155.9141
730.000000 90.145 -155.2705
740.000000 90.146 -154.5563
750.000000 90.151 -153.8239
762.000000 90.174 -153.0146
775.000000 90.205 -152.1744
788.000000 90.237 -151.2694
800.000000 90.272 -150.4531
812.000000 90.309 -149.6753
825.000000 90.345 -148.7994
838.000000 90.379 -147.9151
850.000000 90.410 -147.0713
862.000000 90.465 -146.2903
875.000000 90.538 -145.5893
885.000000 90.589 -144.9798
900.000000 90.662 -143.9751
912.000000 90.724 -143.2198
925.000000 90.787 -142.4536
938.000000 90.848 -141.7281
950.000000 90.911 -141.0953
962.000000 90.974 -140.4736
975.000000 91.042 -139.8282
988.000000 91.110 -139.2125
1000.000000 91.170 -138.6345
1015.000000 91.253 -137.8948
1030.000000 91.340 -137.1741
1044.000000 91.418 -136.5645
1060.000000 91.504 -135.9641
1075.000000 91.583 -135.3187
1090.000000 91.671 -134.7289
1106.000000 91.776 -134.2174
1120.000000 91.873 -133.7429
1138.000000 91.995 -133.0843
1150.000000 92.077 -132.6753
1172.000000 92.219 -131.8746
1180.000000 92.270 -131.5988
1206.000000 92.455 -130.7795
1220.000000 92.561 -130.3992
1241.000000 92.706 -129.9770
1250.000000 92.764 -129.8492
1265.000000 92.861 -129.5998
1280.000000 92.976 -129.3033
1315.000000 93.231 -128.7869
1320.000000 93.263 -128.7287
1340.000000 93.373 -128.4876
1360.000000 93.450 -128.2496
1380.000000 93.524 -128.0662
1400.000000 93.606 -127.8972
1430.000000 93.737 -127.4824
1450.000000 93.823 -127.2065
1475.000000 93.906 -126.9419
1500.000000 93.984 -126.6333
1525.000000 94.060 -126.2969
1550.000000 94.122 -125.9295
1575.000000 94.178 -125.4823
1600.000000 94.236 -124.9763
1625.000000 94.293 -124.4246
1650.000000 94.353 -123.8482
1675.000000 94.422 -123.2735
1700.000000 94.497 -122.6956
1725.000000 94.572 -122.1061
1750.000000 94.652 -121.5315
1775.000000 94.736 -120.9758
1800.000000 94.817 -120.4323
1825.000000 94.899 -119.9100
1850.000000 94.984 -119.3958
1875.000000 95.070 -118.8889
1900.000000 95.158 -118.3889
1925.000000 95.248 -117.8997
1950.000000 95.338 -117.4318
1975.000000 95.427 -116.9707
2000.000000 95.518 -116.5240
2030.000000 95.630 -116.0168
2060.000000 95.742 -115.5245
2090.000000 95.853 -115.0610
2120.000000 95.967 -114.6346
2140.000000 96.045 -114.3651
2180.000000 96.199 -113.8555
2200.000000 96.275 -113.6269
2240.000000 96.426 -113.2261
2270.000000 96.535 -112.9487
2300.000000 96.642 -112.6974
2330.000000 96.753 -112.4969
2360.000000 96.863 -112.3366
2400.000000 96.998 -112.1493
2430.000000 97.093 -112.0409
2470.000000 97.217 -111.9517
2500.000000 97.307 -111.9177
2540.000000 97.420 -111.9079
2580.000000 97.528 -111.9531
2620.000000 97.625 -112.0376
2650.000000 97.689 -112.1157
2690.000000 97.769 -112.2541
2720.000000 97.823 -112.3799
2760.000000 97.884 -112.5573
2800.000000 97.932 -112.7456
2850.000000 97.981 -113.0045
2900.000000 98.014 -113.2637
2950.000000 98.033 -113.5069
3000.000000 98.042 -113.7397
3040.000000 98.036 -113.8964
3070.000000 98.026 -113.9988
3110.000000 98.008 -114.1235
3150.000000 97.982 -114.2146
3200.000000 97.936 -114.2755
3250.000000 97.881 -114.2869
3300.000000 97.819 -114.2426
3350.000000 97.751 -114.1415
3400.000000 97.682 -113.9871
3450.000000 97.618 -113.7819
3500.000000 97.554 -113.5242
3550.000000 97.489 -113.2162
3600.000000 97.427 -112.8784
3650.000000 97.363 -112.4983
3700.000000 97.295 -112.0772
3750.000000 97.229 -111.6354
3820.000000 97.134 -110.9644
3870.000000 97.061 -110.4504
3950.000000 96.939 -109.5778
4000.000000 96.862 -109.0001
4060.000000 96.768 -108.2712
4120.000000 96.673 -107.5011
4180.000000 96.580 -106.7038
4250.000000 96.467 -105.7232
4310.000000 96.366 -104.8351
4370.000000 96.261 -103.9078
4440.000000 96.133 -102.7740
4500.000000 96.025 -101.7698
4550.000000 95.938 -100.9146
4620.000000 95.821 -99.6909
4680.000000 95.723 -98.6190
4750.000000 95.613 -97.3506
4820.000000 95.507 -96.0661
4870.000000 95.434 -95.1385
4940.000000 95.335 -93.8292
5000.000000 95.254 -92.7036
5080.000000 95.150 -91.1953
5150.000000 95.061 -89.8690
5220.000000 94.974 -88.5398
5300.000000 94.877 -87.0127
5380.000000 94.776 -85.4546
5450.000000 94.691 -84.0737
5520.000000 94.613 -82.6765
5600.000000 94.524 -81.0505
5700.000000 94.416 -78.9766
5800.000000 94.317 -76.8579
5900.000000 94.223 -74.6782
6000.000000 94.137 -72.4266
6080.000000 94.083 -70.5885
6150.000000 94.046 -68.9568
6220.000000 94.016 -67.3021
6300.000000 93.992 -65.3927
6400.000000 93.985 -63.0026
6500.000000 94.002 -60.6248
6600.000000 94.045 -58.2857
6700.000000 94.121 -56.0245
6800.000000 94.232 -53.8667
6900.000000 94.390 -51.8429
7000.000000 94.598 -49.9939
7100.000000 94.836 -48.3542
7200.000000 95.100 -46.9847
7300.000000 95.385 -45.9725
7400.000000 95.681 -45.3903
7500.000000 95.975 -45.2844
7620.000000 96.323 -45.8348
7750.000000 96.661 -47.3038
7880.000000 96.829 -49.6184
8000.000000 96.818 -52.3582
8120.000000 96.652 -55.4442
8250.000000 96.280 -58.8301
8380.000000 95.713 -61.9237
8500.000000 95.029 -64.2916
8620.000000 94.187 -65.9955
8750.000000 93.076 -66.6728
8850.000000 92.085 -65.7919
9000.000000 90.537 -61.0572
9120.000000 89.558 -54.7504
9250.000000 88.986 -47.7020
9380.000000 88.738 -42.1460
9500.000000 88.562 -38.3118
9620.000000 88.351 -35.1427
9750.000000 88.085 -31.9990
9880.000000 87.801 -28.9401
10000.000000 87.532 -26.1456
10150.000000 87.194 -22.7035
10300.000000 86.859 -19.3484
10440.000000 86.546 -16.3122
10600.000000 86.176 -12.9545
10750.000000 85.812 -9.9039
10900.000000 85.430 -6.9015
11060.000000 84.996 -3.6813
11200.000000 84.599 -0.8015
11380.000000 84.069 3.0490
11500.000000 83.708 5.7218
11720.000000 83.069 10.7435
11800.000000 82.854 12.5281
12060.000000 82.202 17.0358
12200.000000 81.734 17.6780
12410.000000 80.157 19.8870
12500.000000 79.109 24.8549
12650.000000 77.728 38.4167
12800.000000 77.526 51.1534
13150.000000 78.099 67.9269
13200.000000 78.148 69.6986
13400.000000 78.279 76.2347
13600.000000 78.328 82.1901
13800.000000 78.326 87.9243
14000.000000 78.312 93.6772
14300.000000 78.360 102.3584
14500.000000 78.489 107.8736
14750.000000 78.760 113.9821
15000.000000 79.140 118.8091
15250.000000 79.616 121.9192
15500.000000 80.187 122.6605
15750.000000 80.734 120.0626
16000.000000 80.946 113.2804
16250.000000 80.429 103.2957
16500.000000 78.951 93.9193
16750.000000 76.635 89.2106
17000.000000 73.884 90.3414
17250.000000 71.124 96.0727
17500.000000 68.626 104.6373
17750.000000 66.437 114.6264
18000.000000 64.481 125.3773
18250.000000 62.675 136.8193
18500.000000 61.021 149.1518
18750.000000 59.620 162.6170
19000.000000 58.499 177.5013
19250.000000 57.491 -165.9326
19500.000000 56.397 -147.7348
19750.000000 55.245 -128.3316
20000.000000 54.116 -108.6457
20300.000000 52.799 -85.4551
20600.000000 51.565 -64.3796
20900.000000 50.369 -67.9371
21200.000000 49.157 129.4474
21400.000000 48.308 108.9724
21800.000000 46.165 82.2019
22000.000000 44.407 52.2554
22400.000000 38.880 94.2910
22700.000000 34.601 164.3359
23000.000000 32.494 -140.8672
23300.000000 31.889 92.3984
23600.000000 31.589 -79.0234
24000.000000 31.220 109.3438
