* Measurement data measured by REW V5.20.13
* Source: Headset (DS by VECLAN.COM), MICROPHONE (Master Volume), L, volume: 1.000. Timing signal peak level -13.1 dBFS, measurement signal peak level -6.0 dBFS
* Format: 2M Log Swept Sine, 1 sweep at -12.0 dBFS using an acoustic timing reference
* Dated: May 28, 2023 7:50:35 PM
* REW Settings:
*  C-weighting compensation: Off
*  Target level: 75.0 dB
* Note: ; Delay -0.0693 ms (-24 mm, -0.94 in) using estimated IR delay relative to Acoustic reference played from SPEAKER L with no timing offset Clock adjustment: -1.1 ppm
* Measurement: EJ07M L
* Smoothing: 1/24 octave
* Frequency Step: 1/48 octave
* Start Frequency: 1.000 Hz
*
* Freq(Hz) SPL(dB) Phase(degrees)
1.000000 74.117 47.8807
1.015000 74.388 46.1575
1.030000 74.656 44.5022
1.044000 74.902 43.0247
1.060000 75.179 41.4231
1.075000 75.433 40.0132
1.090000 75.681 38.6990
1.106000 75.939 37.4105
1.120000 76.163 36.3813
1.138000 76.448 35.1839
1.150000 76.636 34.4586
1.172000 76.978 33.2666
1.180000 77.102 32.8738
1.206000 77.499 31.7284
1.220000 77.711 31.1853
1.241000 78.025 30.4513
1.250000 78.159 30.1621
1.265000 78.380 29.7079
1.280000 78.599 29.2824
1.315000 79.103 28.3600
1.320000 79.174 28.2323
1.340000 79.457 27.7211
1.360000 79.736 27.1960
1.380000 80.012 26.6398
1.400000 80.285 26.0353
1.430000 80.688 25.0002
1.450000 80.952 24.1994
1.475000 81.278 23.0529
1.500000 81.598 21.8124
1.525000 81.912 20.5069
1.550000 82.220 19.1478
1.575000 82.523 17.7465
1.600000 82.820 16.3144
1.625000 83.112 14.8629
1.650000 83.400 13.4036
1.675000 83.683 11.9476
1.700000 83.961 10.5066
1.725000 84.235 9.0919
1.750000 84.505 7.7149
1.775000 84.771 6.3870
1.800000 85.034 5.1197
1.825000 85.293 3.9243
1.850000 85.548 2.8041
1.875000 85.799 1.7414
1.900000 86.044 0.7292
1.925000 86.285 -0.2390
1.950000 86.522 -1.1695
1.975000 86.755 -2.0689
2.000000 86.983 -2.9434
2.030000 87.253 -3.9692
2.060000 87.517 -4.9796
2.090000 87.776 -5.9858
2.120000 88.030 -6.9989
2.140000 88.198 -7.6835
2.180000 88.527 -9.0899
2.200000 88.689 -9.8181
2.240000 89.007 -11.2984
2.270000 89.239 -12.4173
2.300000 89.466 -13.5411
2.330000 89.688 -14.6677
2.360000 89.905 -15.7949
2.400000 90.188 -17.2950
2.430000 90.396 -18.4151
2.470000 90.666 -19.8979
2.500000 90.865 -20.9991
2.540000 91.125 -22.4488
2.580000 91.380 -23.8745
2.620000 91.627 -25.2903
2.650000 91.808 -26.3466
2.690000 92.042 -27.7454
2.720000 92.214 -28.7857
2.760000 92.437 -30.1588
2.800000 92.654 -31.5133
2.850000 92.919 -33.1760
2.900000 93.176 -34.7996
2.950000 93.425 -36.3778
3.000000 93.666 -37.9016
3.040000 93.852 -39.0870
3.070000 93.989 -39.9602
3.110000 94.166 -41.1079
3.150000 94.338 -42.2422
3.200000 94.547 -43.6499
3.250000 94.751 -45.0569
3.300000 94.949 -46.4746
3.350000 95.140 -47.9099
3.400000 95.325 -49.3544
3.450000 95.503 -50.7964
3.500000 95.675 -52.2244
3.550000 95.841 -53.6267
3.600000 96.003 -54.9916
3.650000 96.161 -56.3074
3.700000 96.315 -57.5651
3.750000 96.464 -58.7701
3.820000 96.663 -60.3887
3.870000 96.800 -61.5100
3.950000 97.012 -63.2726
4.000000 97.140 -64.3708
4.060000 97.291 -65.6992
4.120000 97.436 -67.0287
4.180000 97.576 -68.3487
4.250000 97.734 -69.8649
4.310000 97.866 -71.1339
4.370000 97.995 -72.3652
4.440000 98.142 -73.7429
4.500000 98.264 -74.8748
4.550000 98.363 -75.7910
4.620000 98.498 -77.0440
4.680000 98.611 -78.1014
4.750000 98.740 -79.3298
4.820000 98.867 -80.5567
4.870000 98.955 -81.4243
4.940000 99.076 -82.6255
5.000000 99.178 -83.6416
5.080000 99.309 -84.9756
5.150000 99.422 -86.1217
5.220000 99.532 -87.2449
5.300000 99.654 -88.5043
5.380000 99.773 -89.7440
5.450000 99.873 -90.8178
5.520000 99.971 -91.8852
5.600000 100.079 -93.0937
5.700000 100.208 -94.5847
5.800000 100.331 -96.0536
5.900000 100.448 -97.5008
6.000000 100.558 -98.9300
6.080000 100.641 -100.0566
6.150000 100.711 -101.0268
6.220000 100.777 -101.9794
6.300000 100.849 -103.0473
6.400000 100.933 -104.3544
6.500000 101.011 -105.6279
6.600000 101.085 -106.8646
6.700000 101.153 -108.0667
6.800000 101.216 -109.2337
6.900000 101.275 -110.3605
7.000000 101.332 -111.4420
7.100000 101.386 -112.4766
7.200000 101.437 -113.4706
7.300000 101.488 -114.4313
7.400000 101.539 -115.3601
7.500000 101.589 -116.2517
7.620000 101.649 -117.2860
7.750000 101.716 -118.3772
7.880000 101.785 -119.4269
8.000000 101.849 -120.3774
8.120000 101.914 -121.3280
8.250000 101.987 -122.3483
8.380000 102.058 -123.3676
8.500000 102.122 -124.3174
8.620000 102.184 -125.2728
8.750000 102.248 -126.3089
8.850000 102.294 -127.1059
9.000000 102.356 -128.3059
9.120000 102.401 -129.2551
9.250000 102.445 -130.2638
9.380000 102.484 -131.2577
9.500000 102.514 -132.1475
9.620000 102.538 -133.0031
9.750000 102.558 -133.8972
9.880000 102.571 -134.7536
10.000000 102.574 -135.5061
10.150000 102.569 -136.4010
10.300000 102.560 -137.2599
10.440000 102.547 -138.0236
10.600000 102.533 -138.8733
10.750000 102.526 -139.6629
10.900000 102.522 -140.4431
11.060000 102.519 -141.2860
11.200000 102.519 -142.0316
11.380000 102.517 -142.9984
11.500000 102.513 -143.6516
11.720000 102.503 -144.8479
11.800000 102.498 -145.2779
12.060000 102.478 -146.6542
12.200000 102.466 -147.3641
12.410000 102.446 -148.3895
12.500000 102.437 -148.8117
12.650000 102.422 -149.4908
12.800000 102.408 -150.1483
13.150000 102.381 -151.6145
13.200000 102.377 -151.8206
13.400000 102.367 -152.6371
13.600000 102.359 -153.4492
13.800000 102.351 -154.2624
14.000000 102.342 -155.0655
14.300000 102.322 -156.2429
14.500000 102.305 -156.9924
14.750000 102.286 -157.8843
15.000000 102.269 -158.7268
15.250000 102.261 -159.5372
15.500000 102.259 -160.3419
15.750000 102.261 -161.1558
16.000000 102.263 -161.9972
16.250000 102.260 -162.8567
16.500000 102.252 -163.7226
16.750000 102.238 -164.5733
17.000000 102.219 -165.3849
17.250000 102.197 -166.1517
17.500000 102.176 -166.8689
17.750000 102.157 -167.5511
18.000000 102.140 -168.2102
18.250000 102.125 -168.8591
18.500000 102.112 -169.5072
18.750000 102.098 -170.1518
19.000000 102.083 -170.7905
19.250000 102.068 -171.4140
19.500000 102.053 -172.0205
19.750000 102.038 -172.6090
20.000000 102.024 -173.1845
20.299999 102.009 -173.8671
20.600000 101.993 -174.5472
20.900000 101.977 -175.2272
21.200001 101.958 -175.9025
21.400000 101.944 -176.3450
21.799999 101.914 -177.2063
22.000000 101.898 -177.6239
22.400000 101.868 -178.4374
22.700001 101.846 -179.0360
23.000000 101.825 -179.6319
23.299999 101.803 179.7715
23.600000 101.781 179.1741
24.000000 101.749 178.3817
24.299999 101.723 177.7998
24.700001 101.684 177.0562
25.000000 101.654 176.5319
25.400000 101.616 175.8779
25.799999 101.584 175.2536
26.200001 101.559 174.6212
26.500000 101.541 174.1248
26.900000 101.515 173.4336
27.200001 101.491 172.9090
27.600000 101.454 172.2294
28.000000 101.413 171.5919
28.500000 101.362 170.8463
29.000000 101.312 170.1330
29.500000 101.260 169.4606
30.000000 101.209 168.8547
30.400000 101.175 168.4014
30.700001 101.154 168.0532
31.100000 101.129 167.5441
31.500000 101.099 166.9805
32.000000 101.048 166.2577
32.500000 100.981 165.6124
33.000000 100.913 165.0886
33.500000 100.857 164.6377
34.000000 100.814 164.1779
34.500000 100.777 163.6635
35.000000 100.739 163.0961
35.500000 100.694 162.5003
36.000000 100.642 161.9059
36.500000 100.585 161.3378
37.000000 100.526 160.8071
37.500000 100.469 160.3084
38.200001 100.393 159.6424
38.700001 100.344 159.1718
39.500000 100.270 158.3785
40.000000 100.220 157.8556
40.599998 100.151 157.2516
41.200001 100.079 156.7254
41.799999 100.013 156.2587
42.500000 99.944 155.7217
43.099998 99.886 155.2565
43.700001 99.827 154.8020
44.400002 99.760 154.2754
45.000000 99.700 153.8207
45.500000 99.648 153.4515
46.200001 99.576 152.9529
46.799999 99.516 152.5237
47.500000 99.444 152.0185
48.200001 99.371 151.5385
48.700001 99.320 151.2135
49.400002 99.252 150.7617
50.000000 99.193 150.3732
50.799999 99.111 149.8846
51.500000 99.042 149.4937
52.200001 98.976 149.0992
53.000000 98.897 148.6179
53.799999 98.806 148.1733
54.500000 98.727 147.8615
55.200001 98.657 147.5652
56.000000 98.583 147.1690
57.000000 98.481 146.6555
58.000000 98.381 146.1932
59.000000 98.285 145.7263
60.000000 98.187 145.2638
60.799999 98.106 144.9073
61.500000 98.034 144.6207
62.200001 97.963 144.3602
63.000000 97.886 144.0652
64.000000 97.788 143.6895
65.000000 97.688 143.3332
66.000000 97.589 143.0097
67.000000 97.493 142.7310
68.000000 97.402 142.4466
69.000000 97.307 142.1727
70.000000 97.213 141.9251
71.000000 97.118 141.6609
72.000000 97.020 141.4170
73.000000 96.927 141.1572
74.000000 96.830 140.8747
75.000000 96.734 140.6430
76.199997 96.631 140.3620
77.500000 96.519 140.0638
78.800003 96.410 139.8206
80.000000 96.308 139.6105
81.199997 96.199 139.4272
82.500000 96.077 139.2657
83.800003 95.959 139.0938
85.000000 95.850 138.9153
86.199997 95.745 138.7524
87.500000 95.638 138.5812
88.500000 95.556 138.4754
90.000000 95.439 138.3774
91.199997 95.348 138.3016
92.500000 95.245 138.1894
93.800003 95.131 138.0392
95.000000 95.016 137.9388
96.199997 94.908 137.9299
97.500000 94.816 137.9308
98.800003 94.737 137.8539
100.000000 94.662 137.7878
101.500000 94.570 137.7379
103.000000 94.466 137.6952
104.400002 94.358 137.6989
106.000000 94.227 137.7027
107.500000 94.102 137.7347
109.000000 93.985 137.7680
110.599998 93.863 137.7886
112.000000 93.753 137.8568
113.800003 93.621 138.0266
115.000000 93.541 138.1455
117.199997 93.412 138.2972
118.000000 93.368 138.3057
120.599998 93.203 138.3143
122.000000 93.107 138.4109
124.099998 92.968 138.6470
125.000000 92.911 138.7547
126.500000 92.821 138.9148
128.000000 92.733 139.0515
131.500000 92.535 139.3436
132.000000 92.506 139.3937
134.000000 92.395 139.6630
136.000000 92.296 139.9271
138.000000 92.189 140.1702
140.000000 92.082 140.4694
143.000000 91.944 140.8597
145.000000 91.853 141.0998
147.500000 91.742 141.4748
150.000000 91.627 141.8878
152.500000 91.514 142.2998
155.000000 91.399 142.6617
157.500000 91.290 143.1476
160.000000 91.200 143.6045
162.500000 91.102 143.9864
165.000000 91.003 144.3927
167.500000 90.905 144.8100
170.000000 90.797 145.2387
172.500000 90.694 145.7095
175.000000 90.617 146.1877
177.500000 90.552 146.7683
180.000000 90.486 147.3763
182.500000 90.400 147.8123
185.000000 90.312 148.1616
187.500000 90.244 148.5032
190.000000 90.170 148.9004
192.500000 90.074 149.3685
195.000000 89.967 149.8808
197.500000 89.878 150.4085
200.000000 89.815 150.8803
203.000000 89.761 151.3739
206.000000 89.722 151.8503
209.000000 89.691 152.4406
212.000000 89.662 153.1647
214.000000 89.635 153.6490
218.000000 89.563 154.4939
220.000000 89.528 154.8640
224.000000 89.465 155.6344
227.000000 89.419 156.2181
230.000000 89.374 156.7689
233.000000 89.334 157.3254
236.000000 89.304 157.8844
240.000000 89.265 158.6335
243.000000 89.225 159.1528
247.000000 89.168 159.6844
250.000000 89.148 160.0706
254.000000 89.133 160.7293
258.000000 89.110 161.4391
262.000000 89.084 162.0775
265.000000 89.065 162.5155
269.000000 89.038 163.0842
272.000000 89.019 163.5164
276.000000 89.000 164.0845
280.000000 88.990 164.6783
285.000000 88.978 165.4216
290.000000 88.976 166.0961
295.000000 88.976 166.7243
300.000000 88.973 167.3633
304.000000 88.971 167.8769
307.000000 88.970 168.2415
311.000000 88.972 168.6885
315.000000 88.975 169.1265
320.000000 88.975 169.6770
325.000000 88.978 170.1994
330.000000 88.983 170.7164
335.000000 88.987 171.2346
340.000000 88.990 171.7547
345.000000 88.993 172.2394
350.000000 88.996 172.7103
355.000000 88.999 173.1660
360.000000 89.002 173.6138
365.000000 89.007 174.0707
370.000000 89.014 174.5169
375.000000 89.021 174.9340
382.000000 89.030 175.4859
387.000000 89.037 175.8827
395.000000 89.044 176.5226
400.000000 89.046 176.9191
406.000000 89.051 177.3779
412.000000 89.056 177.8131
418.000000 89.061 178.2473
425.000000 89.070 178.7491
431.000000 89.080 179.1513
437.000000 89.090 179.5545
444.000000 89.099 179.9987
450.000000 89.100 -179.6515
455.000000 89.104 -179.3502
462.000000 89.113 -178.9041
468.000000 89.122 -178.5320
475.000000 89.126 -178.1176
482.000000 89.132 -177.6758
487.000000 89.140 -177.3604
494.000000 89.149 -176.9270
500.000000 89.157 -176.5670
508.000000 89.172 -176.0984
515.000000 89.184 -175.7019
522.000000 89.197 -175.3058
530.000000 89.213 -174.8631
538.000000 89.227 -174.4180
545.000000 89.238 -174.0193
552.000000 89.248 -173.6156
560.000000 89.264 -173.1556
570.000000 89.285 -172.5934
580.000000 89.304 -172.0557
590.000000 89.326 -171.5327
600.000000 89.347 -170.9886
608.000000 89.361 -170.5299
615.000000 89.376 -170.1465
622.000000 89.391 -169.7905
630.000000 89.408 -169.3900
640.000000 89.427 -168.8773
650.000000 89.443 -168.3504
660.000000 89.459 -167.8194
670.000000 89.481 -167.3022
680.000000 89.505 -166.7872
690.000000 89.526 -166.2679
700.000000 89.542 -165.7492
710.000000 89.556 -165.2203
720.000000 89.571 -164.7311
730.000000 89.592 -164.2202
740.000000 89.622 -163.6185
750.000000 89.649 -163.0367
762.000000 89.683 -162.3868
775.000000 89.724 -161.6730
788.000000 89.766 -160.9458
800.000000 89.808 -160.2761
812.000000 89.853 -159.6118
825.000000 89.903 -158.9001
838.000000 89.958 -158.2080
850.000000 90.011 -157.5806
862.000000 90.065 -156.9509
875.000000 90.126 -156.2610
885.000000 90.175 -155.7479
900.000000 90.255 -154.9965
912.000000 90.324 -154.4089
925.000000 90.399 -153.7777
938.000000 90.476 -153.1620
950.000000 90.549 -152.6167
962.000000 90.624 -152.0996
975.000000 90.710 -151.5632
988.000000 90.802 -151.0487
1000.000000 90.891 -150.6110
1015.000000 91.002 -150.1052
1030.000000 91.111 -149.6144
1044.000000 91.209 -149.1847
1060.000000 91.322 -148.7541
1075.000000 91.430 -148.3939
1090.000000 91.544 -148.0702
1106.000000 91.673 -147.7631
1120.000000 91.789 -147.5268
1138.000000 91.934 -147.2683
1150.000000 92.029 -147.1174
1172.000000 92.197 -146.8773
1180.000000 92.257 -146.8029
1206.000000 92.451 -146.6058
1220.000000 92.556 -146.5241
1241.000000 92.710 -146.4242
1250.000000 92.774 -146.3860
1265.000000 92.878 -146.3299
1280.000000 92.982 -146.2873
1315.000000 93.217 -146.2173
1320.000000 93.249 -146.2084
1340.000000 93.366 -146.1760
1360.000000 93.462 -146.1469
1380.000000 93.553 -146.1288
1400.000000 93.656 -146.1099
1430.000000 93.816 -146.0805
1450.000000 93.924 -146.0697
1475.000000 94.058 -146.0544
1500.000000 94.185 -146.0334
1525.000000 94.307 -146.0066
1550.000000 94.424 -145.9838
1575.000000 94.539 -145.9686
1600.000000 94.654 -145.9522
1625.000000 94.769 -145.9397
1650.000000 94.885 -145.9412
1675.000000 95.000 -145.9484
1700.000000 95.115 -145.9562
1725.000000 95.230 -145.9784
1750.000000 95.347 -146.0185
1775.000000 95.465 -146.0729
1800.000000 95.581 -146.1412
1825.000000 95.696 -146.2193
1850.000000 95.814 -146.3239
1875.000000 95.934 -146.4560
1900.000000 96.055 -146.6060
1925.000000 96.174 -146.7772
1950.000000 96.292 -146.9716
1975.000000 96.411 -147.1964
2000.000000 96.532 -147.4500
2030.000000 96.677 -147.7937
2060.000000 96.821 -148.1794
2090.000000 96.962 -148.6069
2120.000000 97.100 -149.0820
2140.000000 97.192 -149.4244
2180.000000 97.372 -150.1734
2200.000000 97.458 -150.5807
2240.000000 97.623 -151.4566
2270.000000 97.738 -152.1603
2300.000000 97.847 -152.9109
2330.000000 97.950 -153.7011
2360.000000 98.046 -154.5292
2400.000000 98.164 -155.6885
2430.000000 98.244 -156.5942
2470.000000 98.336 -157.8403
2500.000000 98.395 -158.7954
2540.000000 98.459 -160.0967
2580.000000 98.506 -161.4106
2620.000000 98.535 -162.7244
2650.000000 98.546 -163.7040
2690.000000 98.546 -164.9923
2720.000000 98.536 -165.9372
2760.000000 98.509 -167.1642
2800.000000 98.470 -168.3428
2850.000000 98.403 -169.7330
2900.000000 98.317 -171.0062
2950.000000 98.219 -172.1520
3000.000000 98.115 -173.1664
3040.000000 98.036 -173.8983
3070.000000 97.980 -174.4182
3110.000000 97.910 -175.0927
3150.000000 97.841 -175.7724
3200.000000 97.748 -176.6415
3250.000000 97.640 -177.4938
3300.000000 97.517 -178.2873
3350.000000 97.387 -178.9984
3400.000000 97.256 -179.6232
3450.000000 97.126 179.8432
3500.000000 96.998 179.4017
3550.000000 96.869 179.0535
3600.000000 96.741 178.7971
3650.000000 96.621 178.6289
3700.000000 96.509 178.5450
3750.000000 96.405 178.5432
3820.000000 96.271 178.6574
3870.000000 96.186 178.7991
3950.000000 96.079 179.0657
4000.000000 96.031 179.2261
4060.000000 95.991 179.3737
4120.000000 95.965 179.4450
4180.000000 95.947 179.4263
4250.000000 95.928 179.3180
4310.000000 95.913 179.1891
4370.000000 95.901 179.0417
4440.000000 95.900 178.8060
4500.000000 95.913 178.4705
4550.000000 95.930 178.0438
4620.000000 95.952 177.1910
4680.000000 95.961 176.2289
4750.000000 95.946 174.8894
4820.000000 95.897 173.3737
4870.000000 95.836 172.2141
4940.000000 95.714 170.5240
5000.000000 95.574 169.0533
5080.000000 95.335 167.1151
5150.000000 95.081 165.4798
5220.000000 94.786 163.9347
5300.000000 94.392 162.3414
5380.000000 93.933 161.0686
5450.000000 93.482 160.3842
5520.000000 93.006 160.2347
5600.000000 92.472 160.7377
5700.000000 91.872 162.1473
5800.000000 91.361 164.0408
5900.000000 90.925 166.1920
6000.000000 90.563 168.5165
6080.000000 90.323 170.4669
6150.000000 90.145 172.2286
6220.000000 89.997 174.0338
6300.000000 89.865 176.1358
6400.000000 89.754 178.7961
6500.000000 89.705 -178.5358
6600.000000 89.714 -175.8921
6700.000000 89.783 -173.3158
6800.000000 89.924 -170.8500
6900.000000 90.150 -168.5273
7000.000000 90.462 -166.3783
7100.000000 90.855 -164.4477
7200.000000 91.335 -162.8251
7300.000000 91.905 -161.6435
7400.000000 92.561 -161.0931
7500.000000 93.301 -161.4281
7620.000000 94.277 -163.4178
7750.000000 95.320 -168.1294
7880.000000 96.071 -175.8325
8000.000000 96.333 174.9725
8120.000000 96.097 165.3082
8250.000000 95.327 156.3364
8380.000000 94.206 150.1775
8500.000000 93.053 147.0646
8620.000000 91.916 145.9599
8750.000000 90.776 146.4095
8850.000000 89.988 147.5581
9000.000000 88.961 150.1160
9120.000000 88.251 152.6849
9250.000000 87.570 156.0244
9380.000000 87.004 160.0031
9500.000000 86.622 164.0389
9620.000000 86.383 168.1215
9750.000000 86.267 172.3907
9880.000000 86.277 176.4133
10000.000000 86.383 179.8591
10150.000000 86.638 -176.2981
10300.000000 87.020 -173.1446
10440.000000 87.482 -171.0361
10600.000000 88.102 -169.9210
10750.000000 88.712 -170.4371
10900.000000 89.262 -172.6659
11060.000000 89.659 -176.8137
11200.000000 89.760 178.5703
11380.000000 89.501 172.5190
11500.000000 89.113 169.1154
11720.000000 88.120 165.1370
11800.000000 87.716 164.4462
12060.000000 86.425 164.4412
12200.000000 85.784 165.4636
12410.000000 84.902 167.8233
12500.000000 84.549 169.0760
12650.000000 83.990 171.4670
12800.000000 83.479 174.2328
13150.000000 82.539 -178.1651
13200.000000 82.437 -177.0073
13400.000000 82.105 -172.2876
13600.000000 81.918 -167.3097
13800.000000 81.971 -162.5413
14000.000000 82.234 -158.9747
14300.000000 82.757 -156.9133
14500.000000 83.005 -157.8952
14750.000000 82.980 -161.0410
15000.000000 82.492 -164.4891
15250.000000 81.653 -166.5884
15500.000000 80.675 -166.9160
15750.000000 79.713 -165.6640
16000.000000 78.836 -163.8001
16250.000000 77.885 -162.2932
16500.000000 76.617 -159.5111
16750.000000 75.174 -153.3203
17000.000000 73.946 -144.0199
17250.000000 73.181 -133.2461
17500.000000 72.955 -122.4667
17750.000000 73.262 -112.9078
18000.000000 74.035 -106.1062
18250.000000 75.044 -104.2043
18500.000000 75.812 -108.8633
18750.000000 75.805 -118.1686
19000.000000 74.790 -126.0059
19250.000000 72.939 -127.5106
19500.000000 70.582 -122.4389
19750.000000 68.024 -112.7202
20000.000000 65.464 -100.0951
20300.000000 62.514 -82.4169
20600.000000 59.839 -62.5204
20900.000000 57.451 -40.9207
21200.000000 55.330 -18.2703
21400.000000 54.054 -3.1904
21800.000000 51.701 24.7737
22000.000000 50.483 36.4321
22400.000000 47.457 38.1861
22700.000000 44.341 -82.4766
23000.000000 40.341 47.1884
23300.000000 35.320 -131.0220
23600.000000 29.152 -6.1875
24000.000000 20.308 -73.6826
