* Measurement data measured by REW V5.20.13
* Source: Headset (DS by VECLAN.COM), MICROPHONE (Master Volume), L, volume: 1.000
* Format: 2M Log Swept Sine, 1 sweep at -12.0 dBFS with no timing reference
* Dated: May 11, 2023 5:54:00 PM
* REW Settings:
*  C-weighting compensation: Off
*  Target level: 75.0 dB
* Note: ; 
* Measurement: Cadenza 12 R
* Smoothing: 1/24 octave
* Frequency Step: 1/48 octave
* Start Frequency: 1.000 Hz
*
* Freq(Hz) SPL(dB) Phase(degrees)
1.000000 67.577 61.8359
1.015000 67.901 59.8541
1.030000 68.220 57.9477
1.044000 68.512 56.2436
1.060000 68.839 54.3935
1.075000 69.138 52.7620
1.090000 69.428 51.2383
1.106000 69.727 49.7401
1.120000 69.986 48.5331
1.138000 70.317 47.1130
1.150000 70.537 46.2429
1.172000 70.936 44.7930
1.180000 71.080 44.3087
1.206000 71.544 42.8750
1.220000 71.791 42.1823
1.241000 72.159 41.2309
1.250000 72.315 40.8511
1.265000 72.574 40.2495
1.280000 72.830 39.6808
1.315000 73.420 38.4409
1.320000 73.503 38.2698
1.340000 73.832 37.5892
1.360000 74.158 36.9022
1.380000 74.478 36.1914
1.400000 74.794 35.4395
1.430000 75.258 34.1965
1.450000 75.561 33.2660
1.475000 75.933 31.9681
1.500000 76.296 30.5964
1.525000 76.651 29.1799
1.550000 76.997 27.7274
1.575000 77.336 26.2479
1.600000 77.668 24.7503
1.625000 77.993 23.2435
1.650000 78.311 21.7365
1.675000 78.623 20.2381
1.700000 78.929 18.7573
1.725000 79.230 17.3030
1.750000 79.526 15.8842
1.775000 79.817 14.5098
1.800000 80.104 13.1886
1.825000 80.387 11.9296
1.850000 80.665 10.7362
1.875000 80.937 9.5965
1.900000 81.203 8.5042
1.925000 81.463 7.4537
1.950000 81.717 6.4393
1.975000 81.966 5.4554
2.000000 82.209 4.4962
2.030000 82.496 3.3699
2.060000 82.776 2.2612
2.090000 83.050 1.1603
2.120000 83.318 0.0573
2.140000 83.494 -0.6840
2.180000 83.841 -2.1940
2.200000 84.011 -2.9684
2.240000 84.344 -4.5320
2.270000 84.586 -5.7067
2.300000 84.821 -6.8812
2.330000 85.051 -8.0540
2.360000 85.275 -9.2234
2.400000 85.566 -10.7744
2.430000 85.778 -11.9295
2.470000 86.055 -13.4555
2.500000 86.258 -14.5873
2.540000 86.522 -16.0763
2.580000 86.781 -17.5406
2.620000 87.032 -18.9920
2.650000 87.214 -20.0727
2.690000 87.449 -21.5007
2.720000 87.621 -22.5606
2.760000 87.844 -23.9568
2.800000 88.060 -25.3308
2.850000 88.323 -27.0129
2.900000 88.578 -28.6506
2.950000 88.826 -30.2374
3.000000 89.064 -31.7642
3.040000 89.247 -32.9479
3.070000 89.380 -33.8175
3.110000 89.554 -34.9575
3.150000 89.723 -36.0805
3.200000 89.928 -37.4695
3.250000 90.127 -38.8527
3.300000 90.321 -40.2415
3.350000 90.510 -41.6398
3.400000 90.691 -43.0388
3.450000 90.865 -44.4293
3.500000 91.034 -45.8022
3.550000 91.198 -47.1482
3.600000 91.358 -48.4582
3.650000 91.514 -49.7231
3.700000 91.668 -50.9337
3.750000 91.816 -52.0914
3.820000 92.016 -53.6446
3.870000 92.155 -54.7208
3.950000 92.370 -56.4165
4.000000 92.501 -57.4772
4.060000 92.655 -58.7656
4.120000 92.805 -60.0562
4.180000 92.950 -61.3402
4.250000 93.115 -62.8215
4.310000 93.252 -64.0696
4.370000 93.387 -65.2910
4.440000 93.539 -66.6738
4.500000 93.667 -67.8231
4.550000 93.770 -68.7615
4.620000 93.911 -70.0551
4.680000 94.028 -71.1540
4.750000 94.160 -72.4361
4.820000 94.287 -73.7243
4.870000 94.375 -74.6432
4.940000 94.494 -75.9232
5.000000 94.593 -77.0097
5.080000 94.719 -78.4361
5.150000 94.823 -79.6573
5.220000 94.923 -80.8592
5.300000 95.030 -82.2100
5.380000 95.132 -83.5334
5.450000 95.216 -84.6662
5.520000 95.296 -85.7738
5.600000 95.381 -87.0143
5.700000 95.480 -88.5228
5.800000 95.572 -89.9757
5.900000 95.660 -91.3645
6.000000 95.741 -92.6921
6.080000 95.802 -93.7116
6.150000 95.855 -94.5728
6.220000 95.908 -95.4054
6.300000 95.968 -96.3163
6.400000 96.041 -97.3944
6.500000 96.115 -98.4249
6.600000 96.192 -99.4287
6.700000 96.272 -100.3967
6.800000 96.355 -101.3287
6.900000 96.441 -102.2468
7.000000 96.529 -103.1688
7.100000 96.621 -104.0783
7.200000 96.716 -104.9856
7.300000 96.810 -105.9090
7.400000 96.904 -106.8596
7.500000 96.998 -107.8280
7.620000 97.109 -109.0109
7.750000 97.221 -110.3181
7.880000 97.326 -111.6594
8.000000 97.415 -112.9071
8.120000 97.495 -114.1476
8.250000 97.570 -115.4985
8.380000 97.636 -116.8256
8.500000 97.687 -118.0067
8.620000 97.728 -119.1584
8.750000 97.766 -120.3548
8.850000 97.791 -121.2269
9.000000 97.821 -122.4646
9.120000 97.843 -123.3979
9.250000 97.868 -124.3499
9.380000 97.892 -125.2398
9.500000 97.914 -126.0254
9.620000 97.937 -126.7823
9.750000 97.961 -127.5642
9.880000 97.981 -128.3304
10.000000 97.993 -129.0320
10.150000 98.001 -129.8941
10.300000 98.003 -130.7519
10.440000 97.997 -131.5522
10.600000 97.985 -132.4547
10.750000 97.972 -133.2852
10.900000 97.957 -134.0990
11.060000 97.938 -134.9291
11.200000 97.920 -135.6247
11.380000 97.896 -136.4756
11.500000 97.881 -137.0108
11.720000 97.857 -137.9480
11.800000 97.852 -138.2789
12.060000 97.841 -139.3258
12.200000 97.841 -139.8977
12.410000 97.846 -140.7664
12.500000 97.847 -141.1503
12.650000 97.850 -141.8063
12.800000 97.850 -142.4723
13.150000 97.832 -144.0493
13.200000 97.828 -144.2683
13.400000 97.805 -145.1313
13.600000 97.778 -145.9392
13.800000 97.748 -146.6775
14.000000 97.720 -147.3482
14.300000 97.686 -148.2397
14.500000 97.674 -148.7890
14.750000 97.669 -149.4791
15.000000 97.677 -150.1992
15.250000 97.690 -150.9849
15.500000 97.700 -151.8184
15.750000 97.703 -152.6807
16.000000 97.693 -153.5261
16.250000 97.674 -154.3095
16.500000 97.651 -155.0140
16.750000 97.630 -155.6236
17.000000 97.617 -156.1653
17.250000 97.614 -156.6641
17.500000 97.622 -157.1542
17.750000 97.637 -157.6716
18.000000 97.655 -158.2227
18.250000 97.672 -158.8135
18.500000 97.685 -159.4266
18.750000 97.692 -160.0472
19.000000 97.695 -160.6612
19.250000 97.693 -161.2548
19.500000 97.688 -161.8252
19.750000 97.680 -162.3698
20.000000 97.668 -162.8866
20.299999 97.651 -163.4630
20.600000 97.633 -163.9851
20.900000 97.615 -164.4510
21.200001 97.603 -164.8723
21.400000 97.600 -165.1477
21.799999 97.602 -165.7305
22.000000 97.605 -166.0567
22.400000 97.605 -166.7922
22.700001 97.593 -167.3823
23.000000 97.569 -167.9462
23.299999 97.538 -168.4366
23.600000 97.509 -168.8449
24.000000 97.484 -169.3069
24.299999 97.479 -169.6649
24.700001 97.480 -170.2362
25.000000 97.475 -170.7334
25.400000 97.450 -171.4048
25.799999 97.410 -171.9567
26.200001 97.376 -172.3426
26.500000 97.366 -172.5791
26.900000 97.375 -172.9418
27.200001 97.387 -173.3105
27.600000 97.394 -173.9270
28.000000 97.379 -174.5785
28.500000 97.335 -175.2623
29.000000 97.291 -175.7658
29.500000 97.261 -176.2076
30.000000 97.233 -176.6554
30.400000 97.208 -176.9822
30.700001 97.193 -177.1948
31.100000 97.183 -177.4731
31.500000 97.184 -177.8182
32.000000 97.183 -178.4101
32.500000 97.155 -179.0896
33.000000 97.100 -179.6558
33.500000 97.045 179.9745
34.000000 97.013 179.7032
34.500000 97.000 179.3900
35.000000 96.993 178.9958
35.500000 96.982 178.5547
36.000000 96.966 178.0862
36.500000 96.943 177.5880
37.000000 96.908 177.0909
37.500000 96.859 176.6578
38.200001 96.785 176.2165
38.700001 96.738 175.9815
39.500000 96.677 175.6453
40.000000 96.644 175.4489
40.599998 96.613 175.2146
41.200001 96.591 174.9506
41.799999 96.576 174.6349
42.500000 96.561 174.1802
43.099998 96.545 173.7122
43.700001 96.516 173.2252
44.400002 96.468 172.7399
45.000000 96.430 172.4233
45.500000 96.405 172.1873
46.200001 96.375 171.8391
46.799999 96.348 171.5286
47.500000 96.313 171.1967
48.200001 96.279 170.8933
48.700001 96.256 170.6741
49.400002 96.221 170.3624
50.000000 96.189 170.1074
50.799999 96.146 169.7795
51.500000 96.107 169.4905
52.200001 96.064 169.2197
53.000000 96.017 168.9379
53.799999 95.970 168.6608
54.500000 95.929 168.4388
55.200001 95.892 168.2334
56.000000 95.855 167.9748
57.000000 95.810 167.6455
58.000000 95.774 167.2772
59.000000 95.725 166.8113
60.000000 95.657 166.4979
60.799999 95.614 166.3794
61.500000 95.590 166.2839
62.200001 95.572 166.1542
63.000000 95.549 165.9539
64.000000 95.505 165.6913
65.000000 95.452 165.5026
66.000000 95.402 165.3298
67.000000 95.351 165.1093
68.000000 95.293 164.8790
69.000000 95.239 164.6918
70.000000 95.200 164.4966
71.000000 95.172 164.2307
72.000000 95.141 163.9096
73.000000 95.097 163.6263
74.000000 95.053 163.4624
75.000000 95.015 163.3268
76.199997 94.960 163.2176
77.500000 94.917 163.1799
78.800003 94.882 162.9701
80.000000 94.833 162.7130
81.199997 94.772 162.4995
82.500000 94.702 162.3773
83.800003 94.640 162.3797
85.000000 94.600 162.3799
86.199997 94.566 162.2956
87.500000 94.526 162.1306
88.500000 94.492 161.9812
90.000000 94.440 161.7831
91.199997 94.400 161.6445
92.500000 94.356 161.5252
93.800003 94.311 161.4491
95.000000 94.271 161.3968
96.199997 94.230 161.3373
97.500000 94.187 161.2664
98.800003 94.144 161.2026
100.000000 94.105 161.1726
101.500000 94.060 161.1662
103.000000 94.016 161.1485
104.400002 93.973 161.0954
106.000000 93.925 160.9683
107.500000 93.875 160.8024
109.000000 93.823 160.7113
110.599998 93.777 160.7063
112.000000 93.744 160.7362
113.800003 93.704 160.6995
115.000000 93.671 160.6172
117.199997 93.599 160.4652
118.000000 93.573 160.4585
120.599998 93.523 160.5347
122.000000 93.494 160.5226
124.099998 93.437 160.5325
125.000000 93.410 160.5203
126.500000 93.364 160.4708
128.000000 93.320 160.4296
131.500000 93.244 160.4770
132.000000 93.236 160.4897
134.000000 93.202 160.5214
136.000000 93.162 160.5262
138.000000 93.122 160.5436
140.000000 93.090 160.5515
143.000000 93.040 160.5544
145.000000 93.003 160.5794
147.500000 92.957 160.5991
150.000000 92.917 160.6083
152.500000 92.886 160.5796
155.000000 92.848 160.5635
157.500000 92.809 160.6298
160.000000 92.767 160.7190
162.500000 92.722 160.8199
165.000000 92.685 160.9162
167.500000 92.657 160.9610
170.000000 92.619 160.9873
172.500000 92.579 161.0390
175.000000 92.543 161.0474
177.500000 92.506 161.0529
180.000000 92.470 161.1142
182.500000 92.436 161.1911
185.000000 92.404 161.2374
187.500000 92.368 161.2798
190.000000 92.328 161.3568
192.500000 92.291 161.4280
195.000000 92.263 161.4642
197.500000 92.237 161.4915
200.000000 92.211 161.5303
203.000000 92.178 161.5772
206.000000 92.144 161.6692
209.000000 92.112 161.8218
212.000000 92.080 161.9511
214.000000 92.060 162.0115
218.000000 92.020 162.1196
220.000000 92.000 162.1760
224.000000 91.963 162.2451
227.000000 91.937 162.2806
230.000000 91.910 162.3544
233.000000 91.886 162.4598
236.000000 91.864 162.5448
240.000000 91.828 162.6419
243.000000 91.797 162.7229
247.000000 91.761 162.8190
250.000000 91.742 162.8735
254.000000 91.722 162.9811
258.000000 91.699 163.1139
262.000000 91.670 163.2221
265.000000 91.646 163.2999
269.000000 91.618 163.4128
272.000000 91.600 163.4878
276.000000 91.577 163.5773
280.000000 91.554 163.6920
285.000000 91.523 163.8645
290.000000 91.499 163.9933
295.000000 91.482 164.0930
300.000000 91.463 164.2166
304.000000 91.446 164.3325
307.000000 91.436 164.4181
311.000000 91.427 164.5089
315.000000 91.419 164.5776
320.000000 91.408 164.6300
325.000000 91.395 164.6791
330.000000 91.379 164.7704
335.000000 91.362 164.8683
340.000000 91.345 164.9569
345.000000 91.325 165.0430
350.000000 91.301 165.1237
355.000000 91.279 165.1853
360.000000 91.258 165.2587
365.000000 91.235 165.3265
370.000000 91.213 165.3832
375.000000 91.194 165.4385
382.000000 91.169 165.5522
387.000000 91.153 165.6626
395.000000 91.128 165.7691
400.000000 91.108 165.8059
406.000000 91.083 165.8740
412.000000 91.058 165.9719
418.000000 91.031 166.0812
425.000000 90.991 166.2371
431.000000 90.959 166.3586
437.000000 90.934 166.4523
444.000000 90.913 166.5374
450.000000 90.897 166.6002
455.000000 90.880 166.6690
462.000000 90.854 166.7819
468.000000 90.833 166.8779
475.000000 90.804 166.9778
482.000000 90.773 167.0713
487.000000 90.754 167.1453
494.000000 90.731 167.2674
500.000000 90.713 167.3719
508.000000 90.688 167.4575
515.000000 90.670 167.5259
522.000000 90.650 167.6085
530.000000 90.622 167.6829
538.000000 90.586 167.8116
545.000000 90.555 167.9605
552.000000 90.521 168.0886
560.000000 90.482 168.1849
570.000000 90.436 168.3356
580.000000 90.383 168.5707
590.000000 90.325 168.8144
600.000000 90.273 169.0220
608.000000 90.221 169.2276
615.000000 90.171 169.4638
622.000000 90.115 169.7195
630.000000 90.049 170.0213
640.000000 89.980 170.4131
650.000000 89.926 170.9083
660.000000 89.859 171.5901
670.000000 89.788 172.3236
680.000000 89.732 173.1475
690.000000 89.693 174.0460
700.000000 89.682 174.9829
710.000000 89.695 175.9337
720.000000 89.726 176.9010
730.000000 89.776 177.8260
740.000000 89.842 178.6467
750.000000 89.916 179.3817
762.000000 90.011 -179.8810
775.000000 90.122 -179.2537
788.000000 90.233 -178.7436
800.000000 90.327 -178.3363
812.000000 90.413 -178.0104
825.000000 90.501 -177.7163
838.000000 90.584 -177.4415
850.000000 90.658 -177.2240
862.000000 90.729 -177.0130
875.000000 90.803 -176.7753
885.000000 90.857 -176.6011
900.000000 90.938 -176.3547
912.000000 91.003 -176.1609
925.000000 91.077 -175.9767
938.000000 91.153 -175.8214
950.000000 91.224 -175.6842
962.000000 91.293 -175.5481
975.000000 91.365 -175.4227
988.000000 91.437 -175.3277
1000.000000 91.502 -175.2581
1015.000000 91.584 -175.1822
1030.000000 91.666 -175.1411
1044.000000 91.743 -175.1469
1060.000000 91.827 -175.1787
1075.000000 91.901 -175.2258
1090.000000 91.980 -175.3003
1106.000000 92.075 -175.4182
1120.000000 92.164 -175.5589
1138.000000 92.275 -175.7697
1150.000000 92.344 -175.9167
1172.000000 92.460 -176.2000
1180.000000 92.499 -176.3112
1206.000000 92.620 -176.6933
1220.000000 92.683 -176.9020
1241.000000 92.779 -177.2212
1250.000000 92.820 -177.3609
1265.000000 92.888 -177.5981
1280.000000 92.952 -177.8342
1315.000000 93.079 -178.3272
1320.000000 93.095 -178.3907
1340.000000 93.150 -178.6410
1360.000000 93.186 -178.8853
1380.000000 93.220 -179.1009
1400.000000 93.265 -179.2887
1430.000000 93.342 -179.5341
1450.000000 93.393 -179.6694
1475.000000 93.456 -179.7990
1500.000000 93.516 -179.9039
1525.000000 93.571 -179.9605
1550.000000 93.622 -179.9799
1575.000000 93.678 -179.9792
1600.000000 93.744 -179.9630
1625.000000 93.815 -179.9272
1650.000000 93.884 -179.8590
1675.000000 93.954 -179.7715
1700.000000 94.027 -179.6735
1725.000000 94.106 -179.5656
1750.000000 94.193 -179.4529
1775.000000 94.291 -179.3436
1800.000000 94.398 -179.2399
1825.000000 94.511 -179.1405
1850.000000 94.628 -179.0467
1875.000000 94.747 -178.9589
1900.000000 94.871 -178.8863
1925.000000 95.001 -178.8404
1950.000000 95.136 -178.8136
1975.000000 95.275 -178.8101
2000.000000 95.421 -178.8348
2030.000000 95.607 -178.9139
2060.000000 95.805 -179.0623
2090.000000 96.011 -179.2767
2120.000000 96.223 -179.5722
2140.000000 96.368 -179.8205
2180.000000 96.665 179.5407
2200.000000 96.816 179.1406
2240.000000 97.118 178.1758
2270.000000 97.343 177.3010
2300.000000 97.564 176.2924
2330.000000 97.777 175.1531
2360.000000 97.977 173.8882
2400.000000 98.216 172.0269
2430.000000 98.371 170.5288
2470.000000 98.542 168.4318
2500.000000 98.647 166.8088
2540.000000 98.753 164.6358
2580.000000 98.822 162.4999
2620.000000 98.855 160.4540
2650.000000 98.859 158.9955
2690.000000 98.838 157.1735
2720.000000 98.809 155.9007
2760.000000 98.759 154.3189
2800.000000 98.702 152.8660
2850.000000 98.618 151.2262
2900.000000 98.524 149.7586
2950.000000 98.429 148.4148
3000.000000 98.334 147.1870
3040.000000 98.251 146.2993
3070.000000 98.185 145.6918
3110.000000 98.097 144.9529
3150.000000 98.013 144.2861
3200.000000 97.917 143.5330
3250.000000 97.830 142.8253
3300.000000 97.749 142.1303
3350.000000 97.673 141.4285
3400.000000 97.599 140.7196
3450.000000 97.526 140.0034
3500.000000 97.447 139.2803
3550.000000 97.356 138.5672
3600.000000 97.249 137.8956
3650.000000 97.127 137.3054
3700.000000 96.995 136.8391
3750.000000 96.859 136.5294
3820.000000 96.669 136.3849
3870.000000 96.542 136.4762
3950.000000 96.363 136.8941
4000.000000 96.272 137.2807
4060.000000 96.190 137.8133
4120.000000 96.137 138.3767
4180.000000 96.110 138.9418
4250.000000 96.107 139.5596
4310.000000 96.120 140.0351
4370.000000 96.138 140.4442
4440.000000 96.163 140.8198
4500.000000 96.194 141.0550
4550.000000 96.224 141.2101
4620.000000 96.273 141.4109
4680.000000 96.321 141.6090
4750.000000 96.397 141.8654
4820.000000 96.514 142.0526
4870.000000 96.629 142.0368
4940.000000 96.826 141.6360
5000.000000 97.008 140.8289
5080.000000 97.216 139.0397
5150.000000 97.328 136.9187
5220.000000 97.356 134.4776
5300.000000 97.282 131.5316
5380.000000 97.101 128.5959
5450.000000 96.858 126.1232
5520.000000 96.537 123.8045
5600.000000 96.067 121.4694
5700.000000 95.320 119.3857
5800.000000 94.429 118.8321
5900.000000 93.497 120.2999
6000.000000 92.675 123.6512
6080.000000 92.178 127.1559
6150.000000 91.872 130.4356
6220.000000 91.666 133.6993
6300.000000 91.526 137.2731
6400.000000 91.456 141.4150
6500.000000 91.473 145.1883
6600.000000 91.549 148.6401
6700.000000 91.673 151.8147
6800.000000 91.847 154.7271
6900.000000 92.086 157.3718
7000.000000 92.387 159.7320
7100.000000 92.734 161.7648
7200.000000 93.119 163.4077
7300.000000 93.536 164.5729
7400.000000 93.971 165.1712
7500.000000 94.405 165.1468
7620.000000 94.909 164.2379
7750.000000 95.380 162.1501
7880.000000 95.637 159.0366
8000.000000 95.643 155.5948
8120.000000 95.423 152.1534
8250.000000 94.955 149.1029
8380.000000 94.316 147.2780
8500.000000 93.646 146.8683
8620.000000 92.952 147.6427
8750.000000 92.224 149.6263
8850.000000 91.710 151.8095
9000.000000 91.047 155.8886
9120.000000 90.625 159.6378
9250.000000 90.281 163.9962
9380.000000 90.056 168.5007
9500.000000 89.952 172.6662
9620.000000 89.946 176.7310
9750.000000 90.047 -179.1114
9880.000000 90.252 -175.3618
10000.000000 90.522 -172.4066
10150.000000 90.943 -169.5981
10300.000000 91.414 -167.9911
10440.000000 91.839 -167.7267
10600.000000 92.215 -168.8929
10750.000000 92.379 -171.1502
10900.000000 92.305 -173.9959
11060.000000 91.937 -176.8659
11200.000000 91.382 -178.5052
11380.000000 90.448 -178.4383
11500.000000 89.794 -176.8216
11720.000000 88.780 -171.2835
11800.000000 88.509 -168.7249
12060.000000 88.072 -159.7128
12200.000000 88.111 -155.0983
12410.000000 88.452 -149.5676
12500.000000 88.668 -147.9594
12650.000000 89.054 -146.5474
12800.000000 89.384 -146.7920
13150.000000 89.422 -151.8354
13200.000000 89.318 -152.6851
13400.000000 88.651 -155.2808
13600.000000 87.710 -155.8187
13800.000000 86.687 -154.0717
14000.000000 85.742 -150.4427
14300.000000 84.672 -142.7816
14500.000000 84.270 -137.2108
14750.000000 84.121 -131.5152
15000.000000 84.029 -129.1837
15250.000000 83.353 -127.7809
15500.000000 82.415 -120.9436
15750.000000 82.409 -111.2583
16000.000000 83.169 -105.1828
16250.000000 83.844 -104.1055
16500.000000 84.109 -103.0065
16750.000000 85.391 -99.2601
17000.000000 87.372 -105.9579
17250.000000 87.950 -125.7228
17500.000000 87.213 -148.2025
17750.000000 85.506 -172.4717
18000.000000 82.167 169.5583
18250.000000 77.214 168.3971
18500.000000 71.405 -174.7221
18750.000000 66.412 -148.5684
19000.000000 64.325 -126.1897
19250.000000 63.671 -110.5901
19500.000000 62.792 -97.8481
19750.000000 61.536 -85.3407
20000.000000 60.106 -72.8918
20300.000000 58.341 -59.5015
20600.000000 56.492 -50.1491
20900.000000 54.284 -58.6315
21200.000000 51.548 -138.1241
21400.000000 49.445 125.5173
21800.000000 44.757 13.4647
22000.000000 42.227 -6.4762
22400.000000 36.748 88.7608
22700.000000 32.078 170.5844
23000.000000 26.758 -145.8184
23300.000000 20.779 139.1895
23600.000000 14.826 12.4268
24000.000000 10.446 104.0059
