* Measurement data measured by REW V5.20.13
* Source: Headset (DS by VECLAN.COM), MICROPHONE (Master Volume), L, volume: 0.720. Timing signal peak level -16.1 dBFS, measurement signal peak level -15.2 dBFS
* Format: 2M Log Swept Sine, 1 sweep at -12.0 dBFS using an acoustic timing reference
* Dated: Feb 15, 2024 3:43:53 PM
* REW Settings:
*  C-weighting compensation: Off
*  Target level: 75.0 dB
* Note: ; Delay -0.0711 ms (-24 mm, -0.96 in) using estimated IR delay relative to Acoustic reference played from HEADPHONE R with no timing offset
* Measurement: Letshuoer D13 Blue R
* Smoothing: 1/24 octave
* Frequency Step: 1/48 octave
* Start Frequency: 1.000 Hz
*
* Freq(Hz) SPL(dB) Phase(degrees)
1.000000 79.312 28.8002
1.015000 79.536 26.8981
1.030000 79.755 25.0191
1.044000 79.956 23.2912
1.060000 80.178 21.3532
1.075000 80.379 19.5776
1.090000 80.572 17.8477
1.106000 80.769 16.0521
1.120000 80.939 14.4855
1.138000 81.158 12.4680
1.150000 81.303 11.1222
1.172000 81.568 8.6568
1.180000 81.664 7.7617
1.206000 81.973 4.8618
1.220000 82.138 3.3085
1.241000 82.382 0.9929
1.250000 82.486 0.0067
1.265000 82.658 -1.6271
1.280000 82.827 -3.2473
1.315000 83.214 -6.9654
1.320000 83.268 -7.4885
1.340000 83.482 -9.5582
1.360000 83.691 -11.5888
1.380000 83.894 -13.5762
1.400000 84.092 -15.5163
1.430000 84.376 -18.3293
1.450000 84.558 -20.1340
1.475000 84.774 -22.3054
1.500000 84.978 -24.3985
1.525000 85.170 -26.4199
1.550000 85.351 -28.3724
1.575000 85.522 -30.2587
1.600000 85.685 -32.0816
1.625000 85.840 -33.8438
1.650000 85.989 -35.5480
1.675000 86.134 -37.1971
1.700000 86.274 -38.7937
1.725000 86.412 -40.3406
1.750000 86.548 -41.8405
1.775000 86.684 -43.2962
1.800000 86.821 -44.7104
1.825000 86.960 -46.0859
1.850000 87.099 -47.4132
1.875000 87.236 -48.6678
1.900000 87.370 -49.8545
1.925000 87.500 -50.9794
1.950000 87.628 -52.0488
1.975000 87.754 -53.0687
2.000000 87.878 -54.0452
2.030000 88.024 -55.1684
2.060000 88.169 -56.2485
2.090000 88.312 -57.2962
2.120000 88.454 -58.3220
2.140000 88.548 -58.9989
2.180000 88.737 -60.3503
2.200000 88.832 -61.0308
2.240000 89.021 -62.3594
2.270000 89.162 -63.3154
2.300000 89.302 -64.2397
2.330000 89.441 -65.1353
2.360000 89.579 -66.0047
2.400000 89.760 -67.1280
2.430000 89.894 -67.9471
2.470000 90.071 -69.0133
2.500000 90.200 -69.7970
2.540000 90.370 -70.8261
2.580000 90.535 -71.8399
2.620000 90.697 -72.8192
2.650000 90.815 -73.5299
2.690000 90.969 -74.4495
2.720000 91.083 -75.1207
2.760000 91.232 -75.9946
2.800000 91.379 -76.8486
2.850000 91.558 -77.8951
2.900000 91.735 -78.9266
2.950000 91.910 -79.9487
3.000000 92.081 -80.9423
3.040000 92.215 -81.7160
3.070000 92.315 -82.2861
3.110000 92.445 -83.0349
3.150000 92.573 -83.7738
3.200000 92.731 -84.6882
3.250000 92.885 -85.5981
3.300000 93.037 -86.5093
3.350000 93.185 -87.4175
3.400000 93.331 -88.3171
3.450000 93.473 -89.2087
3.500000 93.612 -90.0929
3.550000 93.748 -90.9703
3.600000 93.881 -91.8416
3.650000 94.010 -92.7073
3.700000 94.137 -93.5665
3.750000 94.260 -94.4170
3.820000 94.426 -95.5957
3.870000 94.541 -96.4312
3.950000 94.719 -97.7609
4.000000 94.826 -98.5900
4.060000 94.950 -99.5857
4.120000 95.069 -100.5829
4.180000 95.183 -101.5783
4.250000 95.311 -102.7324
4.310000 95.416 -103.7112
4.370000 95.516 -104.6765
4.440000 95.627 -105.7840
4.500000 95.716 -106.7227
4.550000 95.788 -107.4967
4.620000 95.882 -108.5662
4.680000 95.959 -109.4680
4.750000 96.044 -110.5007
4.820000 96.125 -111.5137
4.870000 96.179 -112.2274
4.940000 96.250 -113.2103
5.000000 96.307 -114.0351
5.080000 96.380 -115.1059
5.150000 96.441 -116.0120
5.220000 96.498 -116.8895
5.300000 96.559 -117.8602
5.380000 96.616 -118.7999
5.450000 96.665 -119.5992
5.520000 96.713 -120.3783
5.600000 96.766 -121.2367
5.700000 96.830 -122.2688
5.800000 96.892 -123.2698
5.900000 96.954 -124.2518
6.000000 97.017 -125.2019
6.080000 97.067 -125.9451
6.150000 97.110 -126.5903
6.220000 97.153 -127.2367
6.300000 97.201 -127.9756
6.400000 97.262 -128.8920
6.500000 97.320 -129.8068
6.600000 97.375 -130.7272
6.700000 97.428 -131.6571
6.800000 97.477 -132.5915
6.900000 97.523 -133.5233
7.000000 97.562 -134.4478
7.100000 97.596 -135.3744
7.200000 97.625 -136.2930
7.300000 97.649 -137.1892
7.400000 97.667 -138.0582
7.500000 97.679 -138.9095
7.620000 97.687 -139.8904
7.750000 97.692 -140.8815
7.880000 97.690 -141.8036
8.000000 97.687 -142.5963
8.120000 97.687 -143.3295
8.250000 97.688 -144.0509
8.380000 97.690 -144.7232
8.500000 97.696 -145.3151
8.620000 97.710 -145.8667
8.750000 97.729 -146.4531
8.850000 97.748 -146.9150
9.000000 97.784 -147.6057
9.120000 97.815 -148.1746
9.250000 97.849 -148.8243
9.380000 97.886 -149.5009
9.500000 97.916 -150.1427
9.620000 97.939 -150.8039
9.750000 97.959 -151.5417
9.880000 97.968 -152.2736
10.000000 97.962 -152.9395
10.150000 97.942 -153.7604
10.300000 97.910 -154.5269
10.440000 97.868 -155.1902
10.600000 97.816 -155.8944
10.750000 97.770 -156.4951
10.900000 97.725 -157.0477
11.060000 97.683 -157.6205
11.200000 97.652 -158.1023
11.380000 97.614 -158.7183
11.500000 97.590 -159.1342
11.720000 97.546 -159.8931
11.800000 97.528 -160.1694
12.060000 97.466 -161.0490
12.200000 97.427 -161.4809
12.410000 97.363 -162.0609
12.500000 97.334 -162.2585
12.650000 97.284 -162.5266
12.800000 97.236 -162.7150
13.150000 97.157 -162.8211
13.200000 97.152 -162.8167
13.400000 97.149 -162.7324
13.600000 97.174 -162.6691
13.800000 97.230 -162.6640
14.000000 97.302 -162.8077
14.300000 97.429 -163.3352
14.500000 97.507 -163.9129
14.750000 97.586 -164.8117
15.000000 97.636 -165.8590
15.250000 97.653 -166.9409
15.500000 97.642 -167.9714
15.750000 97.606 -168.9002
16.000000 97.553 -169.6775
16.250000 97.494 -170.3085
16.500000 97.436 -170.8028
16.750000 97.385 -171.1806
17.000000 97.346 -171.4818
17.250000 97.322 -171.7356
17.500000 97.313 -171.9775
17.750000 97.317 -172.2556
18.000000 97.330 -172.5941
18.250000 97.349 -173.0190
18.500000 97.366 -173.5385
18.750000 97.376 -174.1345
19.000000 97.374 -174.7891
19.250000 97.358 -175.4516
19.500000 97.329 -176.0824
19.750000 97.287 -176.6498
20.000000 97.240 -177.1196
20.299999 97.183 -177.5571
20.600000 97.135 -177.8767
20.900000 97.101 -178.1218
21.200001 97.082 -178.3503
21.400000 97.077 -178.5229
21.799999 97.074 -178.9471
22.000000 97.073 -179.2050
22.400000 97.058 -179.7930
22.700001 97.031 179.7531
23.000000 96.989 179.3527
23.299999 96.936 179.0605
23.600000 96.882 178.9050
24.000000 96.826 178.9020
24.299999 96.809 178.9844
24.700001 96.823 179.0581
25.000000 96.853 178.9765
25.400000 96.899 178.6042
25.799999 96.921 177.9750
26.200001 96.902 177.2590
26.500000 96.865 176.7846
26.900000 96.804 176.3196
27.200001 96.765 176.0787
27.600000 96.734 175.7910
28.000000 96.722 175.3878
28.500000 96.698 174.6443
29.000000 96.630 173.8506
29.500000 96.531 173.3235
30.000000 96.450 173.1510
30.400000 96.423 173.1196
30.700001 96.423 173.0573
31.100000 96.439 172.8499
31.500000 96.454 172.5076
32.000000 96.459 171.9830
32.500000 96.445 171.4598
33.000000 96.418 171.0087
33.500000 96.386 170.6600
34.000000 96.360 170.3897
34.500000 96.346 170.1011
35.000000 96.330 169.7170
35.500000 96.293 169.2867
36.000000 96.239 168.9452
36.500000 96.187 168.7330
37.000000 96.155 168.5258
37.500000 96.132 168.1905
38.200001 96.074 167.5856
38.700001 96.015 167.2445
39.500000 95.941 166.9039
40.000000 95.913 166.6838
40.599998 95.883 166.3882
41.200001 95.857 166.1265
41.799999 95.844 165.8557
42.500000 95.829 165.4214
43.099998 95.800 165.0052
43.700001 95.757 164.6526
44.400002 95.703 164.3195
45.000000 95.656 164.0599
45.500000 95.616 163.8636
46.200001 95.566 163.6069
46.799999 95.531 163.3600
47.500000 95.490 163.0467
48.200001 95.456 162.7617
48.700001 95.441 162.5492
49.400002 95.425 162.1585
50.000000 95.398 161.7756
50.799999 95.340 161.4067
51.500000 95.294 161.2670
52.200001 95.264 161.1617
53.000000 95.235 160.9653
53.799999 95.196 160.6888
54.500000 95.147 160.4222
55.200001 95.091 160.1734
56.000000 95.024 159.8980
57.000000 94.938 159.6150
58.000000 94.887 159.4091
59.000000 94.849 158.8926
60.000000 94.758 158.4948
60.799999 94.711 158.4498
61.500000 94.694 158.2620
62.200001 94.653 157.9461
63.000000 94.580 157.7487
64.000000 94.516 157.6432
65.000000 94.456 157.3690
66.000000 94.381 157.1647
67.000000 94.327 157.0440
68.000000 94.285 156.8562
69.000000 94.239 156.6472
70.000000 94.186 156.4723
71.000000 94.126 156.3329
72.000000 94.062 156.2629
73.000000 94.011 156.1611
74.000000 93.956 155.9075
75.000000 93.886 155.6302
76.199997 93.810 155.3700
77.500000 93.750 155.0838
78.800003 93.699 154.7445
80.000000 93.633 154.4448
81.199997 93.548 154.3289
82.500000 93.462 154.3576
83.800003 93.386 154.3445
85.000000 93.316 154.1931
86.199997 93.232 153.9824
87.500000 93.145 153.8237
88.500000 93.090 153.7408
90.000000 93.028 153.5406
91.199997 92.963 153.3947
92.500000 92.902 153.4324
93.800003 92.868 153.5140
95.000000 92.852 153.4866
96.199997 92.824 153.3652
97.500000 92.777 153.2799
98.800003 92.722 153.2422
100.000000 92.662 153.2176
101.500000 92.573 153.2261
103.000000 92.485 153.2792
104.400002 92.409 153.2836
106.000000 92.322 153.2665
107.500000 92.254 153.2700
109.000000 92.192 153.1815
110.599998 92.121 153.0982
112.000000 92.061 153.0745
113.800003 91.995 153.0899
115.000000 91.949 153.1022
117.199997 91.854 153.2285
118.000000 91.821 153.2813
120.599998 91.716 153.2006
122.000000 91.658 153.0427
124.099998 91.590 152.7518
125.000000 91.565 152.6403
126.500000 91.519 152.5363
128.000000 91.452 152.6521
131.500000 91.313 153.5931
132.000000 91.296 153.6952
134.000000 91.236 153.9617
136.000000 91.170 154.0591
138.000000 91.114 154.3004
140.000000 91.057 154.3823
143.000000 90.908 154.4966
145.000000 90.831 154.5099
147.500000 90.752 154.5495
150.000000 90.692 154.7996
152.500000 90.627 154.8665
155.000000 90.506 154.9358
157.500000 90.409 155.4225
160.000000 90.389 155.9293
162.500000 90.358 155.8590
165.000000 90.241 155.8412
167.500000 90.152 156.2907
170.000000 90.119 156.8419
172.500000 90.105 157.3170
175.000000 90.045 157.5820
177.500000 89.928 157.9717
180.000000 89.830 158.2800
182.500000 89.759 158.2463
185.000000 89.707 158.1326
187.500000 89.669 158.1812
190.000000 89.626 158.3416
192.500000 89.561 158.5493
195.000000 89.487 158.7875
197.500000 89.401 159.0578
200.000000 89.319 159.4342
203.000000 89.291 159.7564
206.000000 89.292 159.9593
209.000000 89.272 160.3163
212.000000 89.217 160.6172
214.000000 89.187 160.6680
218.000000 89.130 160.7007
220.000000 89.099 161.0218
224.000000 89.032 161.5858
227.000000 88.937 161.7218
230.000000 88.873 162.1655
233.000000 88.864 162.8019
236.000000 88.848 163.1722
240.000000 88.780 163.3401
243.000000 88.715 163.6609
247.000000 88.629 164.2207
250.000000 88.578 164.4902
254.000000 88.525 164.8026
258.000000 88.451 165.1874
262.000000 88.379 165.5544
265.000000 88.356 165.8079
269.000000 88.328 166.1531
272.000000 88.287 166.4767
276.000000 88.233 166.9775
280.000000 88.195 167.4401
285.000000 88.140 167.9969
290.000000 88.074 168.8279
295.000000 88.048 169.8072
300.000000 87.989 170.3128
304.000000 87.928 170.1315
307.000000 87.916 170.1473
311.000000 87.939 170.5717
315.000000 87.931 171.1184
320.000000 87.892 171.7736
325.000000 87.861 172.3736
330.000000 87.841 172.8488
335.000000 87.797 173.4861
340.000000 87.761 174.2162
345.000000 87.695 174.8190
350.000000 87.632 175.0701
355.000000 87.644 175.2549
360.000000 87.651 175.7719
365.000000 87.629 176.2917
370.000000 87.609 176.8000
375.000000 87.586 177.3408
382.000000 87.547 178.0579
387.000000 87.519 178.5572
395.000000 87.502 179.3400
400.000000 87.489 179.8300
406.000000 87.462 -179.5755
412.000000 87.434 -179.0147
418.000000 87.412 -178.4610
425.000000 87.387 -177.7976
431.000000 87.365 -177.1997
437.000000 87.342 -176.6104
444.000000 87.315 -175.9321
450.000000 87.297 -175.3650
455.000000 87.287 -174.8949
462.000000 87.275 -174.2086
468.000000 87.265 -173.6430
475.000000 87.254 -173.0501
482.000000 87.246 -172.4369
487.000000 87.238 -171.9678
494.000000 87.226 -171.3053
500.000000 87.215 -170.7503
508.000000 87.202 -170.0059
515.000000 87.194 -169.3376
522.000000 87.190 -168.6729
530.000000 87.191 -167.9621
538.000000 87.196 -167.2908
545.000000 87.202 -166.6889
552.000000 87.207 -166.0529
560.000000 87.212 -165.3135
570.000000 87.220 -164.4054
580.000000 87.231 -163.5190
590.000000 87.244 -162.6323
600.000000 87.261 -161.7312
608.000000 87.273 -161.0296
615.000000 87.280 -160.4260
622.000000 87.289 -159.8197
630.000000 87.301 -159.1241
640.000000 87.316 -158.2397
650.000000 87.335 -157.3614
660.000000 87.360 -156.5055
670.000000 87.389 -155.6742
680.000000 87.418 -154.8370
690.000000 87.444 -153.9740
700.000000 87.470 -153.0900
710.000000 87.497 -152.2328
720.000000 87.531 -151.4217
730.000000 87.569 -150.6080
740.000000 87.609 -149.7744
750.000000 87.647 -148.9373
762.000000 87.700 -147.9519
775.000000 87.768 -146.9343
788.000000 87.839 -145.9338
800.000000 87.909 -145.0033
812.000000 87.980 -144.0992
825.000000 88.066 -143.1854
838.000000 88.158 -142.3829
850.000000 88.240 -141.8083
862.000000 88.290 -141.4493
875.000000 88.254 -141.0367
885.000000 88.184 -140.1962
900.000000 88.189 -138.1187
912.000000 88.303 -136.5904
925.000000 88.450 -135.2917
938.000000 88.595 -134.2281
950.000000 88.722 -133.4377
962.000000 88.839 -132.7746
975.000000 88.965 -132.1036
988.000000 89.090 -131.4567
1000.000000 89.197 -130.8645
1015.000000 89.319 -130.0738
1030.000000 89.435 -129.3018
1044.000000 89.551 -128.6666
1060.000000 89.692 -127.9931
1075.000000 89.814 -127.3589
1090.000000 89.935 -126.7203
1106.000000 90.071 -126.0887
1120.000000 90.198 -125.5788
1138.000000 90.368 -124.9331
1150.000000 90.482 -124.5297
1172.000000 90.691 -123.8406
1180.000000 90.764 -123.5916
1206.000000 90.995 -122.8088
1220.000000 91.119 -122.4089
1241.000000 91.308 -121.8253
1250.000000 91.389 -121.5873
1265.000000 91.524 -121.1998
1280.000000 91.658 -120.8145
1315.000000 91.977 -119.9905
1320.000000 92.022 -119.8792
1340.000000 92.192 -119.4407
1360.000000 92.338 -119.0106
1380.000000 92.481 -118.5935
1400.000000 92.642 -118.2033
1430.000000 92.908 -117.7006
1450.000000 93.087 -117.3909
1475.000000 93.307 -117.0137
1500.000000 93.525 -116.7095
1525.000000 93.734 -116.4415
1550.000000 93.934 -116.1952
1575.000000 94.141 -116.0322
1600.000000 94.356 -115.9435
1625.000000 94.570 -115.8916
1650.000000 94.784 -115.9069
1675.000000 94.995 -116.0005
1700.000000 95.200 -116.1429
1725.000000 95.402 -116.3522
1750.000000 95.603 -116.6661
1775.000000 95.797 -117.0589
1800.000000 95.979 -117.5076
1825.000000 96.157 -118.0411
1850.000000 96.335 -118.6675
1875.000000 96.505 -119.3665
1900.000000 96.663 -120.1247
1925.000000 96.806 -120.9576
1950.000000 96.928 -121.8494
1975.000000 97.028 -122.7645
2000.000000 97.116 -123.7206
2030.000000 97.218 -124.9466
2060.000000 97.312 -126.2290
2090.000000 97.376 -127.5062
2120.000000 97.404 -128.7560
2140.000000 97.408 -129.5798
2180.000000 97.391 -131.1845
2200.000000 97.369 -131.9586
2240.000000 97.299 -133.4220
2270.000000 97.219 -134.4154
2300.000000 97.122 -135.3190
2330.000000 97.017 -136.1327
2360.000000 96.911 -136.8647
2400.000000 96.762 -137.6956
2430.000000 96.631 -138.1796
2470.000000 96.433 -138.6498
2500.000000 96.277 -138.8968
2540.000000 96.070 -139.0804
2580.000000 95.869 -139.1054
2620.000000 95.673 -138.9769
2650.000000 95.526 -138.7774
2690.000000 95.325 -138.3566
2720.000000 95.174 -137.9151
2760.000000 94.984 -137.1761
2800.000000 94.824 -136.3105
2850.000000 94.654 -135.1458
2900.000000 94.499 -134.0301
2950.000000 94.356 -132.9552
3000.000000 94.225 -131.8058
3040.000000 94.132 -130.8059
3070.000000 94.069 -130.0205
3110.000000 93.992 -128.9534
3150.000000 93.917 -127.8761
3200.000000 93.830 -126.5496
3250.000000 93.762 -125.2546
3300.000000 93.706 -123.9496
3350.000000 93.658 -122.6362
3400.000000 93.619 -121.3200
3450.000000 93.594 -120.0144
3500.000000 93.585 -118.7261
3550.000000 93.582 -117.4506
3600.000000 93.588 -116.1976
3650.000000 93.603 -114.9657
3700.000000 93.628 -113.7434
3750.000000 93.666 -112.5408
3820.000000 93.740 -110.9430
3870.000000 93.793 -109.8867
3950.000000 93.869 -108.3622
4000.000000 93.923 -107.5200
4060.000000 94.005 -106.6304
4120.000000 94.097 -105.8525
4180.000000 94.185 -105.1895
4250.000000 94.275 -104.5991
4310.000000 94.333 -104.2732
4370.000000 94.361 -104.0929
4440.000000 94.357 -104.0182
4500.000000 94.327 -104.0259
4550.000000 94.282 -104.0497
4620.000000 94.190 -104.0699
4680.000000 94.089 -104.0584
4750.000000 93.948 -103.9887
4820.000000 93.772 -103.8111
4870.000000 93.623 -103.5969
4940.000000 93.388 -103.1569
5000.000000 93.174 -102.6430
5080.000000 92.878 -101.7463
5150.000000 92.611 -100.7385
5220.000000 92.333 -99.4765
5300.000000 92.019 -97.6780
5380.000000 91.725 -95.6141
5450.000000 91.469 -93.5457
5520.000000 91.248 -90.9770
5600.000000 91.110 -87.9503
5700.000000 90.983 -84.7238
5800.000000 90.847 -81.5988
5900.000000 90.745 -78.3564
6000.000000 90.679 -75.0243
6080.000000 90.649 -72.3230
6150.000000 90.640 -69.9567
6220.000000 90.652 -67.6124
6300.000000 90.689 -64.9789
6400.000000 90.768 -61.7734
6500.000000 90.884 -58.6872
6600.000000 91.035 -55.7299
6700.000000 91.211 -52.8952
6800.000000 91.416 -50.1822
6900.000000 91.664 -47.5722
7000.000000 91.961 -45.0096
7100.000000 92.313 -42.4578
7200.000000 92.739 -39.9551
7300.000000 93.268 -37.6886
7400.000000 93.915 -35.9496
7500.000000 94.677 -35.0605
7620.000000 95.722 -35.6366
7750.000000 96.895 -39.0923
7880.000000 97.815 -46.2878
8000.000000 98.198 -56.0924
8120.000000 97.946 -67.2013
8250.000000 96.945 -77.6854
8380.000000 95.417 -84.4217
8500.000000 93.816 -87.1275
8620.000000 92.222 -87.1608
8750.000000 90.610 -85.0764
8850.000000 89.477 -82.4262
9000.000000 87.959 -77.2884
9120.000000 86.893 -72.4751
9250.000000 85.867 -66.7537
9380.000000 84.962 -60.6128
9500.000000 84.235 -54.6939
9620.000000 83.606 -48.6517
9750.000000 83.016 -42.0233
9880.000000 82.512 -35.3225
10000.000000 82.118 -29.0825
10150.000000 81.722 -21.2283
10300.000000 81.435 -13.3541
10440.000000 81.259 -6.0256
10600.000000 81.163 2.2823
10750.000000 81.189 9.9395
10900.000000 81.341 17.3850
11060.000000 81.652 24.9704
11200.000000 82.059 31.1560
11380.000000 82.788 38.1532
11500.000000 83.407 41.9257
11720.000000 84.769 45.9004
11800.000000 85.295 46.0382
12060.000000 86.687 40.1735
12200.000000 86.922 33.3442
12410.000000 86.237 22.2917
12500.000000 85.579 18.8424
12650.000000 84.161 16.1376
12800.000000 82.601 17.1161
13150.000000 79.569 27.0487
13200.000000 79.223 28.7692
13400.000000 77.938 36.0443
13600.000000 76.768 44.2036
13800.000000 75.735 53.3891
14000.000000 74.896 63.6089
14300.000000 74.149 79.8907
14500.000000 74.023 90.6692
14750.000000 74.303 103.1632
15000.000000 75.058 113.0512
15250.000000 76.107 118.1134
15500.000000 76.956 116.0041
15750.000000 76.778 108.1954
16000.000000 75.136 103.3906
16250.000000 72.533 108.9543
16500.000000 70.039 124.2327
16750.000000 68.655 144.7871
17000.000000 68.905 165.4491
17250.000000 70.430 -179.2719
17500.000000 72.121 -173.5009
17750.000000 72.994 -176.3528
18000.000000 72.704 178.3761
18250.000000 71.466 176.7782
18500.000000 69.823 -178.9480
18750.000000 68.399 -169.7180
19000.000000 67.536 -157.4349
19250.000000 67.099 -143.7742
19500.000000 66.789 -130.0122
19750.000000 66.494 -116.9966
20000.000000 66.171 -105.3611
20300.000000 65.713 -93.9117
20600.000000 65.027 -85.2258
20900.000000 63.761 -77.6242
21200.000000 61.810 -69.6502
21400.000000 60.298 -73.1884
21800.000000 57.196 33.9973
22000.000000 55.223 152.0974
22400.000000 49.042 -179.3096
22700.000000 42.626 -41.3965
23000.000000 36.115 134.9434
23300.000000 32.522 80.4766
23600.000000 31.734 -147.6094
24000.000000 31.093 -66.6641
