* Measurement data measured by REW V5.20.13
* Source: Headset (DS by VECLAN.COM), MICROPHONE (Master Volume), L, volume: 0.720. Timing signal peak level -15.4 dBFS, measurement signal peak level -15.1 dBFS
* Format: 2M Log Swept Sine, 1 sweep at -12.0 dBFS using an acoustic timing reference
* Dated: Feb 15, 2024 3:26:45 PM
* REW Settings:
*  C-weighting compensation: Off
*  Target level: 75.0 dB
* Note: ; Delay -0.0668 ms (-23 mm, -0.9 in) using estimated IR delay relative to Acoustic reference played from HEADPHONE L with no timing offset
* Measurement: Letshuoer S15 L
* Smoothing: 1/24 octave
* Frequency Step: 1/48 octave
* Start Frequency: 1.000 Hz
*
* Freq(Hz) SPL(dB) Phase(degrees)
1.000000 61.655 -65.2043
1.015000 61.948 -65.7896
1.030000 62.242 -66.3161
1.044000 62.517 -66.7498
1.060000 62.832 -67.1720
1.075000 63.126 -67.4915
1.090000 63.418 -67.7320
1.106000 63.730 -67.8941
1.120000 64.011 -67.9467
1.138000 64.385 -67.8976
1.150000 64.643 -67.7973
1.172000 65.129 -67.4862
1.180000 65.309 -67.3357
1.206000 65.908 -66.7249
1.220000 66.237 -66.3282
1.241000 66.735 -65.6592
1.250000 66.951 -65.3493
1.265000 67.310 -64.8074
1.280000 67.670 -64.2394
1.315000 68.507 -62.8516
1.320000 68.625 -62.6499
1.340000 69.095 -61.8444
1.360000 69.556 -61.0532
1.380000 70.006 -60.2925
1.400000 70.443 -59.5783
1.430000 71.067 -58.6297
1.450000 71.458 -58.1026
1.475000 71.918 -57.5765
1.500000 72.355 -57.0939
1.525000 72.773 -56.6291
1.550000 73.174 -56.1844
1.575000 73.559 -55.7621
1.600000 73.929 -55.3647
1.625000 74.287 -54.9943
1.650000 74.632 -54.6534
1.675000 74.967 -54.3443
1.700000 75.294 -54.0694
1.725000 75.613 -53.8309
1.750000 75.925 -53.6312
1.775000 76.233 -53.4726
1.800000 76.538 -53.3576
1.825000 76.841 -53.2884
1.850000 77.140 -53.2725
1.875000 77.431 -53.3204
1.900000 77.712 -53.4260
1.925000 77.986 -53.5828
1.950000 78.251 -53.7843
1.975000 78.510 -54.0239
2.000000 78.762 -54.2951
2.030000 79.057 -54.6530
2.060000 79.344 -55.0357
2.090000 79.625 -55.4319
2.120000 79.900 -55.8302
2.140000 80.081 -56.0913
2.180000 80.438 -56.5881
2.200000 80.615 -56.8171
2.240000 80.960 -57.2688
2.270000 81.211 -57.6146
2.300000 81.455 -57.9671
2.330000 81.693 -58.3270
2.360000 81.925 -58.6948
2.400000 82.226 -59.1986
2.430000 82.446 -59.5874
2.470000 82.731 -60.1215
2.500000 82.940 -60.5346
2.540000 83.211 -61.1034
2.580000 83.476 -61.6954
2.620000 83.731 -62.3206
2.650000 83.916 -62.8092
2.690000 84.155 -63.4814
2.720000 84.328 -63.9975
2.760000 84.552 -64.6958
2.800000 84.770 -65.3996
2.850000 85.032 -66.2766
2.900000 85.286 -67.1380
2.950000 85.532 -67.9736
3.000000 85.766 -68.8022
3.040000 85.946 -69.4633
3.070000 86.077 -69.9575
3.110000 86.246 -70.6137
3.150000 86.410 -71.2661
3.200000 86.607 -72.0749
3.250000 86.797 -72.8749
3.300000 86.982 -73.6644
3.350000 87.159 -74.4472
3.400000 87.328 -75.2250
3.450000 87.488 -75.9955
3.500000 87.643 -76.7566
3.550000 87.791 -77.5060
3.600000 87.934 -78.2415
3.650000 88.074 -78.9609
3.700000 88.209 -79.6642
3.750000 88.338 -80.3553
3.820000 88.510 -81.3009
3.870000 88.626 -81.9596
3.950000 88.806 -82.9824
4.000000 88.915 -83.6007
4.060000 89.044 -84.3197
4.120000 89.167 -85.0109
4.180000 89.285 -85.6779
4.250000 89.418 -86.4307
4.310000 89.529 -87.0588
4.370000 89.639 -87.6754
4.440000 89.765 -88.3815
4.500000 89.870 -88.9689
4.550000 89.956 -89.4469
4.620000 90.074 -90.1017
4.680000 90.174 -90.6522
4.750000 90.289 -91.2854
4.820000 90.404 -91.9065
4.870000 90.485 -92.3391
4.940000 90.597 -92.9338
5.000000 90.692 -93.4374
5.080000 90.817 -94.1072
5.150000 90.925 -94.6975
5.220000 91.033 -95.2865
5.300000 91.154 -95.9568
5.380000 91.274 -96.6265
5.450000 91.378 -97.2141
5.520000 91.479 -97.8044
5.600000 91.594 -98.4802
5.700000 91.735 -99.3271
5.800000 91.873 -100.1786
5.900000 92.007 -101.0369
6.000000 92.137 -101.9015
6.080000 92.239 -102.5971
6.150000 92.327 -103.2082
6.220000 92.413 -103.8211
6.300000 92.508 -104.5242
6.400000 92.625 -105.4071
6.500000 92.738 -106.2940
6.600000 92.846 -107.1843
6.700000 92.952 -108.0783
6.800000 93.053 -108.9761
6.900000 93.151 -109.8765
7.000000 93.243 -110.7793
7.100000 93.332 -111.6877
7.200000 93.416 -112.5970
7.300000 93.494 -113.5010
7.400000 93.565 -114.3996
7.500000 93.632 -115.2983
7.620000 93.703 -116.3586
7.750000 93.770 -117.4656
7.880000 93.826 -118.5441
8.000000 93.868 -119.4894
8.120000 93.904 -120.3626
8.250000 93.933 -121.2423
8.380000 93.957 -122.0335
8.500000 93.979 -122.6663
8.620000 93.997 -123.2112
8.750000 94.019 -123.7123
8.850000 94.043 -124.0350
9.000000 94.085 -124.4034
9.120000 94.128 -124.6444
9.250000 94.192 -124.8746
9.380000 94.270 -125.0558
9.500000 94.351 -125.2396
9.620000 94.441 -125.4650
9.750000 94.549 -125.7345
9.880000 94.655 -126.0726
10.000000 94.749 -126.4664
10.150000 94.863 -127.0474
10.300000 94.963 -127.7145
10.440000 95.042 -128.4278
10.600000 95.118 -129.3006
10.750000 95.172 -130.1489
10.900000 95.211 -131.0236
11.060000 95.238 -131.9154
11.200000 95.247 -132.6728
11.380000 95.247 -133.5539
11.500000 95.239 -134.0683
11.720000 95.218 -134.8749
11.800000 95.212 -135.1185
12.060000 95.197 -135.7557
12.200000 95.199 -136.0378
12.410000 95.214 -136.3925
12.500000 95.225 -136.5440
12.650000 95.248 -136.7847
12.800000 95.276 -137.0333
13.150000 95.352 -137.6991
13.200000 95.363 -137.8034
13.400000 95.408 -138.2474
13.600000 95.452 -138.7182
13.800000 95.493 -139.2109
14.000000 95.530 -139.7203
14.300000 95.577 -140.5119
14.500000 95.602 -141.0557
14.750000 95.622 -141.7390
15.000000 95.630 -142.4134
15.250000 95.626 -143.0416
15.500000 95.612 -143.5669
15.750000 95.591 -143.9584
16.000000 95.572 -144.1780
16.250000 95.570 -144.2654
16.500000 95.592 -144.2676
16.750000 95.644 -144.2650
17.000000 95.721 -144.3677
17.250000 95.815 -144.6176
17.500000 95.913 -145.0619
17.750000 95.998 -145.6680
18.000000 96.064 -146.3826
18.250000 96.105 -147.1449
18.500000 96.124 -147.8531
18.750000 96.128 -148.4684
19.000000 96.123 -148.9552
19.250000 96.125 -149.3177
19.500000 96.136 -149.5975
19.750000 96.163 -149.8289
20.000000 96.203 -150.0809
20.299999 96.264 -150.4597
20.600000 96.329 -150.9509
20.900000 96.387 -151.5494
21.200001 96.431 -152.2124
21.400000 96.451 -152.6553
21.799999 96.473 -153.4929
22.000000 96.478 -153.8697
22.400000 96.488 -154.5353
22.700001 96.499 -154.9863
23.000000 96.513 -155.4313
23.299999 96.528 -155.8867
23.600000 96.540 -156.3439
24.000000 96.551 -156.9217
24.299999 96.559 -157.3059
24.700001 96.580 -157.7615
25.000000 96.605 -158.1068
25.400000 96.648 -158.6518
25.799999 96.687 -159.3378
26.200001 96.701 -160.1015
26.500000 96.693 -160.6355
26.900000 96.668 -161.1932
27.200001 96.650 -161.4740
27.600000 96.646 -161.7243
28.000000 96.667 -161.9731
28.500000 96.708 -162.4429
29.000000 96.734 -163.0496
29.500000 96.735 -163.6055
30.000000 96.735 -164.0130
30.400000 96.745 -164.2966
30.700001 96.759 -164.5370
31.100000 96.777 -164.9212
31.500000 96.785 -165.3466
32.000000 96.782 -165.8376
32.500000 96.779 -166.2286
33.000000 96.790 -166.5884
33.500000 96.813 -167.0235
34.000000 96.834 -167.5643
34.500000 96.845 -168.1507
35.000000 96.847 -168.7168
35.500000 96.844 -169.2387
36.000000 96.840 -169.7213
36.500000 96.836 -170.1637
37.000000 96.832 -170.5604
37.500000 96.831 -170.9175
38.200001 96.831 -171.3690
38.700001 96.831 -171.6497
39.500000 96.834 -172.0100
40.000000 96.842 -172.2184
40.599998 96.855 -172.5072
41.200001 96.862 -172.8500
41.799999 96.861 -173.2335
42.500000 96.849 -173.7314
43.099998 96.825 -174.1735
43.700001 96.793 -174.5524
44.400002 96.767 -174.8963
45.000000 96.767 -175.2253
45.500000 96.773 -175.5942
46.200001 96.772 -176.1576
46.799999 96.771 -176.5279
47.500000 96.805 -176.8834
48.200001 96.865 -177.4315
48.700001 96.894 -177.9642
49.400002 96.894 -178.6727
50.000000 96.872 -179.0752
50.799999 96.848 -179.3885
51.500000 96.830 -179.6238
52.200001 96.803 -179.8550
53.000000 96.762 179.9271
53.799999 96.724 179.7217
54.500000 96.696 179.4667
55.200001 96.666 179.1197
56.000000 96.628 178.6949
57.000000 96.593 178.1738
58.000000 96.572 177.5911
59.000000 96.549 177.0372
60.000000 96.527 176.5655
60.799999 96.507 176.2628
61.500000 96.490 176.0600
62.200001 96.479 175.8608
63.000000 96.463 175.5779
64.000000 96.428 175.2153
65.000000 96.395 174.9387
66.000000 96.381 174.6156
67.000000 96.366 174.2032
68.000000 96.345 173.8233
69.000000 96.324 173.4717
70.000000 96.297 173.1569
71.000000 96.271 172.8892
72.000000 96.246 172.5766
73.000000 96.212 172.2316
74.000000 96.175 171.9277
75.000000 96.145 171.6518
76.199997 96.122 171.2921
77.500000 96.095 170.8905
78.800003 96.062 170.5456
80.000000 96.026 170.2741
81.199997 95.985 170.0331
82.500000 95.940 169.7665
83.800003 95.898 169.4276
85.000000 95.856 169.0526
86.199997 95.811 168.6854
87.500000 95.763 168.3627
88.500000 95.731 168.1597
90.000000 95.683 167.9091
91.199997 95.647 167.7560
92.500000 95.608 167.5857
93.800003 95.574 167.4014
95.000000 95.544 167.1628
96.199997 95.506 166.9257
97.500000 95.469 166.7318
98.800003 95.442 166.5439
100.000000 95.414 166.3392
101.500000 95.368 166.1092
103.000000 95.318 165.8943
104.400002 95.267 165.6893
106.000000 95.213 165.4702
107.500000 95.167 165.2411
109.000000 95.122 165.0449
110.599998 95.083 164.8458
112.000000 95.042 164.6375
113.800003 94.974 164.4287
115.000000 94.928 164.3307
117.199997 94.852 164.1246
118.000000 94.825 164.0377
120.599998 94.738 163.8391
122.000000 94.697 163.7986
124.099998 94.650 163.6894
125.000000 94.631 163.5820
126.500000 94.589 163.3558
128.000000 94.538 163.1796
131.500000 94.432 163.0699
132.000000 94.420 163.0570
134.000000 94.369 162.9191
136.000000 94.329 162.6644
138.000000 94.286 162.3406
140.000000 94.213 162.2421
143.000000 94.099 162.4153
145.000000 94.068 162.4329
147.500000 94.112 162.7145
150.000000 94.139 162.9665
152.500000 93.888 163.0623
155.000000 93.559 162.9836
157.500000 93.425 163.0440
160.000000 93.513 163.6468
162.500000 93.561 164.2503
165.000000 93.516 164.2532
167.500000 93.479 163.4759
170.000000 93.446 162.7952
172.500000 93.396 162.5155
175.000000 93.342 162.3388
177.500000 93.310 162.2324
180.000000 93.268 162.3643
182.500000 93.196 162.5990
185.000000 93.147 162.8038
187.500000 93.139 162.7836
190.000000 93.097 162.7542
192.500000 93.022 162.8098
195.000000 92.957 162.8294
197.500000 92.922 162.8971
200.000000 92.896 163.0892
203.000000 92.845 163.2276
206.000000 92.760 163.1862
209.000000 92.687 163.1960
212.000000 92.623 163.2954
214.000000 92.578 163.3904
218.000000 92.492 163.5175
220.000000 92.450 163.5697
224.000000 92.379 163.7222
227.000000 92.345 163.8196
230.000000 92.310 163.9196
233.000000 92.251 164.0760
236.000000 92.177 164.3228
240.000000 92.106 164.6617
243.000000 92.071 164.7844
247.000000 92.025 164.9422
250.000000 91.985 165.1130
254.000000 91.899 165.2210
258.000000 91.811 165.3335
262.000000 91.739 165.7767
265.000000 91.683 166.1510
269.000000 91.639 166.4387
272.000000 91.637 166.7148
276.000000 91.604 167.3010
280.000000 91.511 167.7954
285.000000 91.386 168.0271
290.000000 91.370 168.4227
295.000000 91.383 169.1461
300.000000 91.368 169.2784
304.000000 91.327 169.0148
307.000000 91.278 168.8949
311.000000 91.217 169.0093
315.000000 91.166 169.2229
320.000000 91.105 169.4314
325.000000 91.047 170.0499
330.000000 91.024 170.7481
335.000000 90.979 171.2467
340.000000 90.926 171.7166
345.000000 90.878 172.1423
350.000000 90.837 172.4486
355.000000 90.799 172.7356
360.000000 90.758 173.1448
365.000000 90.720 173.6344
370.000000 90.686 174.0851
375.000000 90.649 174.5008
382.000000 90.593 175.0115
387.000000 90.557 175.4087
395.000000 90.506 176.1058
400.000000 90.473 176.5281
406.000000 90.437 177.0063
412.000000 90.404 177.4778
418.000000 90.377 177.9696
425.000000 90.331 178.5680
431.000000 90.290 179.0771
437.000000 90.255 179.5700
444.000000 90.222 -179.8219
450.000000 90.199 -179.2621
455.000000 90.178 -178.8206
462.000000 90.145 -178.2520
468.000000 90.127 -177.7537
475.000000 90.109 -177.1806
482.000000 90.081 -176.6352
487.000000 90.062 -176.2316
494.000000 90.040 -175.6188
500.000000 90.021 -175.1049
508.000000 89.996 -174.4474
515.000000 89.981 -173.8857
522.000000 89.968 -173.3078
530.000000 89.952 -172.6143
538.000000 89.942 -171.9295
545.000000 89.939 -171.3685
552.000000 89.934 -170.8207
560.000000 89.928 -170.1579
570.000000 89.921 -169.2762
580.000000 89.914 -168.4311
590.000000 89.919 -167.6556
600.000000 89.923 -166.8712
608.000000 89.921 -166.1989
615.000000 89.917 -165.5833
622.000000 89.914 -164.9747
630.000000 89.910 -164.3136
640.000000 89.910 -163.4975
650.000000 89.915 -162.6423
660.000000 89.920 -161.7768
670.000000 89.933 -160.9119
680.000000 89.954 -160.0208
690.000000 89.986 -159.1348
700.000000 90.023 -158.2925
710.000000 90.064 -157.5052
720.000000 90.107 -156.7722
730.000000 90.147 -156.0599
740.000000 90.181 -155.3293
750.000000 90.212 -154.5555
762.000000 90.248 -153.5980
775.000000 90.295 -152.5912
788.000000 90.348 -151.6073
800.000000 90.401 -150.6946
812.000000 90.455 -149.7789
825.000000 90.519 -148.7853
838.000000 90.592 -147.8290
850.000000 90.664 -146.9836
862.000000 90.735 -146.1311
875.000000 90.808 -145.1873
885.000000 90.867 -144.4701
900.000000 90.965 -143.4476
912.000000 91.051 -142.6928
925.000000 91.151 -141.8828
938.000000 91.249 -141.0610
950.000000 91.338 -140.3304
962.000000 91.427 -139.6283
975.000000 91.530 -138.8888
988.000000 91.639 -138.1910
1000.000000 91.743 -137.5850
1015.000000 91.873 -136.8534
1030.000000 92.004 -136.1503
1044.000000 92.129 -135.5422
1060.000000 92.275 -134.9056
1075.000000 92.413 -134.3479
1090.000000 92.553 -133.8193
1106.000000 92.711 -133.2897
1120.000000 92.857 -132.8800
1138.000000 93.051 -132.4315
1150.000000 93.181 -132.1648
1172.000000 93.414 -131.7387
1180.000000 93.496 -131.6051
1206.000000 93.764 -131.2609
1220.000000 93.912 -131.1436
1241.000000 94.136 -131.0516
1250.000000 94.230 -131.0421
1265.000000 94.381 -131.0595
1280.000000 94.527 -131.1135
1315.000000 94.848 -131.4114
1320.000000 94.891 -131.4691
1340.000000 95.047 -131.7281
1360.000000 95.172 -132.0282
1380.000000 95.286 -132.3532
1400.000000 95.406 -132.6959
1430.000000 95.573 -133.1992
1450.000000 95.671 -133.5107
1475.000000 95.782 -133.8668
1500.000000 95.880 -134.1731
1525.000000 95.970 -134.4374
1550.000000 96.053 -134.6671
1575.000000 96.136 -134.8805
1600.000000 96.219 -135.0847
1625.000000 96.303 -135.2853
1650.000000 96.386 -135.5156
1675.000000 96.468 -135.7649
1700.000000 96.546 -136.0502
1725.000000 96.619 -136.3756
1750.000000 96.683 -136.7265
1775.000000 96.737 -137.1080
1800.000000 96.785 -137.5115
1825.000000 96.826 -137.9349
1850.000000 96.862 -138.3732
1875.000000 96.889 -138.8192
1900.000000 96.902 -139.2489
1925.000000 96.904 -139.6598
1950.000000 96.898 -140.0632
1975.000000 96.885 -140.4427
2000.000000 96.866 -140.7955
2030.000000 96.831 -141.1746
2060.000000 96.783 -141.4819
2090.000000 96.731 -141.7336
2120.000000 96.682 -141.9444
2140.000000 96.650 -142.0587
2180.000000 96.571 -142.1924
2200.000000 96.522 -142.2103
2240.000000 96.418 -142.1765
2270.000000 96.345 -142.0923
2300.000000 96.278 -141.9670
2330.000000 96.216 -141.8011
2360.000000 96.154 -141.5960
2400.000000 96.069 -141.2676
2430.000000 96.005 -140.9916
2470.000000 95.925 -140.6089
2500.000000 95.868 -140.3107
2540.000000 95.794 -139.8973
2580.000000 95.719 -139.4723
2620.000000 95.642 -139.0287
2650.000000 95.585 -138.6841
2690.000000 95.511 -138.2079
2720.000000 95.455 -137.8406
2760.000000 95.373 -137.3168
2800.000000 95.280 -136.7446
2850.000000 95.162 -135.9782
2900.000000 95.052 -135.1486
2950.000000 94.943 -134.2452
3000.000000 94.827 -133.2445
3040.000000 94.732 -132.3810
3070.000000 94.664 -131.7007
3110.000000 94.583 -130.7627
3150.000000 94.510 -129.7849
3200.000000 94.424 -128.4943
3250.000000 94.345 -127.1479
3300.000000 94.280 -125.7617
3350.000000 94.234 -124.3631
3400.000000 94.205 -122.9564
3450.000000 94.192 -121.5630
3500.000000 94.194 -120.2064
3550.000000 94.205 -118.8913
3600.000000 94.222 -117.6259
3650.000000 94.247 -116.4063
3700.000000 94.278 -115.2331
3750.000000 94.312 -114.0999
3820.000000 94.358 -112.5794
3870.000000 94.390 -111.5508
3950.000000 94.434 -109.9970
4000.000000 94.456 -109.0698
4060.000000 94.478 -107.9815
4120.000000 94.499 -106.9150
4180.000000 94.521 -105.8700
4250.000000 94.547 -104.7084
4310.000000 94.561 -103.7690
4370.000000 94.559 -102.8801
4440.000000 94.542 -101.8958
4500.000000 94.518 -101.0782
4550.000000 94.486 -100.3950
4620.000000 94.418 -99.3945
4680.000000 94.343 -98.4722
4750.000000 94.244 -97.2825
4820.000000 94.143 -95.9364
4870.000000 94.075 -94.8661
4940.000000 93.989 -93.1979
5000.000000 93.927 -91.6133
5080.000000 93.869 -89.3258
5150.000000 93.851 -87.2255
5220.000000 93.869 -85.1181
5300.000000 93.936 -82.8029
5380.000000 94.044 -80.6781
5450.000000 94.162 -79.0139
5520.000000 94.293 -77.5498
5600.000000 94.448 -76.1168
5700.000000 94.630 -74.6276
5800.000000 94.780 -73.3710
5900.000000 94.899 -72.2141
6000.000000 94.998 -71.0374
6080.000000 95.074 -70.0363
6150.000000 95.147 -69.1122
6220.000000 95.234 -68.1594
6300.000000 95.357 -67.0943
6400.000000 95.554 -65.9391
6500.000000 95.794 -65.1528
6600.000000 96.057 -64.8961
6700.000000 96.316 -65.2897
6800.000000 96.545 -66.4382
6900.000000 96.720 -68.3885
7000.000000 96.783 -71.0322
7100.000000 96.665 -74.0004
7200.000000 96.339 -76.7404
7300.000000 95.826 -78.7109
7400.000000 95.180 -79.5033
7500.000000 94.476 -78.9365
7620.000000 93.672 -76.5757
7750.000000 92.954 -72.4335
7880.000000 92.363 -67.2503
8000.000000 91.947 -61.9814
8120.000000 91.685 -56.5471
8250.000000 91.566 -50.6750
8380.000000 91.602 -44.9742
8500.000000 91.773 -39.9827
8620.000000 92.078 -35.4145
8750.000000 92.556 -31.2464
8850.000000 93.018 -28.8629
9000.000000 93.823 -27.1827
9120.000000 94.482 -27.9451
9250.000000 95.072 -31.2361
9380.000000 95.355 -36.8654
9500.000000 95.211 -43.1945
9620.000000 94.642 -49.2294
9750.000000 93.613 -53.9975
9880.000000 92.308 -56.1117
10000.000000 91.013 -55.6797
10150.000000 89.455 -52.5753
10300.000000 88.073 -47.6055
10440.000000 86.954 -41.9658
10600.000000 85.847 -34.7762
10750.000000 84.940 -27.5307
10900.000000 84.131 -19.7939
11060.000000 83.391 -10.8673
11200.000000 82.893 -2.6246
11380.000000 82.482 7.8749
11500.000000 82.310 14.4314
11720.000000 82.017 25.4791
11800.000000 81.874 29.4645
12060.000000 81.327 44.4092
12200.000000 81.165 54.1384
12410.000000 81.377 69.6143
12500.000000 81.638 76.0256
12650.000000 82.226 85.9927
12800.000000 82.931 95.0765
13150.000000 84.941 114.1618
13200.000000 85.285 116.7077
13400.000000 86.852 126.2292
13600.000000 88.747 134.0201
13800.000000 90.888 139.0138
14000.000000 93.056 140.2292
14300.000000 95.831 134.6028
14500.000000 97.155 127.2032
14750.000000 98.169 116.3650
15000.000000 98.632 105.9307
15250.000000 98.821 96.2245
15500.000000 98.819 85.4853
15750.000000 98.314 73.1536
16000.000000 96.990 62.3529
16250.000000 94.969 57.1544
16500.000000 92.773 58.6707
16750.000000 91.042 64.0279
17000.000000 89.906 69.5160
17250.000000 89.041 74.1176
17500.000000 88.271 78.4491
17750.000000 87.629 82.5132
18000.000000 87.063 85.3921
18250.000000 86.355 87.3018
18500.000000 85.474 90.3174
18750.000000 84.816 95.5614
19000.000000 84.682 101.1998
19250.000000 84.670 105.0037
19500.000000 84.245 107.0294
19750.000000 83.270 108.5369
20000.000000 81.775 110.5036
20300.000000 79.375 114.5747
20600.000000 76.450 122.6244
20900.000000 73.170 136.1295
21200.000000 70.047 146.0929
21400.000000 68.234 123.1615
21800.000000 64.606 -57.4392
22000.000000 62.163 18.3547
22400.000000 54.767 136.6357
22700.000000 47.162 101.4990
23000.000000 38.896 46.8184
23300.000000 33.176 -44.6641
23600.000000 31.729 -10.6250
24000.000000 31.341 11.8828
