* Measurement data measured by REW V5.20.13
* Source: Headset (DS by VECLAN.COM), MICROPHONE (Master Volume), L, volume: 0.720. Timing signal peak level -18.6 dBFS, measurement signal peak level -15.7 dBFS
* Format: 2M Log Swept Sine, 1 sweep at -12.0 dBFS using an acoustic timing reference
* Dated: Feb 15, 2024 3:50:20 PM
* REW Settings:
*  C-weighting compensation: Off
*  Target level: 75.0 dB
* Note: ; Delay -0.0709 ms (-24 mm, -0.96 in) using estimated IR delay relative to Acoustic reference played from HEADPHONE L with no timing offset
* Measurement: Letshuoer D13 Modded L
* Smoothing: 1/24 octave
* Frequency Step: 1/48 octave
* Start Frequency: 1.000 Hz
*
* Freq(Hz) SPL(dB) Phase(degrees)
1.000000 77.104 -10.3513
1.015000 77.778 -11.8513
1.030000 78.423 -13.3214
1.044000 78.994 -14.6616
1.060000 79.602 -16.1496
1.075000 80.124 -17.4966
1.090000 80.594 -18.7916
1.106000 81.035 -20.1150
1.120000 81.393 -21.2543
1.138000 81.826 -22.7021
1.150000 82.097 -23.6564
1.172000 82.562 -25.3827
1.180000 82.721 -26.0028
1.206000 83.204 -27.9889
1.220000 83.444 -29.0394
1.241000 83.781 -30.5895
1.250000 83.917 -31.2441
1.265000 84.135 -32.3220
1.280000 84.341 -33.3831
1.315000 84.788 -35.7917
1.320000 84.848 -36.1279
1.340000 85.082 -37.4523
1.360000 85.307 -38.7435
1.380000 85.525 -40.0008
1.400000 85.740 -41.2230
1.430000 86.063 -42.9891
1.450000 86.282 -44.1203
1.475000 86.561 -45.4783
1.500000 86.824 -46.7546
1.525000 87.066 -47.9515
1.550000 87.290 -49.0769
1.575000 87.497 -50.1386
1.600000 87.689 -51.1445
1.625000 87.869 -52.1026
1.650000 88.038 -53.0207
1.675000 88.200 -53.9067
1.700000 88.355 -54.7686
1.725000 88.506 -55.6142
1.750000 88.655 -56.4514
1.775000 88.804 -57.2881
1.800000 88.955 -58.1323
1.825000 89.110 -58.9917
1.850000 89.268 -59.8614
1.875000 89.422 -60.7150
1.900000 89.571 -61.5521
1.925000 89.715 -62.3738
1.950000 89.856 -63.1810
1.975000 89.994 -63.9746
2.000000 90.128 -64.7556
2.030000 90.286 -65.6774
2.060000 90.441 -66.5842
2.090000 90.594 -67.4775
2.120000 90.745 -68.3589
2.140000 90.845 -68.9408
2.180000 91.046 -70.0929
2.200000 91.146 -70.6641
2.240000 91.346 -71.7850
2.270000 91.494 -72.6049
2.300000 91.641 -73.4090
2.330000 91.786 -74.1993
2.360000 91.929 -74.9776
2.400000 92.116 -76.0000
2.430000 92.253 -76.7577
2.470000 92.433 -77.7592
2.500000 92.565 -78.5063
2.540000 92.736 -79.5007
2.580000 92.902 -80.4957
2.620000 93.063 -81.4831
2.650000 93.180 -82.2173
2.690000 93.332 -83.1881
2.720000 93.443 -83.9104
2.760000 93.588 -84.8659
2.800000 93.729 -85.8131
2.850000 93.900 -86.9863
2.900000 94.065 -88.1479
2.950000 94.226 -89.2989
3.000000 94.380 -90.4405
3.040000 94.499 -91.3462
3.070000 94.587 -92.0206
3.110000 94.699 -92.9127
3.150000 94.809 -93.7958
3.200000 94.941 -94.8860
3.250000 95.069 -95.9596
3.300000 95.192 -97.0151
3.350000 95.311 -98.0525
3.400000 95.424 -99.0730
3.450000 95.531 -100.0775
3.500000 95.635 -101.0666
3.550000 95.734 -102.0410
3.600000 95.829 -103.0015
3.650000 95.921 -103.9488
3.700000 96.009 -104.8840
3.750000 96.093 -105.8079
3.820000 96.203 -107.0791
3.870000 96.277 -107.9690
3.950000 96.390 -109.3573
4.000000 96.458 -110.2000
4.060000 96.537 -111.1835
4.120000 96.611 -112.1364
4.180000 96.682 -113.0618
4.250000 96.760 -114.1107
4.310000 96.824 -114.9872
4.370000 96.887 -115.8459
4.440000 96.958 -116.8265
4.500000 97.016 -117.6435
4.550000 97.063 -118.3089
4.620000 97.126 -119.2191
4.680000 97.179 -119.9818
4.750000 97.241 -120.8542
4.820000 97.302 -121.7050
4.870000 97.345 -122.2959
4.940000 97.405 -123.1046
5.000000 97.455 -123.7855
5.080000 97.521 -124.6834
5.150000 97.578 -125.4663
5.220000 97.635 -126.2388
5.300000 97.699 -127.1091
5.380000 97.762 -127.9718
5.450000 97.816 -128.7252
5.520000 97.868 -129.4808
5.600000 97.927 -130.3431
5.700000 97.998 -131.4176
5.800000 98.065 -132.4901
5.900000 98.126 -133.5625
6.000000 98.182 -134.6392
6.080000 98.224 -135.4986
6.150000 98.257 -136.2446
6.220000 98.286 -136.9815
6.300000 98.316 -137.8165
6.400000 98.347 -138.8539
6.500000 98.371 -139.8685
6.600000 98.390 -140.8436
6.700000 98.402 -141.7834
6.800000 98.407 -142.6902
6.900000 98.409 -143.5528
7.000000 98.408 -144.3611
7.100000 98.403 -145.1186
7.200000 98.396 -145.8279
7.300000 98.390 -146.4900
7.400000 98.385 -147.1011
7.500000 98.380 -147.6585
7.620000 98.378 -148.2774
7.750000 98.382 -148.9080
7.880000 98.394 -149.4796
8.000000 98.410 -149.9857
8.120000 98.433 -150.5005
8.250000 98.465 -151.0493
8.380000 98.501 -151.6132
8.500000 98.536 -152.1689
8.620000 98.575 -152.7494
8.750000 98.615 -153.4063
8.850000 98.642 -153.9341
9.000000 98.680 -154.7661
9.120000 98.706 -155.4464
9.250000 98.727 -156.1875
9.380000 98.742 -156.9402
9.500000 98.749 -157.6229
9.620000 98.747 -158.2849
9.750000 98.737 -158.9864
9.880000 98.717 -159.6542
10.000000 98.687 -160.2347
10.150000 98.637 -160.9171
10.300000 98.580 -161.5419
10.440000 98.518 -162.0687
10.600000 98.444 -162.6197
10.750000 98.378 -163.0935
10.900000 98.314 -163.5266
11.060000 98.248 -163.9645
11.200000 98.193 -164.3269
11.380000 98.125 -164.7552
11.500000 98.080 -165.0168
11.720000 98.002 -165.4428
11.800000 97.976 -165.5775
12.060000 97.901 -165.9507
12.200000 97.870 -166.1198
12.410000 97.835 -166.3398
12.500000 97.825 -166.4340
12.650000 97.814 -166.5819
12.800000 97.810 -166.7446
13.150000 97.825 -167.2407
13.200000 97.829 -167.3294
13.400000 97.848 -167.7340
13.600000 97.867 -168.2054
13.800000 97.883 -168.7441
14.000000 97.894 -169.3189
14.300000 97.897 -170.2284
14.500000 97.890 -170.8336
14.750000 97.877 -171.5826
15.000000 97.859 -172.3216
15.250000 97.839 -173.0687
15.500000 97.810 -173.8140
15.750000 97.769 -174.5397
16.000000 97.712 -175.2026
16.250000 97.642 -175.7367
16.500000 97.567 -176.1116
16.750000 97.498 -176.2871
17.000000 97.452 -176.3130
17.250000 97.437 -176.2592
17.500000 97.458 -176.2225
17.750000 97.505 -176.3435
18.000000 97.565 -176.6611
18.250000 97.621 -177.2155
18.500000 97.654 -177.9420
18.750000 97.659 -178.7517
19.000000 97.631 -179.5605
19.250000 97.579 179.7551
19.500000 97.515 179.2209
19.750000 97.449 178.8533
20.000000 97.395 178.6038
20.299999 97.349 178.3564
20.600000 97.319 178.0768
20.900000 97.294 177.7114
21.200001 97.257 177.2839
21.400000 97.222 177.0179
21.799999 97.138 176.6265
22.000000 97.096 176.5307
22.400000 97.033 176.5265
22.700001 97.017 176.5897
23.000000 97.027 176.5883
23.299999 97.052 176.4473
23.600000 97.079 176.1555
24.000000 97.097 175.5887
24.299999 97.092 175.1203
24.700001 97.063 174.5508
25.000000 97.032 174.2106
25.400000 96.991 173.8746
25.799999 96.961 173.6154
26.200001 96.944 173.3514
26.500000 96.935 173.1118
26.900000 96.920 172.7221
27.200001 96.901 172.3951
27.600000 96.861 171.9661
28.000000 96.807 171.6199
28.500000 96.740 171.3621
29.000000 96.697 171.2184
29.500000 96.684 171.0058
30.000000 96.681 170.5911
30.400000 96.667 170.1351
30.700001 96.646 169.7678
31.100000 96.607 169.3089
31.500000 96.562 168.9185
32.000000 96.510 168.5146
32.500000 96.468 168.1454
33.000000 96.431 167.7716
33.500000 96.396 167.4023
34.000000 96.363 167.0499
34.500000 96.335 166.6934
35.000000 96.305 166.3105
35.500000 96.266 165.9282
36.000000 96.218 165.6100
36.500000 96.171 165.3812
37.000000 96.135 165.1919
37.500000 96.108 164.9745
38.200001 96.075 164.5999
38.700001 96.054 164.3009
39.500000 96.026 163.6830
40.000000 95.995 163.1939
40.599998 95.931 162.6573
41.200001 95.858 162.3546
41.799999 95.808 162.2273
42.500000 95.781 162.0335
43.099998 95.757 161.7620
43.700001 95.720 161.5090
44.400002 95.671 161.3132
45.000000 95.635 161.1737
45.500000 95.606 161.0190
46.200001 95.555 160.7280
46.799999 95.495 160.4858
47.500000 95.417 160.3581
48.200001 95.368 160.3647
48.700001 95.359 160.3133
49.400002 95.356 160.0278
50.000000 95.336 159.6877
50.799999 95.293 159.4064
51.500000 95.276 159.3314
52.200001 95.280 159.1952
53.000000 95.266 158.9712
53.799999 95.242 158.9047
54.500000 95.238 158.8115
55.200001 95.220 158.4638
56.000000 95.139 158.0170
57.000000 95.014 157.7709
58.000000 94.912 157.4142
59.000000 94.793 157.0039
60.000000 94.701 156.7183
60.799999 94.655 156.4371
61.500000 94.624 156.1652
62.200001 94.599 155.8788
63.000000 94.566 155.5567
64.000000 94.516 155.2685
65.000000 94.462 155.0683
66.000000 94.396 154.9097
67.000000 94.327 154.7884
68.000000 94.254 154.5889
69.000000 94.168 154.3636
70.000000 94.084 154.1966
71.000000 94.013 154.0474
72.000000 93.954 153.8950
73.000000 93.900 153.7599
74.000000 93.851 153.6683
75.000000 93.806 153.5768
76.199997 93.748 153.4189
77.500000 93.671 153.2384
78.800003 93.592 153.1193
80.000000 93.534 153.0202
81.199997 93.483 152.8502
82.500000 93.422 152.6531
83.800003 93.353 152.5051
85.000000 93.284 152.4078
86.199997 93.213 152.3354
87.500000 93.138 152.2532
88.500000 93.082 152.1636
90.000000 92.995 152.0167
91.199997 92.929 151.9448
92.500000 92.865 151.8489
93.800003 92.792 151.8047
95.000000 92.736 151.8574
96.199997 92.693 151.8400
97.500000 92.637 151.6923
98.800003 92.566 151.5453
100.000000 92.499 151.4447
101.500000 92.417 151.3497
103.000000 92.346 151.3107
104.400002 92.294 151.2624
106.000000 92.234 151.1554
107.500000 92.161 151.0983
109.000000 92.083 151.1608
110.599998 92.000 151.2704
112.000000 91.930 151.3737
113.800003 91.853 151.4144
115.000000 91.799 151.3544
117.199997 91.694 151.2859
118.000000 91.659 151.2856
120.599998 91.556 151.3093
122.000000 91.499 151.3494
124.099998 91.417 151.5390
125.000000 91.386 151.6386
126.500000 91.333 151.8095
128.000000 91.283 152.0059
131.500000 91.169 152.0361
132.000000 91.146 152.0114
134.000000 91.053 151.9777
136.000000 90.977 152.0504
138.000000 90.924 152.2156
140.000000 90.885 152.3599
143.000000 90.800 152.5422
145.000000 90.740 152.6979
147.500000 90.661 152.7680
150.000000 90.571 152.9889
152.500000 90.533 153.2252
155.000000 90.489 153.0241
157.500000 90.366 152.8207
160.000000 90.199 153.2283
162.500000 90.129 154.1246
165.000000 90.180 154.3566
167.500000 90.220 153.6338
170.000000 90.091 153.2171
172.500000 89.963 153.7084
175.000000 89.838 154.3790
177.500000 89.784 155.0140
180.000000 89.787 154.7492
182.500000 89.689 154.2431
185.000000 89.565 154.8694
187.500000 89.582 156.1617
190.000000 89.682 157.0055
192.500000 89.708 157.3286
195.000000 89.611 157.3912
197.500000 89.461 157.1552
200.000000 89.391 156.8259
203.000000 89.418 157.0867
206.000000 89.349 158.3105
209.000000 89.141 158.9904
212.000000 89.007 158.6037
214.000000 89.008 158.4214
218.000000 88.992 159.1552
220.000000 88.940 159.5667
224.000000 88.864 159.7843
227.000000 88.820 159.9437
230.000000 88.758 160.2266
233.000000 88.699 160.5467
236.000000 88.644 160.9509
240.000000 88.563 161.4238
243.000000 88.514 161.5541
247.000000 88.501 161.7626
250.000000 88.518 162.2959
254.000000 88.473 162.8793
258.000000 88.348 163.0067
262.000000 88.293 163.3593
265.000000 88.267 163.7728
269.000000 88.254 164.2087
272.000000 88.231 164.3224
276.000000 88.167 164.5793
280.000000 88.129 164.9567
285.000000 88.086 165.4950
290.000000 88.036 166.0246
295.000000 87.977 166.6117
300.000000 87.920 167.1966
304.000000 87.882 167.6993
307.000000 87.855 168.0081
311.000000 87.820 168.3740
315.000000 87.787 168.6876
320.000000 87.763 169.1190
325.000000 87.745 169.6482
330.000000 87.707 170.2795
335.000000 87.663 170.8692
340.000000 87.624 171.3434
345.000000 87.596 171.7834
350.000000 87.573 172.2575
355.000000 87.557 172.7785
360.000000 87.549 173.2437
365.000000 87.528 173.6061
370.000000 87.475 174.0485
375.000000 87.432 174.6329
382.000000 87.422 175.2933
387.000000 87.418 175.6693
395.000000 87.379 176.3224
400.000000 87.356 176.7479
406.000000 87.325 177.3138
412.000000 87.295 177.8543
418.000000 87.266 178.4075
425.000000 87.232 179.0516
431.000000 87.210 179.6060
437.000000 87.194 -179.8556
444.000000 87.181 -179.2526
450.000000 87.179 -178.7371
455.000000 87.179 -178.3261
462.000000 87.170 -177.7514
468.000000 87.153 -177.2237
475.000000 87.129 -176.5836
482.000000 87.106 -175.9290
487.000000 87.093 -175.4719
494.000000 87.084 -174.8825
500.000000 87.086 -174.4225
508.000000 87.095 -173.8176
515.000000 87.100 -173.2637
522.000000 87.095 -172.6800
530.000000 87.082 -171.9873
538.000000 87.071 -171.2819
545.000000 87.065 -170.6857
552.000000 87.061 -170.1233
560.000000 87.071 -169.5225
570.000000 87.093 -168.7610
580.000000 87.099 -167.9479
590.000000 87.099 -167.1002
600.000000 87.105 -166.2782
608.000000 87.115 -165.6637
615.000000 87.127 -165.1409
622.000000 87.141 -164.6008
630.000000 87.158 -163.9592
640.000000 87.176 -163.1642
650.000000 87.193 -162.4062
660.000000 87.213 -161.6645
670.000000 87.230 -160.9120
680.000000 87.244 -160.1313
690.000000 87.263 -159.3549
700.000000 87.289 -158.6011
710.000000 87.321 -157.8585
720.000000 87.355 -157.1149
730.000000 87.385 -156.3574
740.000000 87.413 -155.5951
750.000000 87.443 -154.8400
762.000000 87.484 -153.9665
775.000000 87.537 -153.0468
788.000000 87.591 -152.1330
800.000000 87.638 -151.2641
812.000000 87.687 -150.3883
825.000000 87.739 -149.4648
838.000000 87.789 -148.4743
850.000000 87.843 -147.4403
862.000000 87.919 -146.3897
875.000000 88.030 -145.3100
885.000000 88.142 -144.5752
900.000000 88.313 -143.8190
912.000000 88.410 -143.3921
925.000000 88.487 -142.8812
938.000000 88.563 -142.3056
950.000000 88.641 -141.7563
962.000000 88.723 -141.1998
975.000000 88.814 -140.5965
988.000000 88.904 -140.0195
1000.000000 88.986 -139.4989
1015.000000 89.092 -138.8579
1030.000000 89.202 -138.2701
1044.000000 89.304 -137.7677
1060.000000 89.415 -137.2159
1075.000000 89.521 -136.7569
1090.000000 89.635 -136.3285
1106.000000 89.761 -135.8583
1120.000000 89.870 -135.4908
1138.000000 90.013 -135.0497
1150.000000 90.110 -134.7723
1172.000000 90.292 -134.3465
1180.000000 90.359 -134.2077
1206.000000 90.579 -133.8023
1220.000000 90.694 -133.5876
1241.000000 90.855 -133.2699
1250.000000 90.921 -133.1466
1265.000000 91.034 -132.9623
1280.000000 91.151 -132.7983
1315.000000 91.428 -132.4963
1320.000000 91.466 -132.4582
1340.000000 91.607 -132.3169
1360.000000 91.718 -132.1913
1380.000000 91.820 -132.0694
1400.000000 91.936 -131.9734
1430.000000 92.132 -131.9177
1450.000000 92.263 -131.9106
1475.000000 92.414 -131.8933
1500.000000 92.557 -131.9288
1525.000000 92.693 -132.0102
1550.000000 92.817 -132.0971
1575.000000 92.937 -132.2407
1600.000000 93.058 -132.4231
1625.000000 93.174 -132.6240
1650.000000 93.288 -132.8724
1675.000000 93.395 -133.1493
1700.000000 93.492 -133.4409
1725.000000 93.576 -133.7667
1750.000000 93.645 -134.1029
1775.000000 93.707 -134.4458
1800.000000 93.771 -134.8361
1825.000000 93.834 -135.2400
1850.000000 93.891 -135.6494
1875.000000 93.937 -136.0685
1900.000000 93.968 -136.4766
1925.000000 93.984 -136.8721
1950.000000 93.991 -137.2685
1975.000000 93.993 -137.6601
2000.000000 93.988 -138.0370
2030.000000 93.973 -138.4513
2060.000000 93.955 -138.8505
2090.000000 93.930 -139.2255
2120.000000 93.891 -139.5350
2140.000000 93.859 -139.7177
2180.000000 93.790 -140.0314
2200.000000 93.751 -140.1610
2240.000000 93.663 -140.3447
2270.000000 93.589 -140.4127
2300.000000 93.515 -140.4374
2330.000000 93.442 -140.4150
2360.000000 93.366 -140.3396
2400.000000 93.261 -140.1613
2430.000000 93.177 -139.9682
2470.000000 93.059 -139.6344
2500.000000 92.969 -139.3288
2540.000000 92.854 -138.8600
2580.000000 92.748 -138.3316
2620.000000 92.649 -137.7376
2650.000000 92.579 -137.2526
2690.000000 92.488 -136.5607
2720.000000 92.420 -136.0046
2760.000000 92.331 -135.2220
2800.000000 92.246 -134.4031
2850.000000 92.150 -133.3306
2900.000000 92.062 -132.2107
2950.000000 91.987 -131.0571
3000.000000 91.919 -129.8759
3040.000000 91.868 -128.9054
3070.000000 91.834 -128.1747
3110.000000 91.797 -127.2043
3150.000000 91.764 -126.2274
3200.000000 91.728 -124.9958
3250.000000 91.703 -123.7751
3300.000000 91.689 -122.5710
3350.000000 91.680 -121.3795
3400.000000 91.681 -120.2090
3450.000000 91.695 -119.0638
3500.000000 91.723 -117.9591
3550.000000 91.757 -116.8810
3600.000000 91.790 -115.8307
3650.000000 91.821 -114.8102
3700.000000 91.854 -113.8101
3750.000000 91.901 -112.8579
3820.000000 91.990 -111.6391
3870.000000 92.057 -110.8746
3950.000000 92.150 -109.8650
4000.000000 92.196 -109.3604
4060.000000 92.242 -108.8657
4120.000000 92.279 -108.4738
4180.000000 92.298 -108.1518
4250.000000 92.294 -107.8383
4310.000000 92.267 -107.5971
4370.000000 92.217 -107.3628
4440.000000 92.132 -107.0629
4500.000000 92.037 -106.7606
4550.000000 91.945 -106.4736
4620.000000 91.797 -106.0023
4680.000000 91.651 -105.5219
4750.000000 91.463 -104.8688
4820.000000 91.269 -104.1042
4870.000000 91.131 -103.4777
4940.000000 90.934 -102.4597
5000.000000 90.762 -101.4439
5080.000000 90.528 -99.8938
5150.000000 90.322 -98.3775
5220.000000 90.122 -96.7376
5300.000000 89.912 -94.7525
5380.000000 89.729 -92.6763
5450.000000 89.588 -90.7705
5520.000000 89.459 -88.7621
5600.000000 89.327 -86.3476
5700.000000 89.194 -83.2146
5800.000000 89.098 -80.0561
5900.000000 89.038 -76.9330
6000.000000 89.023 -73.8911
6080.000000 89.033 -71.5229
6150.000000 89.054 -69.4986
6220.000000 89.087 -67.5287
6300.000000 89.137 -65.3428
6400.000000 89.205 -62.6816
6500.000000 89.285 -60.0947
6600.000000 89.388 -57.5694
6700.000000 89.509 -55.0712
6800.000000 89.659 -52.5892
6900.000000 89.858 -50.1186
7000.000000 90.120 -47.6834
7100.000000 90.448 -45.3372
7200.000000 90.844 -43.1681
7300.000000 91.308 -41.2957
7400.000000 91.843 -39.8730
7500.000000 92.457 -39.1021
7620.000000 93.305 -39.4277
7750.000000 94.286 -41.9937
7880.000000 95.091 -47.5797
8000.000000 95.481 -55.4724
8120.000000 95.357 -64.8792
8250.000000 94.582 -74.4547
8380.000000 93.286 -81.2632
8500.000000 91.854 -84.4325
8620.000000 90.383 -84.9472
8750.000000 88.886 -83.4396
8850.000000 87.843 -81.4836
9000.000000 86.391 -77.7553
9120.000000 85.273 -73.8823
9250.000000 84.144 -68.6513
9380.000000 83.167 -62.6752
9500.000000 82.405 -56.8661
9620.000000 81.756 -50.9580
9750.000000 81.159 -44.5089
9880.000000 80.650 -38.0389
10000.000000 80.247 -32.0791
10150.000000 79.827 -24.6918
10300.000000 79.499 -17.4202
10440.000000 79.263 -10.7460
10600.000000 79.055 -3.1767
10750.000000 78.925 3.9752
10900.000000 78.889 11.1902
11060.000000 78.998 18.7442
11200.000000 79.234 24.9657
11380.000000 79.722 32.0602
11500.000000 80.147 36.0203
11720.000000 81.062 41.1085
11800.000000 81.415 42.0838
12060.000000 82.424 41.2413
12200.000000 82.712 38.2661
12410.000000 82.550 31.9899
12500.000000 82.240 29.3630
12650.000000 81.440 26.0243
12800.000000 80.379 24.5678
13150.000000 77.574 28.4548
13200.000000 77.185 29.6400
13400.000000 75.699 35.3793
13600.000000 74.304 42.6009
13800.000000 73.044 51.2896
14000.000000 71.999 60.8676
14300.000000 70.754 76.4118
14500.000000 70.193 87.8654
14750.000000 70.066 102.1247
15000.000000 70.481 113.3298
15250.000000 70.931 120.0551
15500.000000 71.043 123.2278
15750.000000 70.527 125.5280
16000.000000 69.403 131.4414
16250.000000 68.288 142.7029
16500.000000 67.814 156.1557
16750.000000 67.888 168.2184
17000.000000 68.114 178.1136
17250.000000 68.371 -173.3616
17500.000000 68.713 -166.2334
17750.000000 69.031 -161.5113
18000.000000 69.032 -159.0856
18250.000000 68.565 -156.9626
18500.000000 67.771 -153.0266
18750.000000 66.960 -146.3810
19000.000000 66.340 -137.1888
19250.000000 65.839 -126.1301
19500.000000 65.274 -114.0089
19750.000000 64.609 -101.4879
20000.000000 63.851 -89.1289
20300.000000 62.823 -74.9808
20600.000000 61.602 -60.8592
20900.000000 60.051 -44.5485
21200.000000 58.435 -25.9067
21400.000000 57.642 -20.5627
21800.000000 56.460 172.9623
22000.000000 55.196 122.3182
22400.000000 49.807 114.4084
22700.000000 43.613 -135.4463
23000.000000 36.947 -165.2344
23300.000000 32.994 25.3398
23600.000000 32.051 94.8672
24000.000000 31.345 -60.7344
