* Measurement data measured by REW V5.20.13
* Source: Headset (DS by VECLAN.COM), MICROPHONE (Master Volume), L, volume: 0.710. Timing signal peak level -15.4 dBFS, measurement signal peak level -14.3 dBFS
* Format: 2M Log Swept Sine, 1 sweep at -12.0 dBFS using an acoustic timing reference
* Dated: Nov 12, 2023 6:25:45 PM
* REW Settings:
*  C-weighting compensation: Off
*  Target level: 75.0 dB
* Note: ; Delay -0.0687 ms (-24 mm, -0.93 in) using estimated IR delay relative to Acoustic reference played from HEADPHONE L with no timing offset
* Measurement: Letshuoer D13 L
* Smoothing: 1/24 octave
* Frequency Step: 1/48 octave
* Start Frequency: 1.000 Hz
*
* Freq(Hz) SPL(dB) Phase(degrees)
1.000000 73.968 -65.0220
1.015000 74.247 -62.8859
1.030000 74.522 -60.8786
1.044000 74.774 -59.1313
1.060000 75.055 -57.2961
1.075000 75.310 -55.7442
1.090000 75.557 -54.3673
1.106000 75.810 -53.6596
1.120000 76.031 -53.6665
1.138000 76.316 -53.6844
1.150000 76.506 -53.7014
1.172000 76.853 -53.7420
1.180000 76.979 -53.7594
1.206000 77.387 -53.8243
1.220000 77.605 -53.8636
1.241000 77.929 -53.9268
1.250000 78.067 -53.9551
1.265000 78.295 -54.0033
1.280000 78.520 -54.0522
1.315000 79.035 -54.1654
1.320000 79.107 -54.1812
1.340000 79.392 -54.2420
1.360000 79.670 -54.2982
1.380000 79.939 -54.3483
1.400000 80.201 -54.3908
1.430000 80.577 -54.4367
1.450000 80.814 -54.4532
1.475000 81.097 -54.4165
1.500000 81.362 -54.2651
1.525000 81.610 -54.0507
1.550000 81.845 -53.7859
1.575000 82.066 -53.4835
1.600000 82.276 -53.1562
1.625000 82.475 -52.8166
1.650000 82.666 -52.4775
1.675000 82.849 -52.1516
1.700000 83.026 -51.8514
1.725000 83.199 -51.5899
1.750000 83.369 -51.3796
1.775000 83.537 -51.2333
1.800000 83.705 -51.1636
1.825000 83.874 -51.1833
1.850000 84.043 -51.2982
1.875000 84.205 -51.4936
1.900000 84.362 -51.7603
1.925000 84.513 -52.0890
1.950000 84.660 -52.4710
1.975000 84.802 -52.8972
2.000000 84.941 -53.3588
2.030000 85.104 -53.9465
2.060000 85.265 -54.5566
2.090000 85.423 -55.1736
2.120000 85.582 -55.7821
2.140000 85.687 -56.1753
2.180000 85.901 -56.9113
2.200000 86.009 -57.2451
2.240000 86.227 -57.8873
2.270000 86.391 -58.3641
2.300000 86.553 -58.8380
2.330000 86.715 -59.3103
2.360000 86.875 -59.7820
2.400000 87.086 -60.4122
2.430000 87.243 -60.8872
2.470000 87.448 -61.5260
2.500000 87.599 -62.0107
2.540000 87.796 -62.6666
2.580000 87.987 -63.3347
2.620000 88.173 -64.0055
2.650000 88.310 -64.5100
2.690000 88.489 -65.1868
2.720000 88.621 -65.6988
2.760000 88.793 -66.3897
2.800000 88.961 -67.0922
2.850000 89.167 -67.9908
2.900000 89.368 -68.9170
2.950000 89.564 -69.8786
3.000000 89.756 -70.8971
3.040000 89.905 -71.7446
3.070000 90.014 -72.3926
3.110000 90.158 -73.2646
3.150000 90.298 -74.1364
3.200000 90.469 -75.2100
3.250000 90.635 -76.2468
3.300000 90.797 -77.2267
3.350000 90.955 -78.1444
3.400000 91.107 -79.0157
3.450000 91.254 -79.8555
3.500000 91.397 -80.6786
3.550000 91.536 -81.5000
3.600000 91.670 -82.3344
3.650000 91.801 -83.1968
3.700000 91.929 -84.0998
3.750000 92.051 -85.0379
3.820000 92.216 -86.3821
3.870000 92.329 -87.3440
3.950000 92.503 -88.8446
4.000000 92.609 -89.7354
4.060000 92.732 -90.7353
4.120000 92.851 -91.6722
4.180000 92.965 -92.5634
4.250000 93.093 -93.5664
4.310000 93.199 -94.4125
4.370000 93.303 -95.2627
4.440000 93.421 -96.2749
4.500000 93.518 -97.1495
4.550000 93.597 -97.8761
4.620000 93.704 -98.8800
4.680000 93.793 -99.7188
4.750000 93.896 -100.6602
4.820000 93.997 -101.5525
4.870000 94.068 -102.1637
4.940000 94.165 -102.9916
5.000000 94.246 -103.6830
5.080000 94.353 -104.5919
5.150000 94.446 -105.3855
5.220000 94.537 -106.1698
5.300000 94.639 -107.0511
5.380000 94.740 -107.9183
5.450000 94.827 -108.6671
5.520000 94.913 -109.4077
5.600000 95.010 -110.2399
5.700000 95.128 -111.2625
5.800000 95.244 -112.2721
5.900000 95.356 -113.2751
6.000000 95.466 -114.2673
6.080000 95.550 -115.0540
6.150000 95.622 -115.7391
6.220000 95.692 -116.4223
6.300000 95.768 -117.2041
6.400000 95.859 -118.1806
6.500000 95.946 -119.1457
6.600000 96.027 -120.0878
6.700000 96.102 -121.0082
6.800000 96.172 -121.9098
6.900000 96.238 -122.7881
7.000000 96.299 -123.6400
7.100000 96.355 -124.4705
7.200000 96.406 -125.2748
7.300000 96.456 -126.0451
7.400000 96.502 -126.7758
7.500000 96.546 -127.4703
7.620000 96.596 -128.2621
7.750000 96.651 -129.0742
7.880000 96.704 -129.8321
8.000000 96.755 -130.4976
8.120000 96.808 -131.1415
8.250000 96.867 -131.8039
8.380000 96.929 -132.4532
8.500000 96.988 -133.0582
8.620000 97.050 -133.6584
8.750000 97.117 -134.3189
8.850000 97.167 -134.8439
9.000000 97.244 -135.6514
9.120000 97.303 -136.3149
9.250000 97.363 -137.0543
9.380000 97.421 -137.8146
9.500000 97.467 -138.5246
9.620000 97.506 -139.2412
9.750000 97.540 -140.0273
9.880000 97.562 -140.8015
10.000000 97.569 -141.5018
10.150000 97.563 -142.3595
10.300000 97.544 -143.1659
10.440000 97.514 -143.8715
10.600000 97.473 -144.6227
10.750000 97.436 -145.2653
10.900000 97.398 -145.8553
11.060000 97.362 -146.4472
11.200000 97.335 -146.9294
11.380000 97.307 -147.5218
11.500000 97.292 -147.8995
11.720000 97.274 -148.5786
11.800000 97.270 -148.8286
12.060000 97.271 -149.6529
12.200000 97.276 -150.1265
12.410000 97.291 -150.8728
12.500000 97.296 -151.2073
12.650000 97.306 -151.7856
12.800000 97.315 -152.3837
13.150000 97.321 -153.8463
13.200000 97.320 -154.0574
13.400000 97.312 -154.9127
13.600000 97.296 -155.7448
13.800000 97.272 -156.5428
14.000000 97.242 -157.2717
14.300000 97.187 -158.2156
14.500000 97.150 -158.7167
14.750000 97.115 -159.2187
15.000000 97.099 -159.6033
15.250000 97.112 -159.9497
15.500000 97.147 -160.3380
15.750000 97.200 -160.8160
16.000000 97.257 -161.4413
16.250000 97.304 -162.1985
16.500000 97.335 -163.0539
16.750000 97.340 -163.9427
17.000000 97.323 -164.7651
17.250000 97.288 -165.4778
17.500000 97.244 -166.0306
17.750000 97.203 -166.4360
18.000000 97.172 -166.7357
18.250000 97.156 -166.9777
18.500000 97.153 -167.2425
18.750000 97.157 -167.5518
19.000000 97.162 -167.9254
19.250000 97.161 -168.3395
19.500000 97.151 -168.7554
19.750000 97.134 -169.1439
20.000000 97.114 -169.4696
20.299999 97.094 -169.7916
20.600000 97.086 -170.0721
20.900000 97.091 -170.3678
21.200001 97.106 -170.7369
21.400000 97.118 -171.0387
21.799999 97.134 -171.7602
22.000000 97.136 -172.1627
22.400000 97.123 -172.9950
22.700001 97.099 -173.5947
23.000000 97.067 -174.1348
23.299999 97.031 -174.5945
23.600000 96.998 -174.9662
24.000000 96.966 -175.3396
24.299999 96.959 -175.5721
24.700001 96.974 -175.9123
25.000000 96.998 -176.2603
25.400000 97.029 -176.9002
25.799999 97.038 -177.7054
26.200001 97.010 -178.5469
26.500000 96.966 -179.1044
26.900000 96.887 -179.6596
27.200001 96.825 -179.9131
27.600000 96.753 179.9374
28.000000 96.708 179.9139
28.500000 96.693 179.8820
29.000000 96.712 179.6442
29.500000 96.735 179.0925
30.000000 96.724 178.3127
30.400000 96.681 177.7019
30.700001 96.635 177.3453
31.100000 96.576 177.0525
31.500000 96.542 176.9020
32.000000 96.547 176.6715
32.500000 96.575 176.1620
33.000000 96.577 175.4152
33.500000 96.536 174.7130
34.000000 96.477 174.2982
34.500000 96.442 174.1378
35.000000 96.443 174.0125
35.500000 96.461 173.7480
36.000000 96.467 173.3610
36.500000 96.456 172.9577
37.000000 96.433 172.5926
37.500000 96.405 172.2437
38.200001 96.351 171.7660
38.700001 96.304 171.4723
39.500000 96.237 171.0648
40.000000 96.203 170.7672
40.599998 96.161 170.3441
41.200001 96.115 169.9068
41.799999 96.070 169.4837
42.500000 96.018 169.0209
43.099998 95.978 168.7040
43.700001 95.956 168.4536
44.400002 95.953 168.0935
45.000000 95.949 167.6435
45.500000 95.930 167.2301
46.200001 95.880 166.7295
46.799999 95.830 166.4118
47.500000 95.775 166.1168
48.200001 95.723 165.8510
48.700001 95.686 165.6744
49.400002 95.637 165.4602
50.000000 95.605 165.2947
50.799999 95.578 165.0031
51.500000 95.554 164.6272
52.200001 95.515 164.2139
53.000000 95.454 163.8316
53.799999 95.396 163.5836
54.500000 95.356 163.3967
55.200001 95.320 163.1418
56.000000 95.264 162.8018
57.000000 95.184 162.4898
58.000000 95.116 162.1673
59.000000 95.038 161.8435
60.000000 94.981 161.6937
60.799999 94.965 161.4946
61.500000 94.952 161.2097
62.200001 94.930 160.9017
63.000000 94.899 160.5735
64.000000 94.854 160.1843
65.000000 94.796 159.7902
66.000000 94.718 159.4763
67.000000 94.644 159.3190
68.000000 94.589 159.1628
69.000000 94.537 158.9189
70.000000 94.476 158.6711
71.000000 94.413 158.5123
72.000000 94.361 158.4192
73.000000 94.320 158.2650
74.000000 94.270 158.0203
75.000000 94.206 157.7811
76.199997 94.131 157.5459
77.500000 94.060 157.2368
78.800003 93.986 156.9929
80.000000 93.934 156.9047
81.199997 93.899 156.8112
82.500000 93.849 156.6701
83.800003 93.784 156.5907
85.000000 93.718 156.4567
86.199997 93.637 156.2777
87.500000 93.544 156.1353
88.500000 93.479 156.0971
90.000000 93.412 156.1501
91.199997 93.393 156.1496
92.500000 93.377 155.8658
93.800003 93.314 155.4722
95.000000 93.234 155.2215
96.199997 93.148 155.0446
97.500000 93.057 154.9612
98.800003 92.984 154.9638
100.000000 92.931 154.9597
101.500000 92.865 154.9354
103.000000 92.800 154.8981
104.400002 92.740 154.8239
106.000000 92.674 154.6745
107.500000 92.607 154.5359
109.000000 92.537 154.5049
110.599998 92.467 154.5823
112.000000 92.408 154.6714
113.800003 92.328 154.7065
115.000000 92.271 154.6796
117.199997 92.169 154.5472
118.000000 92.132 154.4870
120.599998 92.015 154.4441
122.000000 91.964 154.4928
124.099998 91.894 154.5416
125.000000 91.863 154.5478
126.500000 91.808 154.5715
128.000000 91.754 154.6279
131.500000 91.628 154.7455
132.000000 91.608 154.7603
134.000000 91.530 154.8378
136.000000 91.464 154.9204
138.000000 91.402 154.9749
140.000000 91.334 155.0986
143.000000 91.237 155.3694
145.000000 91.173 155.4655
147.500000 91.089 155.5610
150.000000 91.015 155.6953
152.500000 90.950 155.8309
155.000000 90.880 155.9284
157.500000 90.801 156.0668
160.000000 90.729 156.2901
162.500000 90.667 156.4893
165.000000 90.595 156.6449
167.500000 90.518 156.8121
170.000000 90.439 156.9736
172.500000 90.360 157.1484
175.000000 90.295 157.3760
177.500000 90.240 157.6506
180.000000 90.175 157.8952
182.500000 90.092 158.1119
185.000000 90.015 158.3661
187.500000 89.952 158.7229
190.000000 89.893 159.1643
192.500000 89.839 159.4237
195.000000 89.779 159.4073
197.500000 89.722 159.4419
200.000000 89.679 159.6811
203.000000 89.622 160.0822
206.000000 89.560 160.4111
209.000000 89.497 160.6677
212.000000 89.435 160.9347
214.000000 89.397 161.1146
218.000000 89.343 161.4967
220.000000 89.318 161.6861
224.000000 89.239 162.1903
227.000000 89.174 162.5661
230.000000 89.115 162.8545
233.000000 89.060 163.1261
236.000000 89.006 163.4619
240.000000 88.935 163.9236
243.000000 88.886 164.2387
247.000000 88.832 164.6697
250.000000 88.788 164.9703
254.000000 88.717 165.4095
258.000000 88.656 165.9025
262.000000 88.601 166.3887
265.000000 88.563 166.7277
269.000000 88.524 167.1257
272.000000 88.495 167.4634
276.000000 88.452 167.9523
280.000000 88.410 168.3837
285.000000 88.368 168.8482
290.000000 88.327 169.4342
295.000000 88.287 170.1383
300.000000 88.241 170.6545
304.000000 88.203 171.0432
307.000000 88.173 171.3752
311.000000 88.134 171.8126
315.000000 88.097 172.2445
320.000000 88.050 172.8693
325.000000 88.008 173.5348
330.000000 87.981 174.0783
335.000000 87.959 174.5196
340.000000 87.935 175.0132
345.000000 87.900 175.5396
350.000000 87.866 176.0745
355.000000 87.841 176.6312
360.000000 87.813 177.2053
365.000000 87.791 177.7349
370.000000 87.780 178.1632
375.000000 87.761 178.6048
382.000000 87.722 179.3085
387.000000 87.713 179.7435
395.000000 87.682 -179.4232
400.000000 87.643 -178.8685
406.000000 87.607 -178.3274
412.000000 87.583 -177.7245
418.000000 87.563 -177.0275
425.000000 87.547 -176.1368
431.000000 87.542 -175.5226
437.000000 87.473 -174.9913
444.000000 87.414 -174.0764
450.000000 87.443 -173.2986
455.000000 87.462 -172.6455
462.000000 87.488 -171.5470
468.000000 87.560 -170.7576
475.000000 87.585 -170.3497
482.000000 87.495 -170.0867
487.000000 87.427 -169.9564
494.000000 87.384 -169.5950
500.000000 87.372 -168.9887
508.000000 87.358 -168.0976
515.000000 87.358 -167.3609
522.000000 87.353 -166.6857
530.000000 87.341 -165.9622
538.000000 87.336 -165.2996
545.000000 87.343 -164.6919
552.000000 87.353 -164.0367
560.000000 87.348 -163.2397
570.000000 87.341 -162.1888
580.000000 87.353 -161.1753
590.000000 87.372 -160.2870
600.000000 87.391 -159.3181
608.000000 87.404 -158.5414
615.000000 87.413 -157.9100
622.000000 87.419 -157.2610
630.000000 87.420 -156.5162
640.000000 87.439 -155.6323
650.000000 87.473 -154.7653
660.000000 87.496 -153.9222
670.000000 87.493 -153.0228
680.000000 87.520 -151.9781
690.000000 87.574 -151.1136
700.000000 87.607 -150.2650
710.000000 87.630 -149.2875
720.000000 87.670 -148.3141
730.000000 87.714 -147.3547
740.000000 87.751 -146.4391
750.000000 87.794 -145.5537
762.000000 87.839 -144.4899
775.000000 87.889 -143.3991
788.000000 87.953 -142.2965
800.000000 88.013 -141.2446
812.000000 88.077 -140.1596
825.000000 88.142 -139.0414
838.000000 88.204 -137.9183
850.000000 88.264 -136.7538
862.000000 88.345 -135.5186
875.000000 88.449 -134.2039
885.000000 88.546 -133.2422
900.000000 88.729 -132.0852
912.000000 88.864 -131.4684
925.000000 88.972 -130.8035
938.000000 89.064 -130.0402
950.000000 89.154 -129.3216
962.000000 89.244 -128.5970
975.000000 89.341 -127.7953
988.000000 89.439 -126.9890
1000.000000 89.536 -126.2537
1015.000000 89.665 -125.3462
1030.000000 89.789 -124.5234
1044.000000 89.903 -123.8134
1060.000000 90.042 -123.0160
1075.000000 90.175 -122.2827
1090.000000 90.312 -121.5725
1106.000000 90.461 -120.8574
1120.000000 90.593 -120.2438
1138.000000 90.768 -119.4670
1150.000000 90.887 -118.9918
1172.000000 91.104 -118.1019
1180.000000 91.181 -117.7842
1206.000000 91.429 -116.8977
1220.000000 91.563 -116.4416
1241.000000 91.765 -115.7593
1250.000000 91.853 -115.4554
1265.000000 91.997 -114.9293
1280.000000 92.138 -114.4323
1315.000000 92.479 -113.3981
1320.000000 92.528 -113.2467
1340.000000 92.714 -112.6507
1360.000000 92.877 -112.0918
1380.000000 93.044 -111.5380
1400.000000 93.230 -111.0076
1430.000000 93.525 -110.2336
1450.000000 93.723 -109.7628
1475.000000 93.968 -109.2338
1500.000000 94.216 -108.7502
1525.000000 94.466 -108.2859
1550.000000 94.714 -107.8636
1575.000000 94.967 -107.5186
1600.000000 95.227 -107.2539
1625.000000 95.489 -107.0466
1650.000000 95.753 -106.8967
1675.000000 96.019 -106.8688
1700.000000 96.285 -106.9199
1725.000000 96.551 -107.0556
1750.000000 96.817 -107.2932
1775.000000 97.085 -107.6445
1800.000000 97.353 -108.1206
1825.000000 97.614 -108.7030
1850.000000 97.863 -109.3936
1875.000000 98.102 -110.2140
1900.000000 98.332 -111.1625
1925.000000 98.554 -112.2330
1950.000000 98.762 -113.4200
1975.000000 98.951 -114.7140
2000.000000 99.120 -116.1182
2030.000000 99.290 -117.9076
2060.000000 99.425 -119.7694
2090.000000 99.528 -121.7159
2120.000000 99.600 -123.7047
2140.000000 99.628 -125.0251
2180.000000 99.635 -127.6260
2200.000000 99.612 -128.8777
2240.000000 99.518 -131.2561
2270.000000 99.413 -132.9055
2300.000000 99.280 -134.3994
2330.000000 99.126 -135.7366
2360.000000 98.957 -136.9225
2400.000000 98.714 -138.2401
2430.000000 98.518 -139.0290
2470.000000 98.247 -139.8450
2500.000000 98.039 -140.2732
2540.000000 97.764 -140.6460
2580.000000 97.486 -140.7807
2620.000000 97.207 -140.6893
2650.000000 97.005 -140.4960
2690.000000 96.752 -140.0694
2720.000000 96.574 -139.6541
2760.000000 96.349 -138.9910
2800.000000 96.135 -138.2457
2850.000000 95.880 -137.2046
2900.000000 95.644 -136.0021
2950.000000 95.433 -134.6365
3000.000000 95.248 -133.1175
3040.000000 95.122 -131.8740
3070.000000 95.037 -130.9367
3110.000000 94.935 -129.7041
3150.000000 94.841 -128.4701
3200.000000 94.734 -126.8864
3250.000000 94.639 -125.2519
3300.000000 94.561 -123.5724
3350.000000 94.505 -121.8986
3400.000000 94.474 -120.2647
3450.000000 94.464 -118.6733
3500.000000 94.470 -117.1006
3550.000000 94.494 -115.5634
3600.000000 94.528 -114.0683
3650.000000 94.572 -112.6240
3700.000000 94.632 -111.2659
3750.000000 94.702 -109.9656
3820.000000 94.818 -108.2723
3870.000000 94.906 -107.1508
3950.000000 95.055 -105.5317
4000.000000 95.158 -104.6675
4060.000000 95.285 -103.7837
4120.000000 95.412 -103.0963
4180.000000 95.532 -102.5808
4250.000000 95.661 -102.2186
4310.000000 95.749 -102.0854
4370.000000 95.805 -102.1061
4440.000000 95.836 -102.3112
4500.000000 95.831 -102.5968
4550.000000 95.803 -102.8838
4620.000000 95.721 -103.2878
4680.000000 95.615 -103.5753
4750.000000 95.458 -103.7979
4820.000000 95.268 -103.8551
4870.000000 95.113 -103.7873
4940.000000 94.877 -103.5273
5000.000000 94.661 -103.1340
5080.000000 94.359 -102.3546
5150.000000 94.089 -101.4465
5220.000000 93.820 -100.3387
5300.000000 93.516 -98.8400
5380.000000 93.219 -97.1114
5450.000000 92.967 -95.4025
5520.000000 92.734 -93.5159
5600.000000 92.500 -91.1769
5700.000000 92.256 -88.0366
5800.000000 92.059 -84.7746
5900.000000 91.908 -81.4877
6000.000000 91.806 -78.2297
6080.000000 91.752 -75.6579
6150.000000 91.719 -73.4431
6220.000000 91.697 -71.2618
6300.000000 91.684 -68.8064
6400.000000 91.683 -65.7564
6500.000000 91.705 -62.6939
6600.000000 91.765 -59.6242
6700.000000 91.867 -56.5663
6800.000000 92.015 -53.5476
6900.000000 92.231 -50.6006
7000.000000 92.520 -47.7574
7100.000000 92.878 -45.0695
7200.000000 93.308 -42.6074
7300.000000 93.823 -40.4884
7400.000000 94.431 -38.8692
7500.000000 95.142 -37.9856
7620.000000 96.136 -38.3973
7750.000000 97.296 -41.5827
7880.000000 98.250 -48.7316
8000.000000 98.654 -58.9831
8120.000000 98.353 -70.8479
8250.000000 97.196 -81.8126
8380.000000 95.468 -88.2871
8500.000000 93.706 -90.2239
8620.000000 92.009 -89.2375
8750.000000 90.367 -86.1215
8850.000000 89.263 -83.0230
9000.000000 87.786 -77.9024
9120.000000 86.671 -73.2020
9250.000000 85.533 -67.1461
9380.000000 84.539 -60.2792
9500.000000 83.771 -53.6172
9620.000000 83.124 -46.8719
9750.000000 82.539 -39.5512
9880.000000 82.058 -32.2283
10000.000000 81.699 -25.4894
10150.000000 81.356 -17.1305
10300.000000 81.110 -8.8610
10440.000000 80.965 -1.2450
10600.000000 80.896 7.3942
10750.000000 80.937 15.5295
10900.000000 81.126 23.6971
11060.000000 81.543 32.2322
11200.000000 82.126 39.2137
11380.000000 83.193 46.9053
11500.000000 84.117 50.7373
11720.000000 86.175 52.9988
11800.000000 86.941 51.5248
12060.000000 88.511 36.0895
12200.000000 88.288 23.9025
12410.000000 86.479 10.2866
12500.000000 85.349 7.6155
12650.000000 83.320 7.0200
12800.000000 81.362 9.8972
13150.000000 77.658 23.4337
13200.000000 77.230 25.7476
13400.000000 75.708 35.3285
13600.000000 74.373 45.4032
13800.000000 73.172 56.4545
14000.000000 72.168 68.4626
14300.000000 71.069 88.0273
14500.000000 70.724 102.2453
14750.000000 71.039 119.9391
15000.000000 72.168 134.2856
15250.000000 73.651 142.1926
15500.000000 74.782 141.7975
15750.000000 74.654 136.3495
16000.000000 73.123 136.8575
16250.000000 71.350 147.4657
16500.000000 70.537 162.4222
16750.000000 70.711 176.2871
17000.000000 71.441 -173.0239
17250.000000 72.427 -166.7993
17500.000000 73.215 -166.4849
17750.000000 73.216 -170.8335
18000.000000 72.181 -174.4435
18250.000000 70.393 -172.7125
18500.000000 68.432 -165.3232
18750.000000 66.835 -153.9792
19000.000000 65.809 -140.1358
19250.000000 65.173 -124.7563
19500.000000 64.674 -108.5934
19750.000000 64.273 -92.3547
20000.000000 64.001 -76.7831
20300.000000 63.855 -59.8358
20600.000000 63.767 -44.5356
20900.000000 63.527 -28.5585
21200.000000 63.531 -9.3813
21400.000000 64.065 2.6212
21800.000000 65.526 -37.7662
22000.000000 65.366 156.5459
22400.000000 62.101 148.0178
22700.000000 57.498 171.5044
23000.000000 51.751 131.6270
23300.000000 47.125 -169.5410
23600.000000 47.303 -171.0391
24000.000000 49.086 77.3984
