* Measurement data measured by REW V5.20.13
* Source: Headset (DS by VECLAN.COM), MICROPHONE (Master Volume), L, volume: 0.720. Timing signal peak level -18.0 dBFS, measurement signal peak level -15.6 dBFS
* Format: 2M Log Swept Sine, 1 sweep at -12.0 dBFS using an acoustic timing reference
* Dated: Feb 6, 2024 3:30:34 PM
* REW Settings:
*  C-weighting compensation: Off
*  Target level: 75.0 dB
* Note: ; Delay -0.0131 ms (-4.5 mm, -0.18 in) using estimated IR delay relative to Acoustic reference played from HEADPHONE L with no timing offset
* Measurement: Cadenza 12 CP145 L
* Smoothing: 1/24 octave
* Frequency Step: 1/48 octave
* Start Frequency: 1.000 Hz
*
* Freq(Hz) SPL(dB) Phase(degrees)
1.000000 87.844 -100.0851
1.015000 88.284 -100.3886
1.030000 88.706 -100.6901
1.044000 89.082 -100.9688
1.060000 89.487 -101.2835
1.075000 89.838 -101.5740
1.090000 90.160 -101.8594
1.106000 90.470 -102.1580
1.120000 90.724 -102.4187
1.138000 91.034 -102.7543
1.150000 91.231 -102.9782
1.172000 91.570 -103.3890
1.180000 91.688 -103.5384
1.206000 92.047 -104.0242
1.220000 92.227 -104.2857
1.241000 92.483 -104.6776
1.250000 92.586 -104.8455
1.265000 92.753 -105.1251
1.280000 92.912 -105.4043
1.315000 93.255 -106.0541
1.320000 93.301 -106.1467
1.340000 93.480 -106.5164
1.360000 93.650 -106.8849
1.380000 93.812 -107.2521
1.400000 93.969 -107.6177
1.430000 94.197 -108.1629
1.450000 94.345 -108.5239
1.475000 94.527 -108.9723
1.500000 94.691 -109.4170
1.525000 94.833 -109.8586
1.550000 94.957 -110.2972
1.575000 95.064 -110.7333
1.600000 95.157 -111.1674
1.625000 95.237 -111.5997
1.650000 95.308 -112.0307
1.675000 95.371 -112.4607
1.700000 95.428 -112.8901
1.725000 95.483 -113.3194
1.750000 95.536 -113.7489
1.775000 95.590 -114.1789
1.800000 95.647 -114.6099
1.825000 95.710 -115.0423
1.850000 95.777 -115.4759
1.875000 95.839 -115.9100
1.900000 95.897 -116.3443
1.925000 95.951 -116.7787
1.950000 96.002 -117.2132
1.975000 96.050 -117.6477
2.000000 96.097 -118.0821
2.030000 96.150 -118.6030
2.060000 96.203 -119.1234
2.090000 96.256 -119.6431
2.120000 96.309 -120.1621
2.140000 96.346 -120.5075
2.180000 96.424 -121.1968
2.200000 96.465 -121.5406
2.240000 96.551 -122.2280
2.270000 96.618 -122.7436
2.300000 96.686 -123.2589
2.330000 96.755 -123.7736
2.360000 96.824 -124.2875
2.400000 96.916 -124.9709
2.430000 96.984 -125.4818
2.470000 97.072 -126.1601
2.500000 97.136 -126.6664
2.540000 97.217 -127.3377
2.580000 97.293 -128.0043
2.620000 97.365 -128.6690
2.650000 97.417 -129.1663
2.690000 97.483 -129.8269
2.720000 97.531 -130.3202
2.760000 97.592 -130.9743
2.800000 97.652 -131.6236
2.850000 97.724 -132.4272
2.900000 97.795 -133.2204
2.950000 97.865 -134.0019
3.000000 97.932 -134.7746
3.040000 97.984 -135.3866
3.070000 98.021 -135.8419
3.110000 98.071 -136.4437
3.150000 98.118 -137.0393
3.200000 98.176 -137.7747
3.250000 98.231 -138.4995
3.300000 98.285 -139.2133
3.350000 98.336 -139.9161
3.400000 98.385 -140.6083
3.450000 98.432 -141.2902
3.500000 98.476 -141.9619
3.550000 98.519 -142.6234
3.600000 98.560 -143.2751
3.650000 98.599 -143.9170
3.700000 98.636 -144.5489
3.750000 98.671 -145.1702
3.820000 98.717 -146.0228
3.870000 98.748 -146.6203
3.950000 98.794 -147.5571
4.000000 98.822 -148.1315
4.060000 98.855 -148.8096
4.120000 98.887 -149.4736
4.180000 98.916 -150.1243
4.250000 98.949 -150.8679
4.310000 98.976 -151.4934
4.370000 99.001 -152.1089
4.440000 99.028 -152.8153
4.500000 99.049 -153.4090
4.550000 99.065 -153.8957
4.620000 99.086 -154.5649
4.680000 99.102 -155.1276
4.750000 99.121 -155.7716
4.820000 99.138 -156.4025
4.870000 99.149 -156.8450
4.940000 99.163 -157.4527
5.000000 99.174 -157.9626
5.080000 99.187 -158.6266
5.150000 99.197 -159.1925
5.220000 99.205 -159.7442
5.300000 99.212 -160.3576
5.380000 99.218 -160.9530
5.450000 99.222 -161.4592
5.520000 99.225 -161.9516
5.600000 99.227 -162.4964
5.700000 99.228 -163.1519
5.800000 99.227 -163.7820
5.900000 99.226 -164.3891
6.000000 99.223 -164.9695
6.080000 99.220 -165.4170
6.150000 99.218 -165.7984
6.220000 99.214 -166.1722
6.300000 99.210 -166.5894
6.400000 99.205 -167.0935
6.500000 99.199 -167.5818
6.600000 99.191 -168.0581
6.700000 99.183 -168.5226
6.800000 99.174 -168.9741
6.900000 99.163 -169.4124
7.000000 99.151 -169.8382
7.100000 99.137 -170.2539
7.200000 99.121 -170.6555
7.300000 99.103 -171.0379
7.400000 99.083 -171.4004
7.500000 99.060 -171.7466
7.620000 99.031 -172.1307
7.750000 98.998 -172.4963
7.880000 98.961 -172.8141
8.000000 98.927 -173.0619
8.120000 98.895 -173.2600
8.250000 98.861 -173.4173
8.380000 98.831 -173.5286
8.500000 98.810 -173.5959
8.620000 98.793 -173.6211
8.750000 98.783 -173.6305
8.850000 98.781 -173.6391
9.000000 98.787 -173.6346
9.120000 98.800 -173.6470
9.250000 98.821 -173.6984
9.380000 98.850 -173.7769
9.500000 98.878 -173.8902
9.620000 98.904 -174.0546
9.750000 98.933 -174.2821
9.880000 98.953 -174.5520
10.000000 98.961 -174.8436
10.150000 98.958 -175.2574
10.300000 98.942 -175.6808
10.440000 98.911 -176.0902
10.600000 98.866 -176.5498
10.750000 98.818 -176.9482
10.900000 98.765 -177.3235
11.060000 98.710 -177.6878
11.200000 98.662 -177.9748
11.380000 98.604 -178.3166
11.500000 98.568 -178.5232
11.720000 98.511 -178.8948
11.800000 98.493 -179.0382
12.060000 98.446 -179.5354
12.200000 98.424 -179.8565
12.410000 98.392 179.6028
12.500000 98.375 179.3542
12.650000 98.342 178.9084
12.800000 98.303 178.4577
13.150000 98.176 177.4569
13.200000 98.155 177.3348
13.400000 98.064 176.8986
13.600000 97.970 176.5867
13.800000 97.878 176.4228
14.000000 97.800 176.3713
14.300000 97.713 176.4648
14.500000 97.684 176.5622
14.750000 97.673 176.6174
15.000000 97.688 176.5472
15.250000 97.713 176.2884
15.500000 97.731 175.8854
15.750000 97.736 175.3776
16.000000 97.718 174.8505
16.250000 97.683 174.3768
16.500000 97.637 173.9870
16.750000 97.589 173.7100
17.000000 97.547 173.5147
17.250000 97.513 173.3727
17.500000 97.490 173.2437
17.750000 97.471 173.0936
18.000000 97.455 172.9210
18.250000 97.436 172.7260
18.500000 97.413 172.5345
18.750000 97.388 172.3591
19.000000 97.362 172.2105
19.250000 97.339 172.0856
19.500000 97.319 171.9720
19.750000 97.302 171.8602
20.000000 97.287 171.7357
20.299999 97.269 171.5684
20.600000 97.251 171.3851
20.900000 97.230 171.1953
21.200001 97.208 171.0068
21.400000 97.192 170.8823
21.799999 97.160 170.6364
22.000000 97.142 170.5180
22.400000 97.107 170.3047
22.700001 97.081 170.1806
23.000000 97.062 170.0886
23.299999 97.052 169.9994
23.600000 97.051 169.8712
24.000000 97.058 169.5806
24.299999 97.057 169.2644
24.700001 97.033 168.7814
25.000000 96.995 168.4659
25.400000 96.932 168.2163
25.799999 96.878 168.1759
26.200001 96.851 168.2157
26.500000 96.848 168.1909
26.900000 96.848 168.0160
27.200001 96.838 167.8074
27.600000 96.804 167.5367
28.000000 96.758 167.3951
28.500000 96.717 167.3913
29.000000 96.711 167.3265
29.500000 96.711 166.9911
30.000000 96.676 166.4709
30.400000 96.617 166.1084
30.700001 96.562 165.9396
31.100000 96.492 165.8581
31.500000 96.439 165.8764
32.000000 96.402 165.9012
32.500000 96.384 165.8185
33.000000 96.370 165.5999
33.500000 96.346 165.2867
34.000000 96.307 164.9714
34.500000 96.261 164.7467
35.000000 96.222 164.6273
35.500000 96.199 164.5335
36.000000 96.185 164.3777
36.500000 96.170 164.1530
37.000000 96.146 163.9147
37.500000 96.119 163.6953
38.200001 96.077 163.3993
38.700001 96.040 163.2054
39.500000 95.979 163.0296
40.000000 95.954 162.9771
40.599998 95.937 162.8603
41.200001 95.920 162.6441
41.799999 95.892 162.4026
42.500000 95.852 162.1701
43.099998 95.822 161.9929
43.700001 95.793 161.8071
44.400002 95.755 161.5925
45.000000 95.723 161.4205
45.500000 95.696 161.2753
46.200001 95.659 161.0570
46.799999 95.625 160.8639
47.500000 95.584 160.6520
48.200001 95.544 160.4734
48.700001 95.520 160.3696
49.400002 95.498 160.2153
50.000000 95.485 160.0059
50.799999 95.449 159.6340
51.500000 95.394 159.4166
52.200001 95.344 159.3845
53.000000 95.311 159.3765
53.799999 95.276 159.2932
54.500000 95.239 159.2616
55.200001 95.207 159.2460
56.000000 95.166 159.1737
57.000000 95.103 159.1982
58.000000 95.078 159.2454
59.000000 95.058 158.9655
60.000000 95.007 158.5797
60.799999 94.952 158.2915
61.500000 94.893 158.1191
62.200001 94.840 158.0651
63.000000 94.797 158.0315
64.000000 94.752 157.9440
65.000000 94.715 157.8698
66.000000 94.678 157.7039
67.000000 94.627 157.5839
68.000000 94.584 157.4785
69.000000 94.529 157.3399
70.000000 94.472 157.3081
71.000000 94.429 157.2781
72.000000 94.390 157.2278
73.000000 94.357 157.1712
74.000000 94.326 157.0773
75.000000 94.291 156.9742
76.199997 94.243 156.8603
77.500000 94.185 156.7776
78.800003 94.128 156.6913
80.000000 94.069 156.5672
81.199997 94.003 156.5134
82.500000 93.947 156.5293
83.800003 93.902 156.5464
85.000000 93.873 156.5854
86.199997 93.854 156.5577
87.500000 93.827 156.4514
88.500000 93.795 156.3431
90.000000 93.730 156.2326
91.199997 93.677 156.1951
92.500000 93.622 156.1762
93.800003 93.575 156.1670
95.000000 93.533 156.1472
96.199997 93.493 156.1650
97.500000 93.463 156.1843
98.800003 93.437 156.1193
100.000000 93.402 156.0293
101.500000 93.350 156.0049
103.000000 93.303 156.0237
104.400002 93.254 156.0468
106.000000 93.193 156.1104
107.500000 93.142 156.1552
109.000000 93.090 156.1215
110.599998 93.035 156.1671
112.000000 93.006 156.2318
113.800003 92.962 156.2610
115.000000 92.923 156.3397
117.199997 92.837 156.4784
118.000000 92.800 156.5627
120.599998 92.743 156.8937
122.000000 92.739 156.8215
124.099998 92.703 156.6544
125.000000 92.682 156.6375
126.500000 92.644 156.6214
128.000000 92.600 156.6237
131.500000 92.516 156.6886
132.000000 92.507 156.6960
134.000000 92.478 156.7224
136.000000 92.445 156.7626
138.000000 92.403 156.7932
140.000000 92.353 156.7902
143.000000 92.270 156.7874
145.000000 92.225 156.8846
147.500000 92.182 157.0874
150.000000 92.151 157.2975
152.500000 92.119 157.4229
155.000000 92.090 157.5424
157.500000 92.067 157.6864
160.000000 92.042 157.8192
162.500000 92.004 157.8924
165.000000 91.961 157.9253
167.500000 91.923 157.9809
170.000000 91.893 158.0963
172.500000 91.869 158.1488
175.000000 91.831 158.1097
177.500000 91.792 158.1373
180.000000 91.758 158.2097
182.500000 91.721 158.3091
185.000000 91.682 158.4416
187.500000 91.652 158.5656
190.000000 91.624 158.6509
192.500000 91.591 158.7396
195.000000 91.558 158.8225
197.500000 91.529 158.8751
200.000000 91.504 158.9115
203.000000 91.475 158.9875
206.000000 91.447 159.1129
209.000000 91.413 159.2489
212.000000 91.373 159.3721
214.000000 91.347 159.4510
218.000000 91.311 159.5649
220.000000 91.294 159.6165
224.000000 91.251 159.7519
227.000000 91.215 159.8533
230.000000 91.186 159.9624
233.000000 91.164 160.0930
236.000000 91.143 160.1968
240.000000 91.112 160.2781
243.000000 91.089 160.3481
247.000000 91.056 160.4430
250.000000 91.030 160.5052
254.000000 90.999 160.6133
258.000000 90.972 160.7494
262.000000 90.947 160.8983
265.000000 90.924 160.9999
269.000000 90.891 161.1256
272.000000 90.869 161.2160
276.000000 90.844 161.3186
280.000000 90.820 161.4516
285.000000 90.796 161.6515
290.000000 90.772 161.7775
295.000000 90.745 161.8962
300.000000 90.719 162.0361
304.000000 90.700 162.1753
307.000000 90.684 162.2772
311.000000 90.665 162.4023
315.000000 90.650 162.5228
320.000000 90.633 162.6554
325.000000 90.616 162.7723
330.000000 90.598 162.8913
335.000000 90.583 163.0346
340.000000 90.569 163.1997
345.000000 90.552 163.3349
350.000000 90.533 163.4127
355.000000 90.514 163.4877
360.000000 90.499 163.5928
365.000000 90.485 163.7023
370.000000 90.464 163.8164
375.000000 90.439 163.9168
382.000000 90.408 164.0294
387.000000 90.386 164.1282
395.000000 90.351 164.2757
400.000000 90.333 164.3562
406.000000 90.313 164.4721
412.000000 90.296 164.5892
418.000000 90.278 164.7025
425.000000 90.251 164.8320
431.000000 90.228 164.9267
437.000000 90.203 165.0350
444.000000 90.173 165.1772
450.000000 90.151 165.2803
455.000000 90.136 165.3611
462.000000 90.119 165.4576
468.000000 90.104 165.5068
475.000000 90.083 165.5475
482.000000 90.056 165.6005
487.000000 90.032 165.6597
494.000000 90.000 165.7700
500.000000 89.978 165.8770
508.000000 89.948 165.9968
515.000000 89.921 166.0790
522.000000 89.894 166.1781
530.000000 89.861 166.3232
538.000000 89.826 166.4672
545.000000 89.796 166.5812
552.000000 89.766 166.7062
560.000000 89.732 166.8611
570.000000 89.691 167.0337
580.000000 89.650 167.2166
590.000000 89.604 167.4268
600.000000 89.554 167.7011
608.000000 89.507 167.9157
615.000000 89.462 168.0939
622.000000 89.416 168.2856
630.000000 89.364 168.5569
640.000000 89.297 168.9491
650.000000 89.233 169.3529
660.000000 89.165 169.8152
670.000000 89.091 170.3904
680.000000 89.020 171.0969
690.000000 88.962 171.8898
700.000000 88.918 172.7502
710.000000 88.887 173.7188
720.000000 88.882 174.7297
730.000000 88.902 175.7252
740.000000 88.941 176.6828
750.000000 88.998 177.5662
762.000000 89.083 178.4901
775.000000 89.182 179.3443
788.000000 89.283 -179.9495
800.000000 89.381 -179.4237
812.000000 89.481 -179.0009
825.000000 89.584 -178.6185
838.000000 89.677 -178.2698
850.000000 89.755 -177.9734
862.000000 89.825 -177.7087
875.000000 89.900 -177.4501
885.000000 89.957 -177.2710
900.000000 90.045 -177.0117
912.000000 90.114 -176.8185
925.000000 90.190 -176.6339
938.000000 90.265 -176.4548
950.000000 90.334 -176.2919
962.000000 90.402 -176.1520
975.000000 90.477 -176.0243
988.000000 90.554 -175.9197
1000.000000 90.624 -175.8540
1015.000000 90.706 -175.7939
1030.000000 90.779 -175.7220
1044.000000 90.844 -175.6730
1060.000000 90.922 -175.6743
1075.000000 90.999 -175.7147
1090.000000 91.082 -175.7766
1106.000000 91.174 -175.8612
1120.000000 91.253 -175.9499
1138.000000 91.349 -176.0875
1150.000000 91.409 -176.1928
1172.000000 91.515 -176.3981
1180.000000 91.554 -176.4801
1206.000000 91.682 -176.7874
1220.000000 91.751 -176.9574
1241.000000 91.846 -177.1944
1250.000000 91.883 -177.2920
1265.000000 91.943 -177.4564
1280.000000 92.004 -177.6273
1315.000000 92.144 -178.0238
1320.000000 92.162 -178.0769
1340.000000 92.226 -178.2769
1360.000000 92.266 -178.4540
1380.000000 92.304 -178.6225
1400.000000 92.356 -178.7758
1430.000000 92.444 -178.9875
1450.000000 92.497 -179.1077
1475.000000 92.554 -179.2111
1500.000000 92.612 -179.2853
1525.000000 92.680 -179.3638
1550.000000 92.752 -179.4324
1575.000000 92.817 -179.4609
1600.000000 92.874 -179.4560
1625.000000 92.929 -179.4268
1650.000000 92.991 -179.3897
1675.000000 93.062 -179.3498
1700.000000 93.140 -179.2979
1725.000000 93.219 -179.2303
1750.000000 93.298 -179.1545
1775.000000 93.379 -179.0690
1800.000000 93.461 -178.9718
1825.000000 93.548 -178.8698
1850.000000 93.640 -178.7587
1875.000000 93.736 -178.6319
1900.000000 93.836 -178.4881
1925.000000 93.944 -178.3359
1950.000000 94.061 -178.1763
1975.000000 94.186 -178.0047
2000.000000 94.322 -177.8373
2030.000000 94.504 -177.6704
2060.000000 94.704 -177.5756
2090.000000 94.921 -177.6011
2120.000000 95.146 -177.7710
2140.000000 95.297 -177.9662
2180.000000 95.597 -178.5417
2200.000000 95.746 -178.9142
2240.000000 96.038 -179.7832
2270.000000 96.252 179.4699
2300.000000 96.461 178.6413
2330.000000 96.664 177.7300
2360.000000 96.862 176.7242
2400.000000 97.114 175.2451
2430.000000 97.292 174.0381
2470.000000 97.511 172.3026
2500.000000 97.661 170.9172
2540.000000 97.838 168.9785
2580.000000 97.982 166.9750
2620.000000 98.090 164.9532
2650.000000 98.151 163.4385
2690.000000 98.210 161.4482
2720.000000 98.239 159.9929
2760.000000 98.256 158.1206
2800.000000 98.255 156.3328
2850.000000 98.235 154.2102
2900.000000 98.192 152.2101
2950.000000 98.127 150.3387
3000.000000 98.053 148.5543
3040.000000 97.988 147.1831
3070.000000 97.933 146.1924
3110.000000 97.851 144.9211
3150.000000 97.759 143.7125
3200.000000 97.633 142.2954
3250.000000 97.496 141.0065
3300.000000 97.354 139.8414
3350.000000 97.208 138.7870
3400.000000 97.061 137.8304
3450.000000 96.917 136.9397
3500.000000 96.780 136.0916
3550.000000 96.642 135.2825
3600.000000 96.498 134.5223
3650.000000 96.340 133.8415
3700.000000 96.165 133.2795
3750.000000 95.979 132.8647
3820.000000 95.712 132.5779
3870.000000 95.527 132.5909
3950.000000 95.258 132.9512
4000.000000 95.111 133.3530
4060.000000 94.965 133.9522
4120.000000 94.846 134.6352
4180.000000 94.746 135.3732
4250.000000 94.653 136.2614
4310.000000 94.596 137.0254
4370.000000 94.560 137.7875
4440.000000 94.545 138.6785
4500.000000 94.554 139.4323
4550.000000 94.572 140.0512
4620.000000 94.613 140.8853
4680.000000 94.673 141.5396
4750.000000 94.777 142.2077
4820.000000 94.921 142.7308
4870.000000 95.052 142.9522
4940.000000 95.275 142.9083
5000.000000 95.483 142.4309
5080.000000 95.734 141.0812
5150.000000 95.885 139.3391
5220.000000 95.955 137.3091
5300.000000 95.944 134.8986
5380.000000 95.858 132.5458
5450.000000 95.734 130.5533
5520.000000 95.573 128.5847
5600.000000 95.340 126.3234
5700.000000 94.939 123.5231
5800.000000 94.378 120.9814
5900.000000 93.644 119.2009
6000.000000 92.760 118.8287
6080.000000 92.004 119.8377
6150.000000 91.364 121.7019
6220.000000 90.789 124.3854
6300.000000 90.252 128.2107
6400.000000 89.799 133.5868
6500.000000 89.573 139.0341
6600.000000 89.523 144.1518
6700.000000 89.602 148.7661
6800.000000 89.780 152.8508
6900.000000 90.046 156.4312
7000.000000 90.382 159.5329
7100.000000 90.772 162.1609
7200.000000 91.198 164.2959
7300.000000 91.646 165.8945
7400.000000 92.100 166.9197
7500.000000 92.544 167.3636
7620.000000 93.062 167.1196
7750.000000 93.565 165.8771
7880.000000 93.874 163.7291
8000.000000 93.965 161.3203
8120.000000 93.891 158.9857
8250.000000 93.652 156.8764
8380.000000 93.280 155.5003
8500.000000 92.870 155.0530
8620.000000 92.441 155.3979
8750.000000 91.979 156.5701
8850.000000 91.642 157.9529
9000.000000 91.201 160.6336
9120.000000 90.928 163.1402
9250.000000 90.719 166.0613
9380.000000 90.607 169.0524
9500.000000 90.591 171.7334
9620.000000 90.655 174.1894
9750.000000 90.806 176.4279
9880.000000 91.020 178.0517
10000.000000 91.248 178.8686
10150.000000 91.523 178.8537
10300.000000 91.719 177.6891
10440.000000 91.767 175.7457
10600.000000 91.611 172.9529
10750.000000 91.240 170.3313
10900.000000 90.660 168.2406
11060.000000 89.860 167.0970
11200.000000 89.061 167.3115
11380.000000 87.983 169.3747
11500.000000 87.285 171.8182
11720.000000 86.174 178.1576
11800.000000 85.850 -179.0881
12060.000000 85.160 -169.3593
12200.000000 85.034 -164.1880
12410.000000 85.136 -157.6045
12500.000000 85.257 -155.4854
12650.000000 85.493 -153.1357
12800.000000 85.677 -152.2737
13150.000000 85.452 -153.7188
13200.000000 85.329 -153.9636
13400.000000 84.649 -154.1573
13600.000000 83.769 -152.5733
13800.000000 82.847 -149.0748
14000.000000 82.008 -143.9189
14300.000000 81.078 -133.9066
14500.000000 80.746 -126.2881
14750.000000 80.740 -116.5030
15000.000000 81.282 -107.5375
15250.000000 82.398 -101.4044
15500.000000 83.778 -101.1188
15750.000000 84.632 -107.8606
16000.000000 84.445 -116.8611
16250.000000 83.511 -122.6270
16500.000000 82.477 -125.4451
16750.000000 81.228 -127.2539
17000.000000 80.022 -117.7140
17250.000000 81.654 -109.2312
17500.000000 82.662 -124.6562
17750.000000 81.296 -144.3003
18000.000000 78.926 -156.3685
18250.000000 76.594 -168.6136
18500.000000 73.594 -179.0934
18750.000000 69.165 -173.5676
19000.000000 64.211 -152.2239
19250.000000 60.935 -128.5808
19500.000000 59.316 -108.4318
19750.000000 58.004 -90.2057
20000.000000 56.651 -72.2385
20300.000000 55.152 -51.0259
20600.000000 53.936 -31.6398
20900.000000 52.709 -17.8442
21200.000000 51.131 -43.6778
21400.000000 49.813 176.6324
21800.000000 46.427 -96.4939
22000.000000 44.116 -163.3286
22400.000000 37.932 -72.9141
22700.000000 33.871 52.6895
23000.000000 32.176 -97.0547
23300.000000 31.811 -130.1250
23600.000000 31.727 120.6797
24000.000000 31.284 92.8516
