* Measurement data measured by REW V5.20.13
* Source: Headset (DS by VECLAN.COM), MICROPHONE (Master Volume), L, volume: 1.000
* Format: 2M Log Swept Sine, 1 sweep at -12.0 dBFS with no timing reference
* Dated: May 11, 2023 5:50:24 PM
* REW Settings:
*  C-weighting compensation: Off
*  Target level: 75.0 dB
* Note: ; 
* Measurement: Cadenza 12 L
* Smoothing: 1/24 octave
* Frequency Step: 1/48 octave
* Start Frequency: 1.000 Hz
*
* Freq(Hz) SPL(dB) Phase(degrees)
1.000000 67.986 66.2534
1.015000 68.287 64.4465
1.030000 68.585 62.7036
1.044000 68.859 61.1408
1.060000 69.166 59.4379
1.075000 69.447 57.9291
1.090000 69.722 56.5126
1.106000 70.007 55.1101
1.120000 70.254 53.9712
1.138000 70.569 52.6187
1.150000 70.777 51.7820
1.172000 71.157 50.3709
1.180000 71.294 49.8942
1.206000 71.735 48.4630
1.220000 71.970 47.7592
1.241000 72.320 46.7771
1.250000 72.468 46.3797
1.265000 72.714 45.7434
1.280000 72.958 45.1345
1.315000 73.519 43.7848
1.320000 73.599 43.5968
1.340000 73.913 42.8470
1.360000 74.223 42.0901
1.380000 74.530 41.3113
1.400000 74.832 40.4958
1.430000 75.277 39.1711
1.450000 75.569 38.1987
1.475000 75.927 36.8653
1.500000 76.279 35.4619
1.525000 76.623 34.0134
1.550000 76.960 32.5287
1.575000 77.290 31.0165
1.600000 77.615 29.4859
1.625000 77.933 27.9457
1.650000 78.245 26.4047
1.675000 78.552 24.8719
1.700000 78.854 23.3560
1.725000 79.150 21.8661
1.750000 79.442 20.4109
1.775000 79.730 18.9993
1.800000 80.013 17.6402
1.825000 80.292 16.3425
1.850000 80.568 15.1092
1.875000 80.837 13.9277
1.900000 81.100 12.7923
1.925000 81.359 11.6974
1.950000 81.612 10.6377
1.975000 81.860 9.6077
2.000000 82.103 8.6021
2.030000 82.390 7.4198
2.060000 82.670 6.2554
2.090000 82.945 5.0996
2.120000 83.215 3.9428
2.140000 83.392 3.1666
2.180000 83.740 1.5893
2.200000 83.912 0.7830
2.240000 84.247 -0.8424
2.270000 84.492 -2.0621
2.300000 84.730 -3.2806
2.330000 84.963 -4.4963
2.360000 85.191 -5.7077
2.400000 85.487 -7.3135
2.430000 85.704 -8.5087
2.470000 85.986 -10.0872
2.500000 86.194 -11.2577
2.540000 86.465 -12.7975
2.580000 86.730 -14.3117
2.620000 86.988 -15.8105
2.650000 87.176 -16.9253
2.690000 87.419 -18.3975
2.720000 87.597 -19.4897
2.760000 87.828 -20.9284
2.800000 88.053 -22.3450
2.850000 88.327 -24.0812
2.900000 88.593 -25.7751
2.950000 88.853 -27.4213
3.000000 89.103 -29.0104
3.040000 89.296 -30.2453
3.070000 89.437 -31.1539
3.110000 89.621 -32.3463
3.150000 89.800 -33.5219
3.200000 90.017 -34.9761
3.250000 90.229 -36.4234
3.300000 90.436 -37.8742
3.350000 90.637 -39.3322
3.400000 90.831 -40.7891
3.450000 91.018 -42.2363
3.500000 91.200 -43.6656
3.550000 91.376 -45.0685
3.600000 91.549 -46.4364
3.650000 91.717 -47.7611
3.700000 91.882 -49.0342
3.750000 92.042 -50.2574
3.820000 92.258 -51.9048
3.870000 92.407 -53.0487
3.950000 92.638 -54.8501
4.000000 92.779 -55.9735
4.060000 92.944 -57.3322
4.120000 93.105 -58.6903
4.180000 93.260 -60.0392
4.250000 93.436 -61.5927
4.310000 93.582 -62.8995
4.370000 93.725 -64.1768
4.440000 93.887 -65.6214
4.500000 94.021 -66.8216
4.550000 94.130 -67.8002
4.620000 94.279 -69.1464
4.680000 94.402 -70.2860
4.750000 94.541 -71.6092
4.820000 94.675 -72.9312
4.870000 94.767 -73.8699
4.940000 94.893 -75.1723
5.000000 94.996 -76.2742
5.080000 95.129 -77.7168
5.150000 95.240 -78.9494
5.220000 95.346 -80.1577
5.300000 95.461 -81.5105
5.380000 95.571 -82.8327
5.450000 95.662 -83.9638
5.520000 95.749 -85.0706
5.600000 95.843 -86.3078
5.700000 95.953 -87.8106
5.800000 96.057 -89.2607
5.900000 96.156 -90.6537
6.000000 96.248 -91.9903
6.080000 96.318 -93.0205
6.150000 96.378 -93.8944
6.220000 96.437 -94.7435
6.300000 96.504 -95.6788
6.400000 96.584 -96.7951
6.500000 96.664 -97.8686
6.600000 96.744 -98.9164
6.700000 96.826 -99.9321
6.800000 96.908 -100.9148
6.900000 96.990 -101.8804
7.000000 97.072 -102.8415
7.100000 97.157 -103.7863
7.200000 97.241 -104.7223
7.300000 97.324 -105.6631
7.400000 97.405 -106.6170
7.500000 97.485 -107.5771
7.620000 97.578 -108.7345
7.750000 97.671 -109.9938
7.880000 97.758 -111.2647
8.000000 97.831 -112.4323
8.120000 97.896 -113.5817
8.250000 97.957 -114.8179
8.380000 98.010 -116.0216
8.500000 98.052 -117.0862
8.620000 98.087 -118.1154
8.750000 98.120 -119.1803
8.850000 98.144 -119.9563
9.000000 98.175 -121.0530
9.120000 98.200 -121.8832
9.250000 98.231 -122.7380
9.380000 98.263 -123.5430
9.500000 98.295 -124.2658
9.620000 98.327 -124.9776
9.750000 98.364 -125.7285
9.880000 98.396 -126.4837
10.000000 98.420 -127.1944
10.150000 98.443 -128.0919
10.300000 98.457 -129.0067
10.440000 98.461 -129.8825
10.600000 98.458 -130.8866
10.750000 98.450 -131.8219
10.900000 98.435 -132.7482
11.060000 98.414 -133.6866
11.200000 98.390 -134.4710
11.380000 98.356 -135.4070
11.500000 98.332 -135.9770
11.720000 98.291 -136.9306
11.800000 98.280 -137.2484
12.060000 98.257 -138.1938
12.200000 98.255 -138.6816
12.410000 98.265 -139.3944
12.500000 98.272 -139.7136
12.650000 98.289 -140.2573
12.800000 98.307 -140.8239
13.150000 98.347 -142.2626
13.200000 98.351 -142.4742
13.400000 98.364 -143.3426
13.600000 98.370 -144.1959
13.800000 98.368 -145.0188
14.000000 98.361 -145.7803
14.300000 98.346 -146.7993
14.500000 98.339 -147.3968
14.750000 98.340 -148.0981
15.000000 98.354 -148.7757
15.250000 98.379 -149.4893
15.500000 98.406 -150.2565
15.750000 98.430 -151.0801
16.000000 98.443 -151.9416
16.250000 98.441 -152.7924
16.500000 98.427 -153.6036
16.750000 98.404 -154.3363
17.000000 98.379 -154.9785
17.250000 98.356 -155.5385
17.500000 98.339 -156.0309
17.750000 98.329 -156.4955
18.000000 98.327 -156.9534
18.250000 98.329 -157.4270
18.500000 98.334 -157.9281
18.750000 98.338 -158.4525
19.000000 98.340 -158.9962
19.250000 98.340 -159.5464
19.500000 98.337 -160.0963
19.750000 98.330 -160.6404
20.000000 98.321 -161.1734
20.299999 98.306 -161.7918
20.600000 98.287 -162.3771
20.900000 98.266 -162.9179
21.200001 98.245 -163.4050
21.400000 98.233 -163.7023
21.799999 98.220 -164.2572
22.000000 98.218 -164.5336
22.400000 98.225 -165.1296
22.700001 98.233 -165.6365
23.000000 98.236 -166.1915
23.299999 98.230 -166.7632
23.600000 98.217 -167.3159
24.000000 98.190 -167.9773
24.299999 98.170 -168.4072
24.700001 98.149 -168.9193
25.000000 98.138 -169.2890
25.400000 98.125 -169.7887
25.799999 98.109 -170.2851
26.200001 98.090 -170.7446
26.500000 98.077 -171.0563
26.900000 98.065 -171.4470
27.200001 98.062 -171.7488
27.600000 98.059 -172.1921
28.000000 98.053 -172.6815
28.500000 98.033 -173.3042
29.000000 98.006 -173.8792
29.500000 97.979 -174.4106
30.000000 97.955 -174.9389
30.400000 97.933 -175.3673
30.700001 97.916 -175.6846
31.100000 97.891 -176.0934
31.500000 97.868 -176.4888
32.000000 97.841 -176.9812
32.500000 97.813 -177.4755
33.000000 97.780 -177.9417
33.500000 97.747 -178.3451
34.000000 97.721 -178.6870
34.500000 97.709 -179.0157
35.000000 97.707 -179.3922
35.500000 97.704 -179.8502
36.000000 97.690 179.6371
36.500000 97.660 179.1390
37.000000 97.620 178.7200
37.500000 97.579 178.3892
38.200001 97.533 178.0085
38.700001 97.506 177.7555
39.500000 97.478 177.3326
40.000000 97.467 177.0060
40.599998 97.447 176.5330
41.200001 97.410 176.0664
41.799999 97.369 175.7035
42.500000 97.337 175.3541
43.099998 97.320 174.9954
43.700001 97.296 174.5945
44.400002 97.259 174.1791
45.000000 97.231 173.8692
45.500000 97.209 173.5995
46.200001 97.174 173.2069
46.799999 97.138 172.9079
47.500000 97.099 172.6186
48.200001 97.066 172.3512
48.700001 97.045 172.1573
49.400002 97.019 171.8665
50.000000 96.996 171.5843
50.799999 96.956 171.1934
51.500000 96.915 170.9078
52.200001 96.880 170.6734
53.000000 96.848 170.3840
53.799999 96.814 170.0492
54.500000 96.780 169.7594
55.200001 96.745 169.4810
56.000000 96.704 169.1672
57.000000 96.651 168.8188
58.000000 96.604 168.5325
59.000000 96.565 168.2337
60.000000 96.523 167.9030
60.799999 96.484 167.6786
61.500000 96.454 167.5174
62.200001 96.427 167.3426
63.000000 96.394 167.1204
64.000000 96.349 166.8804
65.000000 96.309 166.6344
66.000000 96.261 166.3783
67.000000 96.211 166.2116
68.000000 96.170 166.0779
69.000000 96.131 165.9100
70.000000 96.087 165.7314
71.000000 96.041 165.5513
72.000000 95.995 165.3623
73.000000 95.950 165.1525
74.000000 95.907 164.9324
75.000000 95.870 164.6947
76.199997 95.816 164.4213
77.500000 95.767 164.3097
78.800003 95.735 164.1631
80.000000 95.692 163.9861
81.199997 95.637 163.8653
82.500000 95.582 163.7007
83.800003 95.511 163.5773
85.000000 95.481 163.4805
86.199997 95.436 163.1956
87.500000 95.387 163.1602
88.500000 95.373 163.0374
90.000000 95.310 162.8410
91.199997 95.267 162.8657
92.500000 95.232 162.7910
93.800003 95.187 162.6614
95.000000 95.142 162.5714
96.199997 95.101 162.5306
97.500000 95.068 162.4905
98.800003 95.038 162.3981
100.000000 95.003 162.2542
101.500000 94.938 162.1237
103.000000 94.883 162.1192
104.400002 94.851 162.0557
106.000000 94.817 161.8931
107.500000 94.776 161.7458
109.000000 94.728 161.6828
110.599998 94.677 161.6639
112.000000 94.628 161.6285
113.800003 94.555 161.6255
115.000000 94.507 161.6600
117.199997 94.424 161.7910
118.000000 94.398 161.8498
120.599998 94.343 161.9402
122.000000 94.329 161.7990
124.099998 94.302 161.4769
125.000000 94.290 161.3732
126.500000 94.268 161.2825
128.000000 94.244 161.2876
131.500000 94.169 161.3845
132.000000 94.158 161.3874
134.000000 94.113 161.3904
136.000000 94.076 161.4180
138.000000 94.038 161.4896
140.000000 93.997 161.5048
143.000000 93.930 161.3309
145.000000 93.896 161.2601
147.500000 93.869 161.3566
150.000000 93.842 161.4968
152.500000 93.806 161.5255
155.000000 93.769 161.4987
157.500000 93.730 161.5251
160.000000 93.687 161.5826
162.500000 93.644 161.6141
165.000000 93.606 161.6483
167.500000 93.572 161.7046
170.000000 93.533 161.7590
172.500000 93.492 161.8273
175.000000 93.452 161.9154
177.500000 93.413 162.0204
180.000000 93.379 162.1298
182.500000 93.347 162.2517
185.000000 93.317 162.3891
187.500000 93.296 162.4712
190.000000 93.290 162.5011
192.500000 93.290 162.5086
195.000000 93.273 162.5155
197.500000 93.237 162.5292
200.000000 93.199 162.5296
203.000000 93.165 162.5258
206.000000 93.139 162.5374
209.000000 93.108 162.5349
212.000000 93.069 162.5513
214.000000 93.044 162.5900
218.000000 93.000 162.6836
220.000000 92.979 162.7314
224.000000 92.939 162.8450
227.000000 92.911 162.9129
230.000000 92.882 162.9579
233.000000 92.856 162.9978
236.000000 92.833 163.0512
240.000000 92.799 163.1364
243.000000 92.771 163.2092
247.000000 92.736 163.3235
250.000000 92.712 163.4053
254.000000 92.683 163.4730
258.000000 92.655 163.5262
262.000000 92.625 163.5930
265.000000 92.602 163.6382
269.000000 92.575 163.6878
272.000000 92.556 163.7416
276.000000 92.530 163.8437
280.000000 92.501 163.9512
285.000000 92.459 164.0944
290.000000 92.413 164.2214
295.000000 92.387 164.4071
300.000000 92.371 164.6168
304.000000 92.360 164.7606
307.000000 92.356 164.8819
311.000000 92.351 165.0431
315.000000 92.344 165.1826
320.000000 92.335 165.3647
325.000000 92.327 165.5386
330.000000 92.319 165.6599
335.000000 92.314 165.7143
340.000000 92.311 165.7342
345.000000 92.307 165.7535
350.000000 92.298 165.7829
355.000000 92.286 165.7878
360.000000 92.268 165.7654
365.000000 92.246 165.7706
370.000000 92.223 165.8082
375.000000 92.199 165.8524
382.000000 92.169 165.8740
387.000000 92.148 165.8746
395.000000 92.115 165.9239
400.000000 92.092 165.9900
406.000000 92.063 166.0600
412.000000 92.035 166.1086
418.000000 92.007 166.1620
425.000000 91.975 166.2498
431.000000 91.946 166.3203
437.000000 91.920 166.3753
444.000000 91.894 166.4275
450.000000 91.874 166.4651
455.000000 91.854 166.4971
462.000000 91.823 166.5470
468.000000 91.795 166.5918
475.000000 91.756 166.6661
482.000000 91.716 166.7557
487.000000 91.690 166.8089
494.000000 91.657 166.8653
500.000000 91.629 166.9227
508.000000 91.592 167.0135
515.000000 91.557 167.0989
522.000000 91.520 167.1836
530.000000 91.477 167.2864
538.000000 91.429 167.4136
545.000000 91.387 167.5213
552.000000 91.344 167.6410
560.000000 91.292 167.7971
570.000000 91.231 168.0101
580.000000 91.171 168.2525
590.000000 91.103 168.5377
600.000000 91.027 168.8807
608.000000 90.961 169.2023
615.000000 90.902 169.5228
622.000000 90.843 169.8943
630.000000 90.776 170.3741
640.000000 90.699 171.0413
650.000000 90.631 171.8220
660.000000 90.576 172.6823
670.000000 90.535 173.5986
680.000000 90.513 174.5707
690.000000 90.515 175.5684
700.000000 90.537 176.5346
710.000000 90.579 177.4246
720.000000 90.639 178.2229
730.000000 90.708 178.9063
740.000000 90.782 179.5150
750.000000 90.856 -179.9347
762.000000 90.942 -179.3561
775.000000 91.033 -178.8734
788.000000 91.121 -178.4904
800.000000 91.197 -178.1610
812.000000 91.264 -177.8421
825.000000 91.330 -177.5173
838.000000 91.396 -177.2148
850.000000 91.457 -176.9519
862.000000 91.518 -176.6927
875.000000 91.583 -176.4078
885.000000 91.632 -176.1901
900.000000 91.702 -175.8725
912.000000 91.757 -175.6245
925.000000 91.819 -175.3694
938.000000 91.883 -175.1341
950.000000 91.946 -174.9314
962.000000 92.010 -174.7463
975.000000 92.080 -174.5637
988.000000 92.150 -174.3999
1000.000000 92.214 -174.2679
1015.000000 92.293 -174.1284
1030.000000 92.371 -174.0191
1044.000000 92.442 -173.9436
1060.000000 92.525 -173.8876
1075.000000 92.606 -173.8825
1090.000000 92.697 -173.9191
1106.000000 92.801 -173.9894
1120.000000 92.890 -174.0657
1138.000000 92.997 -174.1873
1150.000000 93.063 -174.2878
1172.000000 93.178 -174.4959
1180.000000 93.218 -174.5809
1206.000000 93.349 -174.8935
1220.000000 93.421 -175.0773
1241.000000 93.528 -175.3641
1250.000000 93.573 -175.4853
1265.000000 93.643 -175.6863
1280.000000 93.709 -175.8865
1315.000000 93.850 -176.3470
1320.000000 93.869 -176.4109
1340.000000 93.935 -176.6576
1360.000000 93.979 -176.8895
1380.000000 94.019 -177.1033
1400.000000 94.073 -177.3058
1430.000000 94.161 -177.5830
1450.000000 94.219 -177.7456
1475.000000 94.289 -177.9225
1500.000000 94.355 -178.0725
1525.000000 94.419 -178.1981
1550.000000 94.478 -178.2957
1575.000000 94.538 -178.3736
1600.000000 94.601 -178.4394
1625.000000 94.665 -178.4762
1650.000000 94.731 -178.4997
1675.000000 94.801 -178.5131
1700.000000 94.873 -178.5108
1725.000000 94.947 -178.4948
1750.000000 95.023 -178.4703
1775.000000 95.104 -178.4457
1800.000000 95.190 -178.4189
1825.000000 95.278 -178.3855
1850.000000 95.371 -178.3535
1875.000000 95.469 -178.3303
1900.000000 95.572 -178.3123
1925.000000 95.678 -178.2989
1950.000000 95.789 -178.2988
1975.000000 95.906 -178.3179
2000.000000 96.030 -178.3551
2030.000000 96.186 -178.4301
2060.000000 96.350 -178.5453
2090.000000 96.519 -178.6997
2120.000000 96.695 -178.9092
2140.000000 96.818 -179.0847
2180.000000 97.071 -179.5338
2200.000000 97.200 -179.8102
2240.000000 97.461 179.5240
2270.000000 97.660 178.9072
2300.000000 97.857 178.1911
2330.000000 98.050 177.3763
2360.000000 98.239 176.4490
2400.000000 98.485 175.0383
2430.000000 98.662 173.8509
2470.000000 98.876 172.1225
2500.000000 99.017 170.7317
2540.000000 99.175 168.7894
2580.000000 99.299 166.7861
2620.000000 99.389 164.7662
2650.000000 99.433 163.2744
2690.000000 99.464 161.3507
2720.000000 99.469 159.9783
2760.000000 99.458 158.2676
2800.000000 99.433 156.7060
2850.000000 99.398 154.9230
2900.000000 99.365 153.2025
2950.000000 99.320 151.4621
3000.000000 99.251 149.7265
3040.000000 99.178 148.3848
3070.000000 99.115 147.4215
3110.000000 99.021 146.2104
3150.000000 98.919 145.0903
3200.000000 98.780 143.8256
3250.000000 98.635 142.7069
3300.000000 98.484 141.7376
3350.000000 98.331 140.8934
3400.000000 98.183 140.1353
3450.000000 98.045 139.4356
3500.000000 97.915 138.7700
3550.000000 97.783 138.1379
3600.000000 97.646 137.5482
3650.000000 97.501 137.0261
3700.000000 97.346 136.6028
3750.000000 97.187 136.2951
3820.000000 96.959 136.0954
3870.000000 96.798 136.1124
3950.000000 96.556 136.3796
4000.000000 96.421 136.6670
4060.000000 96.275 137.1024
4120.000000 96.144 137.6174
4180.000000 96.026 138.2010
4250.000000 95.904 138.9845
4310.000000 95.809 139.7683
4370.000000 95.723 140.6492
4440.000000 95.646 141.7775
4500.000000 95.605 142.8169
4550.000000 95.591 143.7299
4620.000000 95.608 145.0744
4680.000000 95.662 146.2577
4750.000000 95.783 147.6017
4820.000000 95.980 148.7607
4870.000000 96.167 149.3550
4940.000000 96.478 149.6618
5000.000000 96.758 149.3078
5080.000000 97.086 147.9473
5150.000000 97.288 146.1417
5220.000000 97.397 144.0729
5300.000000 97.427 141.6777
5380.000000 97.382 139.3921
5450.000000 97.299 137.4796
5520.000000 97.184 135.6011
5600.000000 97.010 133.4329
5700.000000 96.708 130.6652
5800.000000 96.266 127.9965
5900.000000 95.651 125.8519
6000.000000 94.878 124.8377
6080.000000 94.193 125.1984
6150.000000 93.592 126.4683
6220.000000 93.036 128.5763
6300.000000 92.503 131.7963
6400.000000 92.034 136.5075
6500.000000 91.783 141.3690
6600.000000 91.702 145.9669
6700.000000 91.738 150.1440
6800.000000 91.860 153.8931
6900.000000 92.064 157.2593
7000.000000 92.340 160.2826
7100.000000 92.676 162.9596
7200.000000 93.067 165.2297
7300.000000 93.505 166.9995
7400.000000 93.973 168.1764
7500.000000 94.455 168.6938
7620.000000 95.043 168.3560
7750.000000 95.634 166.6729
7880.000000 96.006 163.7017
8000.000000 96.108 160.2546
8120.000000 95.988 156.7119
8250.000000 95.633 153.3309
8380.000000 95.083 150.9797
8500.000000 94.465 150.0128
8620.000000 93.801 150.2185
8750.000000 93.088 151.6168
8850.000000 92.574 153.3812
9000.000000 91.898 156.8837
9120.000000 91.452 160.2228
9250.000000 91.071 164.1925
9380.000000 90.803 168.3848
9500.000000 90.656 172.3355
9620.000000 90.604 176.2495
9750.000000 90.656 -179.6837
9880.000000 90.817 -175.9442
10000.000000 91.052 -172.9248
10150.000000 91.442 -169.9516
10300.000000 91.904 -168.1261
10440.000000 92.341 -167.6653
10600.000000 92.758 -168.7330
10750.000000 92.973 -171.1347
10900.000000 92.930 -174.3626
11060.000000 92.563 -177.7304
11200.000000 91.998 -179.7646
11380.000000 91.039 179.6971
11500.000000 90.337 -179.1683
11720.000000 89.139 -174.2329
11800.000000 88.779 -171.7037
12060.000000 88.034 -161.9216
12200.000000 87.940 -156.3525
12410.000000 88.193 -148.8524
12500.000000 88.423 -146.2877
12650.000000 88.909 -143.2892
12800.000000 89.424 -142.1770
13150.000000 90.085 -146.3833
13200.000000 90.069 -147.4570
13400.000000 89.689 -151.6409
13600.000000 88.884 -154.3003
13800.000000 87.843 -154.4914
14000.000000 86.767 -152.2258
14300.000000 85.391 -145.3065
14500.000000 84.759 -139.2121
14750.000000 84.392 -130.9945
15000.000000 84.585 -123.4689
15250.000000 85.347 -118.9238
15500.000000 86.311 -120.5030
15750.000000 86.649 -128.7381
16000.000000 85.874 -137.8830
16250.000000 84.307 -142.5102
16500.000000 82.602 -143.3826
16750.000000 80.635 -140.6299
17000.000000 78.993 -122.9245
17250.000000 80.530 -109.3684
17500.000000 81.206 -118.4335
17750.000000 79.959 -126.3995
18000.000000 78.997 -129.8736
18250.000000 78.363 -141.6361
18500.000000 76.205 -153.6956
18750.000000 72.371 -150.2345
19000.000000 68.640 -136.3702
19250.000000 66.375 -123.0764
19500.000000 64.591 -111.5901
19750.000000 62.573 -99.4797
20000.000000 60.378 -85.8177
20300.000000 57.843 -68.7428
20600.000000 55.647 -53.1785
20900.000000 53.524 -40.1969
21200.000000 51.128 -29.0593
21400.000000 49.283 -22.0332
21800.000000 44.953 -13.0566
22000.000000 42.485 -28.0729
22400.000000 36.922 -6.5067
22700.000000 32.164 -49.8516
23000.000000 26.796 -86.0371
23300.000000 20.795 156.6084
23600.000000 14.774 82.3555
24000.000000 10.217 -107.0059
