* Freq(Hz) SPL(dB)
20.000000 86.637
20.299999 86.637
20.600000 86.637
20.900000 86.637
21.200001 86.636
21.400000 86.636
21.799999 86.634
22.000000 86.632
22.400000 86.630
22.700001 86.628
23.000000 86.626
23.299999 86.623
23.600000 86.621
24.000000 86.618
24.299999 86.615
24.700001 86.612
25.000000 86.609
25.400000 86.605
25.799999 86.601
26.200001 86.596
26.500000 86.592
26.900000 86.586
27.200001 86.581
27.600000 86.574
28.000000 86.566
28.500000 86.555
29.000000 86.544
29.500000 86.533
30.000000 86.521
30.400000 86.511
30.700001 86.503
31.100000 86.493
31.500000 86.483
32.000000 86.470
32.500000 86.458
33.000000 86.445
33.500000 86.433
34.000000 86.419
34.500000 86.406
35.000000 86.391
35.500000 86.375
36.000000 86.359
36.500000 86.343
37.000000 86.325
37.500000 86.306
38.200001 86.278
38.700001 86.258
39.500000 86.224
40.000000 86.202
40.599998 86.174
41.200001 86.145
41.799999 86.115
42.500000 86.078
43.099998 86.046
43.700001 86.014
44.400002 85.978
45.000000 85.947
45.500000 85.923
46.200001 85.889
46.799999 85.859
47.500000 85.824
48.200001 85.789
48.700001 85.763
49.400002 85.725
50.000000 85.692
50.799999 85.648
51.500000 85.607
52.200001 85.567
53.000000 85.520
53.799999 85.472
54.500000 85.430
55.200001 85.388
56.000000 85.338
57.000000 85.276
58.000000 85.212
59.000000 85.148
60.000000 85.085
60.799999 85.034
61.500000 84.991
62.200001 84.947
63.000000 84.898
64.000000 84.837
65.000000 84.776
66.000000 84.715
67.000000 84.655
68.000000 84.594
69.000000 84.535
70.000000 84.475
71.000000 84.417
72.000000 84.358
73.000000 84.300
74.000000 84.242
75.000000 84.184
76.199997 84.115
77.500000 84.040
78.800003 83.966
80.000000 83.899
81.199997 83.832
82.500000 83.761
83.800003 83.689
85.000000 83.624
86.199997 83.559
87.500000 83.490
88.500000 83.437
90.000000 83.360
91.199997 83.299
92.500000 83.236
93.800003 83.176
95.000000 83.121
96.199997 83.067
97.500000 83.010
98.800003 82.954
100.000000 82.904
101.500000 82.843
103.000000 82.783
104.400002 82.728
106.000000 82.666
107.500000 82.609
109.000000 82.553
110.599998 82.495
112.000000 82.445
113.800003 82.383
115.000000 82.343
117.199997 82.271
118.000000 82.246
120.599998 82.165
122.000000 82.123
124.099998 82.062
125.000000 82.036
126.500000 81.994
128.000000 81.953
131.500000 81.861
132.000000 81.848
134.000000 81.799
136.000000 81.752
138.000000 81.706
140.000000 81.662
143.000000 81.598
145.000000 81.557
147.500000 81.508
150.000000 81.461
152.500000 81.416
155.000000 81.372
157.500000 81.331
160.000000 81.292
162.500000 81.254
165.000000 81.217
167.500000 81.181
170.000000 81.147
172.500000 81.114
175.000000 81.082
177.500000 81.052
180.000000 81.023
182.500000 80.996
185.000000 80.970
187.500000 80.945
190.000000 80.921
192.500000 80.898
195.000000 80.877
197.500000 80.856
200.000000 80.836
203.000000 80.813
206.000000 80.792
209.000000 80.772
212.000000 80.753
214.000000 80.741
218.000000 80.720
220.000000 80.710
224.000000 80.693
227.000000 80.681
230.000000 80.670
233.000000 80.661
236.000000 80.653
240.000000 80.644
243.000000 80.639
247.000000 80.632
250.000000 80.628
254.000000 80.623
258.000000 80.618
262.000000 80.614
265.000000 80.610
269.000000 80.606
272.000000 80.603
276.000000 80.599
280.000000 80.595
285.000000 80.591
290.000000 80.587
295.000000 80.584
300.000000 80.580
304.000000 80.578
307.000000 80.576
311.000000 80.574
315.000000 80.572
320.000000 80.569
325.000000 80.567
330.000000 80.564
335.000000 80.562
340.000000 80.561
345.000000 80.559
350.000000 80.557
355.000000 80.555
360.000000 80.551
365.000000 80.547
370.000000 80.542
375.000000 80.536
382.000000 80.525
387.000000 80.515
395.000000 80.495
400.000000 80.480
406.000000 80.461
412.000000 80.439
418.000000 80.414
425.000000 80.384
431.000000 80.356
437.000000 80.328
444.000000 80.295
450.000000 80.266
455.000000 80.241
462.000000 80.207
468.000000 80.178
475.000000 80.144
482.000000 80.109
487.000000 80.084
494.000000 80.049
500.000000 80.017
508.000000 79.974
515.000000 79.935
522.000000 79.896
530.000000 79.851
538.000000 79.807
545.000000 79.769
552.000000 79.730
560.000000 79.687
570.000000 79.633
580.000000 79.581
590.000000 79.529
600.000000 79.478
608.000000 79.438
615.000000 79.403
622.000000 79.370
630.000000 79.332
640.000000 79.286
650.000000 79.241
660.000000 79.197
670.000000 79.154
680.000000 79.112
690.000000 79.071
700.000000 79.030
710.000000 78.990
720.000000 78.951
730.000000 78.912
740.000000 78.874
750.000000 78.837
762.000000 78.794
775.000000 78.749
788.000000 78.705
800.000000 78.666
812.000000 78.628
825.000000 78.589
838.000000 78.552
850.000000 78.521
862.000000 78.491
875.000000 78.462
885.000000 78.441
900.000000 78.413
912.000000 78.395
925.000000 78.379
938.000000 78.368
950.000000 78.362
962.000000 78.360
975.000000 78.362
988.000000 78.370
1000.000000 78.381
1015.000000 78.402
1030.000000 78.428
1044.000000 78.458
1060.000000 78.497
1075.000000 78.539
1090.000000 78.586
1106.000000 78.640
1120.000000 78.690
1138.000000 78.757
1150.000000 78.804
1172.000000 78.893
1180.000000 78.926
1206.000000 79.035
1220.000000 79.095
1241.000000 79.186
1250.000000 79.225
1265.000000 79.291
1280.000000 79.357
1315.000000 79.512
1320.000000 79.534
1340.000000 79.623
1360.000000 79.712
1380.000000 79.802
1400.000000 79.892
1430.000000 80.028
1450.000000 80.120
1475.000000 80.239
1500.000000 80.363
1525.000000 80.493
1550.000000 80.627
1575.000000 80.765
1600.000000 80.907
1625.000000 81.051
1650.000000 81.197
1675.000000 81.346
1700.000000 81.496
1725.000000 81.648
1750.000000 81.804
1775.000000 81.964
1800.000000 82.127
1825.000000 82.294
1850.000000 82.464
1875.000000 82.635
1900.000000 82.808
1925.000000 82.979
1950.000000 83.149
1975.000000 83.318
2000.000000 83.485
2030.000000 83.683
2060.000000 83.878
2090.000000 84.071
2120.000000 84.260
2140.000000 84.385
2180.000000 84.629
2200.000000 84.748
2240.000000 84.979
2270.000000 85.144
2300.000000 85.302
2330.000000 85.453
2360.000000 85.596
2400.000000 85.776
2430.000000 85.902
2470.000000 86.056
2500.000000 86.162
2540.000000 86.290
2580.000000 86.406
2620.000000 86.512
2650.000000 86.586
2690.000000 86.677
2720.000000 86.740
2760.000000 86.813
2800.000000 86.874
2850.000000 86.933
2900.000000 86.974
2950.000000 86.999
3000.000000 87.010
3040.000000 87.010
3070.000000 87.005
3110.000000 86.993
3150.000000 86.973
3200.000000 86.938
3250.000000 86.892
3300.000000 86.833
3350.000000 86.761
3400.000000 86.678
3450.000000 86.587
3500.000000 86.490
3550.000000 86.388
3600.000000 86.282
3650.000000 86.172
3700.000000 86.059
3750.000000 85.942
3820.000000 85.774
3870.000000 85.652
3950.000000 85.456
4000.000000 85.334
4060.000000 85.188
4120.000000 85.043
4180.000000 84.898
4250.000000 84.732
4310.000000 84.591
4370.000000 84.451
4440.000000 84.289
4500.000000 84.151
4550.000000 84.037
4620.000000 83.879
4680.000000 83.748
4750.000000 83.599
4820.000000 83.454
4870.000000 83.354
4940.000000 83.216
5000.000000 83.102
5080.000000 82.954
5150.000000 82.831
5220.000000 82.714
5300.000000 82.587
5380.000000 82.464
5450.000000 82.359
5520.000000 82.254
5600.000000 82.133
5700.000000 81.983
5800.000000 81.837
5900.000000 81.695
6000.000000 81.555
6080.000000 81.441
6150.000000 81.340
6220.000000 81.237
6300.000000 81.118
6400.000000 80.967
6500.000000 80.814
6600.000000 80.659
6700.000000 80.502
6800.000000 80.342
6900.000000 80.183
7000.000000 80.024
7100.000000 79.866
7200.000000 79.712
7300.000000 79.561
7400.000000 79.414
7500.000000 79.270
7620.000000 79.100
7750.000000 78.917
7880.000000 78.731
8000.000000 78.554
8120.000000 78.368
8250.000000 78.152
8380.000000 77.921
8500.000000 77.691
8620.000000 77.446
8750.000000 77.161
8850.000000 76.929
9000.000000 76.559
9120.000000 76.248
9250.000000 75.897
9380.000000 75.538
9500.000000 75.203
9620.000000 74.867
9750.000000 74.506
9880.000000 74.149
10000.000000 73.825
10150.000000 73.424
10300.000000 73.026
10440.000000 72.655
10600.000000 72.230
10750.000000 71.823
10900.000000 71.398
11060.000000 70.920
11200.000000 70.483
11380.000000 69.907
11500.000000 69.528
11720.000000 68.911
11800.000000 68.768
12060.000000 68.611
12200.000000 68.602
12410.000000 68.600
12500.000000 68.600
12650.000000 68.600
12800.000000 68.600
13150.000000 68.600
13200.000000 68.600
13400.000000 68.600
13600.000000 68.600
13800.000000 68.600
14000.000000 68.600
14300.000000 68.600
14500.000000 68.600
14750.000000 68.600
15000.000000 68.600
15250.000000 68.600
15500.000000 68.600
15750.000000 68.600
16000.000000 68.600
16250.000000 68.600
16500.000000 68.600
16750.000000 68.600
17000.000000 68.600
17250.000000 68.600
17500.000000 68.600
17750.000000 68.600
18000.000000 68.600
18250.000000 68.600
18500.000000 68.600
18750.000000 68.600
19000.000000 68.600
19250.000000 68.600
19500.000000 68.600
19750.000000 68.600
20000.000000 68.600