* Measurement data measured by REW V5.20.13
* Source: Microphone (Realtek(R) Audio), MICROPHONE (Master Volume), L, volume: 1.000. Timing signal peak level -6.5 dBFS, measurement signal peak level -6.7 dBFS
* Format: 1M Log Swept Sine, 1 sweep at -12.0 dBFS using an acoustic timing reference
* Dated: Apr 11, 2023 4:08:59 PM
* REW Settings:
*  C-weighting compensation: Off
*  Target level: 75.0 dB
* Note: ; Delay -0.1830 ms (-63 mm, -2.47 in) using estimated IR delay relative to Acoustic reference played from HEADPHONE L with no timing offset Clock adjustment: 118.2 ppm  Date of Measurement: April 11 2023
* Measurement: Mi Basic L
* Smoothing: 1/24 octave
* Frequency Step: 1/48 octave
* Start Frequency: 1.000 Hz
*
* Freq(Hz) SPL(dB) Phase(degrees)
1.000000 73.828 99.0632
1.015000 73.638 98.8338
1.030000 73.451 98.4420
1.044000 73.279 97.9199
1.060000 73.087 97.1264
1.075000 72.913 96.1803
1.090000 72.745 95.0272
1.106000 72.570 93.5476
1.120000 72.402 91.9923
1.138000 72.164 89.6468
1.150000 71.993 87.8830
1.172000 71.662 84.2734
1.180000 71.537 82.8504
1.206000 71.119 77.8693
1.220000 70.891 74.9887
1.241000 70.550 70.4531
1.250000 70.406 68.4425
1.265000 70.171 65.0188
1.280000 69.945 61.5222
1.315000 69.467 53.1957
1.320000 69.405 51.9982
1.340000 69.182 47.2187
1.360000 68.998 42.4928
1.380000 68.859 37.8692
1.400000 68.773 33.3968
1.430000 68.756 27.0784
1.450000 68.828 23.1974
1.475000 69.027 18.7553
1.500000 69.364 14.3933
1.525000 69.827 10.0356
1.550000 70.398 5.7079
1.575000 71.060 1.4362
1.600000 71.793 -2.7537
1.625000 72.579 -6.8359
1.650000 73.401 -10.7845
1.675000 74.240 -14.5736
1.700000 75.077 -18.1773
1.725000 75.895 -21.5698
1.750000 76.676 -24.7251
1.775000 77.401 -27.6175
1.800000 78.051 -30.2209
1.825000 78.609 -32.5096
1.850000 79.079 -34.4385
1.875000 79.506 -35.9720
1.900000 79.895 -37.1505
1.925000 80.250 -38.0170
1.950000 80.576 -38.6145
1.975000 80.875 -38.9861
2.000000 81.151 -39.1748
2.030000 81.458 -39.2204
2.060000 81.743 -39.1390
2.090000 82.014 -39.0048
2.120000 82.275 -38.8924
2.140000 82.448 -38.8662
2.180000 82.797 -39.0300
2.200000 82.977 -39.2627
2.240000 83.324 -39.7840
2.270000 83.564 -40.1400
2.300000 83.789 -40.4721
2.330000 84.001 -40.7857
2.360000 84.202 -41.0862
2.400000 84.456 -41.4759
2.430000 84.638 -41.7670
2.470000 84.873 -42.1637
2.500000 85.046 -42.4748
2.540000 85.275 -42.9181
2.580000 85.506 -43.4037
2.620000 85.729 -43.9222
2.650000 85.889 -44.3269
2.690000 86.096 -44.8823
2.720000 86.246 -45.3070
2.760000 86.439 -45.8785
2.800000 86.627 -46.4501
2.850000 86.854 -47.1541
2.900000 87.076 -47.8343
2.950000 87.294 -48.4783
3.000000 87.504 -49.0875
3.040000 87.665 -49.5573
3.070000 87.783 -49.9029
3.110000 87.936 -50.3593
3.150000 88.086 -50.8156
3.200000 88.268 -51.3943
3.250000 88.445 -51.9922
3.300000 88.620 -52.6201
3.350000 88.790 -53.2847
3.400000 88.954 -53.9782
3.450000 89.114 -54.6893
3.500000 89.269 -55.4068
3.550000 89.420 -56.1196
3.600000 89.569 -56.8165
3.650000 89.714 -57.4862
3.700000 89.857 -58.1224
3.750000 89.996 -58.7339
3.820000 90.185 -59.5611
3.870000 90.317 -60.1400
3.950000 90.521 -61.0630
4.000000 90.647 -61.6477
4.060000 90.794 -62.3669
4.120000 90.938 -63.1014
4.180000 91.077 -63.8428
4.250000 91.236 -64.7052
4.310000 91.370 -65.4326
4.370000 91.501 -66.1402
4.440000 91.652 -66.9326
4.500000 91.778 -67.5886
4.550000 91.881 -68.1229
4.620000 92.023 -68.8579
4.680000 92.143 -69.4810
4.750000 92.280 -70.2069
4.820000 92.416 -70.9352
4.870000 92.511 -71.4537
4.940000 92.642 -72.1746
5.000000 92.752 -72.7856
5.080000 92.897 -73.5866
5.150000 93.022 -74.2714
5.220000 93.144 -74.9418
5.300000 93.281 -75.6929
5.380000 93.416 -76.4297
5.450000 93.532 -77.0643
5.520000 93.646 -77.6906
5.600000 93.773 -78.3942
5.700000 93.930 -79.2561
5.800000 94.083 -80.1002
5.900000 94.233 -80.9284
6.000000 94.380 -81.7399
6.080000 94.496 -82.3768
6.150000 94.595 -82.9252
6.220000 94.693 -83.4652
6.300000 94.804 -84.0711
6.400000 94.940 -84.8117
6.500000 95.073 -85.5374
6.600000 95.203 -86.2520
6.700000 95.332 -86.9558
6.800000 95.458 -87.6473
6.900000 95.582 -88.3268
7.000000 95.704 -88.9944
7.100000 95.824 -89.6488
7.200000 95.941 -90.2918
7.300000 96.057 -90.9261
7.400000 96.170 -91.5533
7.500000 96.281 -92.1720
7.620000 96.412 -92.9027
7.750000 96.550 -93.6794
7.880000 96.684 -94.4404
8.000000 96.804 -95.1298
8.120000 96.922 -95.8076
8.250000 97.046 -96.5283
8.380000 97.167 -97.2351
8.500000 97.276 -97.8750
8.620000 97.382 -98.5030
8.750000 97.494 -99.1699
8.850000 97.577 -99.6734
9.000000 97.699 -100.4133
9.120000 97.795 -100.9914
9.250000 97.897 -101.6024
9.380000 97.998 -102.1980
9.500000 98.088 -102.7373
9.620000 98.174 -103.2678
9.750000 98.264 -103.8317
9.880000 98.347 -104.3870
10.000000 98.416 -104.8948
10.150000 98.493 -105.5198
10.300000 98.562 -106.1254
10.440000 98.619 -106.6708
10.600000 98.680 -107.2789
10.750000 98.738 -107.8368
10.900000 98.796 -108.3846
11.060000 98.858 -108.9752
11.200000 98.913 -109.4971
11.380000 98.982 -110.1658
11.500000 99.027 -110.6093
11.720000 99.108 -111.4152
11.800000 99.137 -111.7043
12.060000 99.232 -112.6322
12.200000 99.283 -113.1281
12.410000 99.359 -113.8633
12.500000 99.390 -114.1711
12.650000 99.441 -114.6756
12.800000 99.491 -115.1682
13.150000 99.606 -116.2665
13.200000 99.622 -116.4189
13.400000 99.689 -117.0165
13.600000 99.757 -117.6014
13.800000 99.827 -118.1747
14.000000 99.897 -118.7477
14.300000 100.001 -119.6105
14.500000 100.068 -120.1897
14.750000 100.150 -120.9134
15.000000 100.228 -121.6336
15.250000 100.304 -122.3451
15.500000 100.377 -123.0327
15.750000 100.447 -123.6890
16.000000 100.514 -124.3067
16.250000 100.581 -124.8950
16.500000 100.648 -125.4609
16.750000 100.719 -126.0143
17.000000 100.791 -126.5690
17.250000 100.864 -127.1308
17.500000 100.937 -127.7057
17.750000 101.007 -128.2906
18.000000 101.073 -128.8802
18.250000 101.134 -129.4687
18.500000 101.191 -130.0432
18.750000 101.246 -130.5995
19.000000 101.299 -131.1341
19.250000 101.353 -131.6508
19.500000 101.408 -132.1544
19.750000 101.462 -132.6485
20.000000 101.517 -133.1396
20.299999 101.583 -133.7289
20.600000 101.646 -134.3195
20.900000 101.708 -134.9096
21.200001 101.767 -135.4948
21.400000 101.805 -135.8804
21.799999 101.878 -136.6398
22.000000 101.913 -137.0139
22.400000 101.983 -137.7529
22.700001 102.033 -138.2986
23.000000 102.082 -138.8358
23.299999 102.129 -139.3637
23.600000 102.175 -139.8815
24.000000 102.236 -140.5562
24.299999 102.281 -141.0521
24.700001 102.339 -141.7034
25.000000 102.382 -142.1862
25.400000 102.436 -142.8219
25.799999 102.487 -143.4447
26.200001 102.536 -144.0515
26.500000 102.572 -144.4962
26.900000 102.619 -145.0767
27.200001 102.653 -145.5046
27.600000 102.696 -146.0669
28.000000 102.739 -146.6198
28.500000 102.790 -147.2972
29.000000 102.840 -147.9625
29.500000 102.889 -148.6204
30.000000 102.934 -149.2725
30.400000 102.967 -149.7877
30.700001 102.991 -150.1687
31.100000 103.021 -150.6696
31.500000 103.050 -151.1638
32.000000 103.086 -151.7737
32.500000 103.119 -152.3731
33.000000 103.151 -152.9577
33.500000 103.182 -153.5267
34.000000 103.214 -154.0857
34.500000 103.246 -154.6436
35.000000 103.278 -155.2036
35.500000 103.306 -155.7593
36.000000 103.331 -156.3007
36.500000 103.354 -156.8213
37.000000 103.376 -157.3214
37.500000 103.399 -157.8075
38.200001 103.431 -158.4844
38.700001 103.453 -158.9743
39.500000 103.482 -159.7532
40.000000 103.497 -160.2175
40.599998 103.515 -160.7478
41.200001 103.535 -161.2676
41.799999 103.554 -161.7934
42.500000 103.574 -162.4082
43.099998 103.588 -162.9191
43.700001 103.602 -163.4071
44.400002 103.618 -163.9546
45.000000 103.633 -164.4185
45.500000 103.645 -164.8091
46.200001 103.661 -165.3584
46.799999 103.673 -165.8213
47.500000 103.688 -166.3529
48.200001 103.702 -166.8874
48.700001 103.710 -167.2658
49.400002 103.717 -167.7717
50.000000 103.724 -168.1817
50.799999 103.734 -168.7198
51.500000 103.742 -169.1970
52.200001 103.746 -169.6704
53.000000 103.748 -170.1931
53.799999 103.750 -170.7124
54.500000 103.749 -171.1756
55.200001 103.748 -171.6277
56.000000 103.749 -172.1288
57.000000 103.754 -172.7608
58.000000 103.768 -173.3763
59.000000 103.786 -174.1176
60.000000 103.763 -174.8779
60.799999 103.732 -175.2287
61.500000 103.724 -175.4306
62.200001 103.729 -175.6895
63.000000 103.730 -176.0574
64.000000 103.721 -176.5257
65.000000 103.708 -176.9988
66.000000 103.692 -177.4714
67.000000 103.679 -177.9559
68.000000 103.665 -178.4527
69.000000 103.651 -178.9434
70.000000 103.637 -179.4184
71.000000 103.624 -179.8712
72.000000 103.609 179.6989
73.000000 103.594 179.2826
74.000000 103.577 178.8629
75.000000 103.558 178.4426
76.199997 103.532 177.9487
77.500000 103.504 177.4222
78.800003 103.477 176.9052
80.000000 103.453 176.4506
81.199997 103.429 176.0090
82.500000 103.402 175.5408
83.800003 103.372 175.0950
85.000000 103.345 174.6965
86.199997 103.319 174.2978
87.500000 103.290 173.8646
88.500000 103.268 173.5362
90.000000 103.234 173.0519
91.199997 103.207 172.6742
92.500000 103.177 172.2806
93.800003 103.147 171.8998
95.000000 103.118 171.5601
96.199997 103.088 171.2263
97.500000 103.054 170.8597
98.800003 103.018 170.4905
100.000000 102.984 170.1570
101.500000 102.941 169.7601
103.000000 102.899 169.3800
104.400002 102.861 169.0409
106.000000 102.817 168.6559
107.500000 102.773 168.2866
109.000000 102.727 167.9193
110.599998 102.677 167.5538
112.000000 102.637 167.2506
113.800003 102.584 166.8792
115.000000 102.546 166.6481
117.199997 102.473 166.2350
118.000000 102.445 166.0877
120.599998 102.365 165.6060
122.000000 102.328 165.3089
124.099998 102.271 164.8872
125.000000 102.247 164.7184
126.500000 102.206 164.4489
128.000000 102.163 164.1938
131.500000 102.060 163.6254
132.000000 102.045 163.5459
134.000000 101.987 163.2387
136.000000 101.930 162.9489
138.000000 101.875 162.6659
140.000000 101.820 162.3909
143.000000 101.739 161.9901
145.000000 101.682 161.7403
147.500000 101.610 161.4435
150.000000 101.537 161.1727
152.500000 101.467 160.9113
155.000000 101.396 160.6454
157.500000 101.322 160.3813
160.000000 101.247 160.1245
162.500000 101.173 159.8804
165.000000 101.101 159.6660
167.500000 101.029 159.4873
170.000000 100.955 159.3109
172.500000 100.878 159.1301
175.000000 100.800 158.9721
177.500000 100.722 158.8519
180.000000 100.646 158.7274
182.500000 100.568 158.5637
185.000000 100.490 158.3962
187.500000 100.414 158.2533
190.000000 100.341 158.1389
192.500000 100.269 158.0391
195.000000 100.196 157.9430
197.500000 100.122 157.8569
200.000000 100.050 157.7773
203.000000 99.966 157.6782
206.000000 99.880 157.5901
209.000000 99.796 157.5188
212.000000 99.713 157.4545
214.000000 99.658 157.4152
218.000000 99.546 157.3639
220.000000 99.490 157.3523
224.000000 99.380 157.3355
227.000000 99.298 157.3171
230.000000 99.216 157.3025
233.000000 99.135 157.3019
236.000000 99.050 157.3088
240.000000 98.938 157.3324
243.000000 98.860 157.3604
247.000000 98.762 157.4014
250.000000 98.687 157.4420
254.000000 98.586 157.5139
258.000000 98.484 157.6043
262.000000 98.383 157.7020
265.000000 98.307 157.7737
269.000000 98.208 157.8699
272.000000 98.136 157.9453
276.000000 98.042 158.0588
280.000000 97.949 158.1970
285.000000 97.835 158.3740
290.000000 97.721 158.5453
295.000000 97.607 158.7536
300.000000 97.494 158.9918
304.000000 97.408 159.1970
307.000000 97.344 159.3523
311.000000 97.258 159.5540
315.000000 97.173 159.7593
320.000000 97.068 160.0286
325.000000 96.966 160.2999
330.000000 96.865 160.5811
335.000000 96.762 160.8663
340.000000 96.658 161.1701
345.000000 96.556 161.4890
350.000000 96.455 161.8093
355.000000 96.353 162.1353
360.000000 96.251 162.4714
365.000000 96.154 162.8346
370.000000 96.059 163.1949
375.000000 95.962 163.5497
382.000000 95.830 164.0702
387.000000 95.736 164.4560
395.000000 95.585 165.0889
400.000000 95.491 165.4762
406.000000 95.378 165.9475
412.000000 95.266 166.4419
418.000000 95.157 166.9639
425.000000 95.038 167.5613
431.000000 94.937 168.0632
437.000000 94.835 168.5896
444.000000 94.714 169.2231
450.000000 94.612 169.7620
455.000000 94.530 170.2086
462.000000 94.416 170.8430
468.000000 94.319 171.4056
475.000000 94.205 172.0687
482.000000 94.097 172.7292
487.000000 94.023 173.2098
494.000000 93.921 173.8985
500.000000 93.835 174.4986
508.000000 93.720 175.2959
515.000000 93.621 176.0112
522.000000 93.523 176.7381
530.000000 93.414 177.5552
538.000000 93.307 178.3658
545.000000 93.216 179.0974
552.000000 93.125 179.8592
560.000000 93.024 -179.2687
570.000000 92.900 -178.1970
580.000000 92.779 -177.1038
590.000000 92.660 -175.9907
600.000000 92.543 -174.8478
608.000000 92.450 -173.9474
615.000000 92.367 -173.1522
622.000000 92.285 -172.3528
630.000000 92.194 -171.4417
640.000000 92.082 -170.2927
650.000000 91.974 -169.1177
660.000000 91.871 -167.8975
670.000000 91.767 -166.6864
680.000000 91.661 -165.4834
690.000000 91.563 -164.2718
700.000000 91.471 -163.0475
710.000000 91.379 -161.7837
720.000000 91.287 -160.5088
730.000000 91.203 -159.2963
740.000000 91.123 -158.0719
750.000000 91.045 -156.8070
762.000000 90.949 -155.2721
775.000000 90.849 -153.5850
788.000000 90.757 -151.8841
800.000000 90.673 -150.3204
812.000000 90.596 -148.7479
825.000000 90.517 -147.0391
838.000000 90.441 -145.3209
850.000000 90.378 -143.7562
862.000000 90.320 -142.1972
875.000000 90.257 -140.4995
885.000000 90.211 -139.1875
900.000000 90.151 -137.2400
912.000000 90.111 -135.6844
925.000000 90.070 -133.9921
938.000000 90.033 -132.3340
950.000000 90.003 -130.8188
962.000000 89.974 -129.3181
975.000000 89.940 -127.7151
988.000000 89.909 -126.1007
1000.000000 89.883 -124.6132
1015.000000 89.858 -122.7943
1030.000000 89.836 -121.0224
1044.000000 89.816 -119.4063
1060.000000 89.791 -117.5885
1075.000000 89.769 -115.8792
1090.000000 89.755 -114.1837
1106.000000 89.747 -112.3992
1120.000000 89.744 -110.8679
1138.000000 89.739 -108.9283
1150.000000 89.733 -107.6299
1172.000000 89.717 -105.2343
1180.000000 89.712 -104.3724
1206.000000 89.689 -101.5853
1220.000000 89.672 -100.0669
1241.000000 89.645 -97.7295
1250.000000 89.633 -96.7185
1265.000000 89.614 -95.0295
1280.000000 89.595 -93.3136
1315.000000 89.549 -89.1341
1320.000000 89.541 -88.5179
1340.000000 89.504 -86.0040
1360.000000 89.452 -83.3917
1380.000000 89.404 -80.6524
1400.000000 89.382 -77.7414
1430.000000 89.421 -73.0185
1450.000000 89.506 -69.8690
1475.000000 89.646 -66.2012
1500.000000 89.799 -62.6385
1525.000000 89.972 -59.1075
1550.000000 90.161 -55.6328
1575.000000 90.389 -52.1625
1600.000000 90.674 -48.8373
1625.000000 90.998 -45.8782
1650.000000 91.334 -43.4049
1675.000000 91.660 -41.3561
1700.000000 91.961 -39.6298
1725.000000 92.222 -38.1274
1750.000000 92.446 -36.7626
1775.000000 92.635 -35.4607
1800.000000 92.798 -34.1810
1825.000000 92.937 -32.9152
1850.000000 93.050 -31.6404
1875.000000 93.140 -30.3193
1900.000000 93.211 -28.9145
1925.000000 93.267 -27.4132
1950.000000 93.315 -25.8120
1975.000000 93.360 -24.0970
2000.000000 93.409 -22.2693
2030.000000 93.480 -19.9825
2060.000000 93.569 -17.6806
2090.000000 93.669 -15.4315
2120.000000 93.767 -13.2483
2140.000000 93.829 -11.8044
2180.000000 93.943 -8.8761
2200.000000 93.998 -7.3928
2240.000000 94.109 -4.3837
2270.000000 94.195 -2.1008
2300.000000 94.284 0.1892
2330.000000 94.377 2.4915
2360.000000 94.475 4.7976
2400.000000 94.614 7.8616
2430.000000 94.722 10.1550
2470.000000 94.872 13.1946
2500.000000 94.987 15.4475
2540.000000 95.148 18.4183
2580.000000 95.312 21.3509
2620.000000 95.481 24.2470
2650.000000 95.608 26.3814
2690.000000 95.778 29.1782
2720.000000 95.904 31.2461
2760.000000 96.070 33.9698
2800.000000 96.232 36.6634
2850.000000 96.429 40.0082
2900.000000 96.618 43.3714
2950.000000 96.801 46.8186
3000.000000 96.993 50.4501
3040.000000 97.176 53.4931
3070.000000 97.345 55.7967
3110.000000 97.616 58.7399
3150.000000 97.925 61.3403
3200.000000 98.310 63.9764
3250.000000 98.644 66.1125
3300.000000 98.920 68.0669
3350.000000 99.157 69.9993
3400.000000 99.371 71.9070
3450.000000 99.567 73.7606
3500.000000 99.740 75.5710
3550.000000 99.885 77.3881
3600.000000 100.004 79.2494
3650.000000 100.105 81.1806
3700.000000 100.191 83.1814
3750.000000 100.266 85.2390
3820.000000 100.350 88.1896
3870.000000 100.390 90.3493
3950.000000 100.417 93.9726
4000.000000 100.420 96.3835
4060.000000 100.418 99.4428
4120.000000 100.419 102.6698
4180.000000 100.431 106.0256
4250.000000 100.460 110.0167
4310.000000 100.488 113.4668
4370.000000 100.511 116.9550
4440.000000 100.534 121.0924
4500.000000 100.556 124.6974
4550.000000 100.578 127.7431
4620.000000 100.612 132.0759
4680.000000 100.647 135.8586
4750.000000 100.696 140.3728
4820.000000 100.760 145.0126
4870.000000 100.819 148.4028
4940.000000 100.925 153.2303
5000.000000 101.040 157.4094
5080.000000 101.233 163.0042
5150.000000 101.440 167.8825
5220.000000 101.683 172.7063
5300.000000 102.000 178.1185
5380.000000 102.359 -176.6105
5450.000000 102.709 -172.1250
5520.000000 103.094 -167.7781
5600.000000 103.580 -163.0257
5700.000000 104.258 -157.5117
5800.000000 105.009 -152.6305
5900.000000 105.824 -148.5600
6000.000000 106.681 -145.5199
6080.000000 107.372 -143.9932
6150.000000 107.953 -143.4064
6220.000000 108.477 -143.5490
6300.000000 108.956 -144.5310
6400.000000 109.285 -146.4526
6500.000000 109.273 -147.7101
6600.000000 109.132 -146.7412
6700.000000 109.228 -144.8526
6800.000000 109.393 -144.6588
6900.000000 109.313 -145.2338
7000.000000 109.037 -144.7871
7100.000000 108.711 -142.9933
7200.000000 108.428 -140.2079
7300.000000 108.233 -136.8463
7400.000000 108.140 -133.2634
7500.000000 108.155 -129.7502
7620.000000 108.324 -126.0074
7750.000000 108.657 -123.1292
7880.000000 108.976 -122.1868
8000.000000 109.135 -123.4563
8120.000000 109.020 -126.5647
8250.000000 108.439 -130.7906
8380.000000 107.354 -134.0528
8500.000000 106.001 -134.9617
8620.000000 104.458 -133.4965
8750.000000 102.718 -129.5072
8850.000000 101.400 -125.0724
9000.000000 99.523 -116.7459
9120.000000 98.128 -109.0021
9250.000000 96.726 -99.8118
9380.000000 95.433 -89.9865
9500.000000 94.329 -80.4810
9620.000000 93.306 -70.6490
9750.000000 92.286 -59.7084
9880.000000 91.352 -48.5240
10000.000000 90.557 -38.0238
10150.000000 89.642 -24.7090
10300.000000 88.808 -11.2319
10440.000000 88.096 1.4576
10600.000000 87.358 16.0690
10750.000000 86.735 29.8538
10900.000000 86.178 43.7140
11060.000000 85.655 58.5364
11200.000000 85.259 71.5031
11380.000000 84.829 88.1439
11500.000000 84.588 99.2093
11720.000000 84.241 119.4252
11800.000000 84.145 126.7513
12060.000000 83.948 150.4230
12200.000000 83.915 163.0731
12410.000000 83.961 -178.1022
12500.000000 84.021 -170.0981
12650.000000 84.183 -156.8611
12800.000000 84.428 -143.7875
13150.000000 85.368 -114.0480
13200.000000 85.551 -109.9006
13400.000000 86.426 -93.6580
13600.000000 87.575 -78.1638
13800.000000 89.071 -63.8093
14000.000000 90.973 -51.3727
14300.000000 94.410 -39.8318
14500.000000 96.502 -40.4176
14750.000000 97.746 -50.9362
15000.000000 96.997 -61.0612
15250.000000 95.095 -60.7470
15500.000000 93.260 -51.9428
15750.000000 92.086 -39.6738
16000.000000 91.439 -27.7660
16250.000000 90.832 -17.5252
16500.000000 89.907 -6.9787
16750.000000 88.861 5.9537
17000.000000 88.095 18.7394
17250.000000 87.258 28.6218
17500.000000 85.826 37.5267
17750.000000 83.864 39.7360
18000.000000 81.686 -12.1892
18250.000000 79.456 158.7302
18500.000000 77.125 -174.9659
18750.000000 74.675 137.3327
19000.000000 72.205 -110.5940
19250.000000 69.855 -159.6003
19500.000000 67.692 -140.0171
19750.000000 65.769 -107.7183
20000.000000 64.100 -73.7654
20300.000000 62.384 -35.6447
20600.000000 60.771 -22.1346
20900.000000 58.681 -163.7888
21200.000000 56.134 -47.9913
21400.000000 56.560 0.1855
21800.000000 62.492 92.8120
22000.000000 64.871 -68.4456
22400.000000 67.228 -132.6157
22700.000000 66.212 -126.3398
23000.000000 63.418 -137.3633
23300.000000 61.365 -81.9492
23600.000000 60.575 -54.1562
24000.000000 59.949 151.2812
