* Measurement data measured by REW V5.20.13
* Source: Microphone (Realtek(R) Audio), MICROPHONE (Master Volume), L, volume: 1.000. Timing signal peak level -9.1 dBFS, measurement signal peak level -9.3 dBFS
* Format: 1M Log Swept Sine, 1 sweep at -12.0 dBFS using an acoustic timing reference
* Dated: Apr 11, 2023 4:12:55 PM
* REW Settings:
*  C-weighting compensation: Off
*  Target level: 75.0 dB
* Note: ; Date of Measurement: April 11 2023 Delay -0.1794 ms (-62 mm, -2.42 in) using estimated IR delay relative to Acoustic reference played from HEADPHONE R with no timing offset Clock adjustment: 118.1 ppm
* Measurement: Mi Basic R
* Smoothing: 1/24 octave
* Frequency Step: 1/48 octave
* Start Frequency: 1.000 Hz
*
* Freq(Hz) SPL(dB) Phase(degrees)
1.000000 67.100 68.6672
1.015000 66.882 67.7488
1.030000 66.692 66.7396
1.044000 66.543 65.7128
1.060000 66.410 64.4356
1.075000 66.325 63.1343
1.090000 66.282 61.7291
1.106000 66.285 60.0989
1.120000 66.322 58.4889
1.138000 66.414 56.1673
1.150000 66.501 54.4758
1.172000 66.708 51.1091
1.180000 66.797 49.8082
1.206000 67.137 45.3398
1.220000 67.347 42.8043
1.241000 67.694 38.8693
1.250000 67.853 37.1446
1.265000 68.130 34.2327
1.280000 68.419 31.2891
1.315000 69.132 24.3940
1.320000 69.237 23.4153
1.340000 69.662 19.5416
1.360000 70.089 15.7645
1.380000 70.516 12.1247
1.400000 70.935 8.6630
1.430000 71.539 3.8937
1.450000 71.918 1.0557
1.475000 72.362 -2.0644
1.500000 72.817 -4.9202
1.525000 73.292 -7.5785
1.550000 73.782 -10.0502
1.575000 74.282 -12.3462
1.600000 74.789 -14.4774
1.625000 75.298 -16.4545
1.650000 75.804 -18.2884
1.675000 76.304 -19.9902
1.700000 76.792 -21.5705
1.725000 77.264 -23.0402
1.750000 77.717 -24.4103
1.775000 78.145 -25.6916
1.800000 78.544 -26.8949
1.825000 78.910 -28.0312
1.850000 79.241 -29.0634
1.875000 79.545 -29.8955
1.900000 79.823 -30.5462
1.925000 80.078 -31.0395
1.950000 80.314 -31.3993
1.975000 80.532 -31.6495
2.000000 80.735 -31.8140
2.030000 80.962 -31.9318
2.060000 81.175 -32.0019
2.090000 81.380 -32.0655
2.120000 81.580 -32.1640
2.140000 81.713 -32.2694
2.180000 81.983 -32.6306
2.200000 82.123 -32.9102
2.240000 82.397 -33.5665
2.270000 82.590 -34.0975
2.300000 82.775 -34.6542
2.330000 82.952 -35.2297
2.360000 83.123 -35.8173
2.400000 83.342 -36.6076
2.430000 83.502 -37.1967
2.470000 83.710 -37.9643
2.500000 83.865 -38.5177
2.540000 84.071 -39.2130
2.580000 84.277 -39.8466
2.620000 84.480 -40.4279
2.650000 84.629 -40.8372
2.690000 84.824 -41.3551
2.720000 84.967 -41.7281
2.760000 85.154 -42.2131
2.800000 85.337 -42.6928
2.850000 85.561 -43.3003
2.900000 85.778 -43.9347
2.950000 85.990 -44.6123
3.000000 86.196 -45.3172
3.040000 86.355 -45.8932
3.070000 86.472 -46.3304
3.110000 86.625 -46.9176
3.150000 86.774 -47.5071
3.200000 86.957 -48.2427
3.250000 87.136 -48.9712
3.300000 87.311 -49.6869
3.350000 87.483 -50.3961
3.400000 87.650 -51.1044
3.450000 87.813 -51.8095
3.500000 87.972 -52.5092
3.550000 88.128 -53.2015
3.600000 88.280 -53.8839
3.650000 88.429 -54.5545
3.700000 88.576 -55.2108
3.750000 88.719 -55.8535
3.820000 88.914 -56.7350
3.870000 89.049 -57.3554
3.950000 89.261 -58.3393
4.000000 89.390 -58.9530
4.060000 89.542 -59.6928
4.120000 89.690 -60.4371
4.180000 89.834 -61.1805
4.250000 89.999 -62.0385
4.310000 90.136 -62.7593
4.370000 90.272 -63.4602
4.440000 90.428 -64.2459
4.500000 90.559 -64.8940
4.550000 90.666 -65.4204
4.620000 90.813 -66.1428
4.680000 90.937 -66.7542
4.750000 91.079 -67.4662
4.820000 91.220 -68.1805
4.870000 91.319 -68.6886
4.940000 91.455 -69.3943
5.000000 91.570 -69.9914
5.080000 91.721 -70.7724
5.150000 91.852 -71.4376
5.220000 91.980 -72.0850
5.300000 92.123 -72.8071
5.380000 92.265 -73.5152
5.450000 92.386 -74.1275
5.520000 92.506 -74.7361
5.600000 92.641 -75.4245
5.700000 92.805 -76.2721
5.800000 92.966 -77.1043
5.900000 93.124 -77.9202
6.000000 93.279 -78.7194
6.080000 93.400 -79.3476
6.150000 93.504 -79.8898
6.220000 93.606 -80.4254
6.300000 93.721 -81.0294
6.400000 93.861 -81.7719
6.500000 93.999 -82.5004
6.600000 94.133 -83.2155
6.700000 94.264 -83.9174
6.800000 94.392 -84.6057
6.900000 94.518 -85.2799
7.000000 94.641 -85.9392
7.100000 94.761 -86.5831
7.200000 94.879 -87.2129
7.300000 94.995 -87.8299
7.400000 95.109 -88.4350
7.500000 95.220 -89.0273
7.620000 95.351 -89.7216
7.750000 95.490 -90.4537
7.880000 95.625 -91.1637
8.000000 95.748 -91.8027
8.120000 95.869 -92.4284
8.250000 95.998 -93.0895
8.380000 96.124 -93.7360
8.500000 96.239 -94.3218
8.620000 96.351 -94.8955
8.750000 96.471 -95.5065
8.850000 96.562 -95.9707
9.000000 96.696 -96.6559
9.120000 96.801 -97.1955
9.250000 96.914 -97.7717
9.380000 97.027 -98.3386
9.500000 97.127 -98.8579
9.620000 97.224 -99.3753
9.750000 97.326 -99.9322
9.880000 97.420 -100.4868
10.000000 97.498 -100.9998
10.150000 97.585 -101.6386
10.300000 97.664 -102.2615
10.440000 97.728 -102.8274
10.600000 97.796 -103.4592
10.750000 97.858 -104.0357
10.900000 97.918 -104.5991
11.060000 97.982 -105.1964
11.200000 98.037 -105.7166
11.380000 98.107 -106.3704
11.500000 98.152 -106.7947
11.720000 98.233 -107.5503
11.800000 98.263 -107.8166
12.060000 98.361 -108.6568
12.200000 98.416 -109.1026
12.410000 98.499 -109.7604
12.500000 98.535 -110.0379
12.650000 98.594 -110.4944
12.800000 98.652 -110.9449
13.150000 98.787 -111.9761
13.200000 98.806 -112.1223
13.400000 98.884 -112.7039
13.600000 98.962 -113.2828
13.800000 99.041 -113.8589
14.000000 99.118 -114.4377
14.300000 99.230 -115.3110
14.500000 99.300 -115.8934
14.750000 99.384 -116.6125
15.000000 99.464 -117.3164
15.250000 99.541 -117.9968
15.500000 99.616 -118.6388
15.750000 99.689 -119.2363
16.000000 99.762 -119.7854
16.250000 99.839 -120.3048
16.500000 99.919 -120.8081
16.750000 100.006 -121.3149
17.000000 100.096 -121.8468
17.250000 100.188 -122.4104
17.500000 100.279 -123.0120
17.750000 100.363 -123.6396
18.000000 100.441 -124.2807
18.250000 100.512 -124.9214
18.500000 100.577 -125.5401
18.750000 100.638 -126.1317
19.000000 100.697 -126.6916
19.250000 100.758 -127.2277
19.500000 100.819 -127.7480
19.750000 100.881 -128.2592
20.000000 100.943 -128.7690
20.299999 101.016 -129.3802
20.600000 101.086 -129.9881
20.900000 101.153 -130.5863
21.200001 101.217 -131.1684
21.400000 101.260 -131.5467
21.799999 101.343 -132.2849
22.000000 101.384 -132.6486
22.400000 101.467 -133.3737
22.700001 101.529 -133.9186
23.000000 101.589 -134.4646
23.299999 101.647 -135.0108
23.600000 101.703 -135.5552
24.000000 101.774 -136.2739
24.299999 101.825 -136.8025
24.700001 101.888 -137.4855
25.000000 101.933 -137.9760
25.400000 101.993 -138.5983
25.799999 102.054 -139.1922
26.200001 102.117 -139.7779
26.500000 102.166 -140.2243
26.900000 102.229 -140.8362
27.200001 102.273 -141.3039
27.600000 102.327 -141.9250
28.000000 102.376 -142.5248
28.500000 102.434 -143.2322
29.000000 102.493 -143.9077
29.500000 102.552 -144.5768
30.000000 102.609 -145.2512
30.400000 102.651 -145.7908
30.700001 102.680 -146.1924
31.100000 102.717 -146.7225
31.500000 102.752 -147.2462
32.000000 102.794 -147.8895
32.500000 102.835 -148.5163
33.000000 102.875 -149.1299
33.500000 102.914 -149.7415
34.000000 102.953 -150.3566
34.500000 102.990 -150.9644
35.000000 103.024 -151.5476
35.500000 103.058 -152.1015
36.000000 103.094 -152.6419
36.500000 103.130 -153.1861
37.000000 103.163 -153.7349
37.500000 103.193 -154.2747
38.200001 103.231 -154.9987
38.700001 103.257 -155.5003
39.500000 103.297 -156.2923
40.000000 103.320 -156.7792
40.599998 103.347 -157.3569
41.200001 103.374 -157.9361
41.799999 103.398 -158.5167
42.500000 103.423 -159.1813
43.099998 103.444 -159.7324
43.700001 103.466 -160.2690
44.400002 103.489 -160.8790
45.000000 103.509 -161.3876
45.500000 103.525 -161.8039
46.200001 103.545 -162.3766
46.799999 103.561 -162.8520
47.500000 103.580 -163.3908
48.200001 103.601 -163.9387
48.700001 103.613 -164.3444
49.400002 103.624 -164.9140
50.000000 103.632 -165.3844
50.799999 103.642 -165.9934
51.500000 103.652 -166.5289
52.200001 103.659 -167.0593
53.000000 103.665 -167.6284
53.799999 103.675 -168.1512
54.500000 103.686 -168.6017
55.200001 103.696 -169.0601
56.000000 103.702 -169.5602
57.000000 103.705 -170.1571
58.000000 103.693 -170.7105
59.000000 103.689 -171.0866
60.000000 103.722 -171.6124
60.799999 103.732 -172.2649
61.500000 103.717 -172.8119
62.200001 103.699 -173.2620
63.000000 103.687 -173.7403
64.000000 103.678 -174.3423
65.000000 103.670 -174.9216
66.000000 103.664 -175.4794
67.000000 103.656 -176.0080
68.000000 103.646 -176.5159
69.000000 103.633 -177.0019
70.000000 103.620 -177.4750
71.000000 103.606 -177.9493
72.000000 103.592 -178.4246
73.000000 103.575 -178.8944
74.000000 103.559 -179.3572
75.000000 103.542 -179.8146
76.199997 103.520 179.6561
77.500000 103.495 179.1179
78.800003 103.470 178.5942
80.000000 103.446 178.1201
81.199997 103.421 177.6528
82.500000 103.394 177.1434
83.800003 103.365 176.6363
85.000000 103.338 176.1766
86.199997 103.311 175.7313
87.500000 103.281 175.2765
88.500000 103.260 174.9443
90.000000 103.229 174.4507
91.199997 103.202 174.0500
92.500000 103.168 173.6278
93.800003 103.134 173.2237
95.000000 103.102 172.8542
96.199997 103.070 172.4902
97.500000 103.036 172.1021
98.800003 103.002 171.7182
100.000000 102.969 171.3770
101.500000 102.927 170.9683
103.000000 102.884 170.5722
104.400002 102.846 170.2049
106.000000 102.800 169.7859
107.500000 102.755 169.4112
109.000000 102.708 169.0552
110.599998 102.658 168.6865
112.000000 102.614 168.3593
113.800003 102.558 167.9379
115.000000 102.522 167.6714
117.199997 102.460 167.2351
118.000000 102.440 167.0850
120.599998 102.365 166.5341
122.000000 102.316 166.2430
124.099998 102.246 165.8384
125.000000 102.218 165.6661
126.500000 102.173 165.3865
128.000000 102.128 165.1252
131.500000 102.023 164.5587
132.000000 102.008 164.4789
134.000000 101.947 164.1616
136.000000 101.888 163.8612
138.000000 101.834 163.5743
140.000000 101.778 163.2954
143.000000 101.691 162.8813
145.000000 101.631 162.6188
147.500000 101.559 162.3151
150.000000 101.489 162.0238
152.500000 101.417 161.7426
155.000000 101.342 161.4766
157.500000 101.268 161.2351
160.000000 101.194 160.9910
162.500000 101.117 160.7453
165.000000 101.041 160.5224
167.500000 100.967 160.3296
170.000000 100.890 160.1540
172.500000 100.813 159.9876
175.000000 100.736 159.8275
177.500000 100.658 159.6959
180.000000 100.581 159.5684
182.500000 100.502 159.4107
185.000000 100.421 159.2588
187.500000 100.342 159.1210
190.000000 100.266 158.9881
192.500000 100.192 158.8724
195.000000 100.119 158.7918
197.500000 100.046 158.7281
200.000000 99.971 158.6625
203.000000 99.884 158.5882
206.000000 99.800 158.5266
209.000000 99.714 158.4688
212.000000 99.627 158.4111
214.000000 99.570 158.3795
218.000000 99.458 158.3354
220.000000 99.402 158.3152
224.000000 99.291 158.2835
227.000000 99.209 158.2830
230.000000 99.126 158.3006
233.000000 99.045 158.3132
236.000000 98.965 158.3091
240.000000 98.857 158.3379
243.000000 98.777 158.4034
247.000000 98.673 158.4873
250.000000 98.595 158.5417
254.000000 98.493 158.6176
258.000000 98.392 158.7126
262.000000 98.289 158.8246
265.000000 98.215 158.9075
269.000000 98.119 159.0308
272.000000 98.049 159.1432
276.000000 97.955 159.3030
280.000000 97.862 159.4565
285.000000 97.745 159.6533
290.000000 97.630 159.8732
295.000000 97.521 160.1175
300.000000 97.415 160.3680
304.000000 97.327 160.5507
307.000000 97.261 160.6954
311.000000 97.176 160.9144
315.000000 97.092 161.1410
320.000000 96.989 161.4259
325.000000 96.890 161.7236
330.000000 96.791 162.0242
335.000000 96.689 162.3503
340.000000 96.586 162.6864
345.000000 96.485 163.0233
350.000000 96.384 163.3781
355.000000 96.285 163.7544
360.000000 96.187 164.1278
365.000000 96.091 164.4842
370.000000 95.996 164.8509
375.000000 95.902 165.2265
382.000000 95.773 165.7870
387.000000 95.680 166.2058
395.000000 95.533 166.8638
400.000000 95.441 167.2794
406.000000 95.335 167.7867
412.000000 95.230 168.3182
418.000000 95.123 168.8619
425.000000 95.005 169.4728
431.000000 94.905 170.0112
437.000000 94.806 170.5634
444.000000 94.693 171.2037
450.000000 94.598 171.7476
455.000000 94.518 172.2139
462.000000 94.409 172.8948
468.000000 94.319 173.4830
475.000000 94.212 174.1606
482.000000 94.107 174.8611
487.000000 94.034 175.3831
494.000000 93.933 176.1224
500.000000 93.849 176.7436
508.000000 93.741 177.5515
515.000000 93.649 178.2719
522.000000 93.558 179.0078
530.000000 93.455 179.8510
538.000000 93.355 -179.2935
545.000000 93.267 -178.5224
552.000000 93.180 -177.7439
560.000000 93.084 -176.8674
570.000000 92.967 -175.7654
580.000000 92.855 -174.6429
590.000000 92.743 -173.5019
600.000000 92.631 -172.3381
608.000000 92.541 -171.3915
615.000000 92.464 -170.5724
622.000000 92.389 -169.7550
630.000000 92.305 -168.8139
640.000000 92.205 -167.6059
650.000000 92.107 -166.3865
660.000000 92.009 -165.1828
670.000000 91.913 -163.9574
680.000000 91.820 -162.7126
690.000000 91.729 -161.4608
700.000000 91.644 -160.2091
710.000000 91.565 -158.9338
720.000000 91.487 -157.6613
730.000000 91.407 -156.4079
740.000000 91.330 -155.1326
750.000000 91.260 -153.8297
762.000000 91.179 -152.2619
775.000000 91.100 -150.5755
788.000000 91.019 -148.8728
800.000000 90.945 -147.2870
812.000000 90.878 -145.7009
825.000000 90.810 -143.9706
838.000000 90.748 -142.2423
850.000000 90.699 -140.6554
862.000000 90.650 -139.0740
875.000000 90.602 -137.3581
885.000000 90.570 -136.0410
900.000000 90.528 -134.0631
912.000000 90.496 -132.4896
925.000000 90.466 -130.8049
938.000000 90.441 -129.1306
950.000000 90.424 -127.5879
962.000000 90.408 -126.0652
975.000000 90.393 -124.4462
988.000000 90.381 -122.8388
1000.000000 90.373 -121.3628
1015.000000 90.366 -119.5509
1030.000000 90.360 -117.7690
1044.000000 90.357 -116.1304
1060.000000 90.356 -114.2959
1075.000000 90.357 -112.6051
1090.000000 90.362 -110.9192
1106.000000 90.376 -109.1427
1120.000000 90.391 -107.6484
1138.000000 90.408 -105.7435
1150.000000 90.419 -104.4568
1172.000000 90.439 -102.1157
1180.000000 90.446 -101.2707
1206.000000 90.463 -98.5483
1220.000000 90.469 -97.0832
1241.000000 90.482 -94.8603
1250.000000 90.486 -93.8945
1265.000000 90.492 -92.2766
1280.000000 90.493 -90.6535
1315.000000 90.494 -86.7278
1320.000000 90.494 -86.1413
1340.000000 90.494 -83.7304
1360.000000 90.487 -81.2579
1380.000000 90.491 -78.7887
1400.000000 90.513 -76.3253
1430.000000 90.556 -72.5563
1450.000000 90.588 -69.9322
1475.000000 90.648 -66.4604
1500.000000 90.744 -62.8508
1525.000000 90.881 -59.2040
1550.000000 91.063 -55.5924
1575.000000 91.294 -52.0706
1600.000000 91.573 -48.7421
1625.000000 91.889 -45.7194
1650.000000 92.229 -43.0703
1675.000000 92.573 -40.8134
1700.000000 92.904 -38.9081
1725.000000 93.212 -37.3107
1750.000000 93.485 -35.9568
1775.000000 93.721 -34.7487
1800.000000 93.921 -33.6124
1825.000000 94.087 -32.4968
1850.000000 94.226 -31.3595
1875.000000 94.343 -30.1754
1900.000000 94.444 -28.9159
1925.000000 94.531 -27.5604
1950.000000 94.610 -26.1233
1975.000000 94.681 -24.6337
2000.000000 94.750 -23.0927
2030.000000 94.829 -21.1646
2060.000000 94.909 -19.1472
2090.000000 94.991 -17.0696
2120.000000 95.080 -14.9230
2140.000000 95.145 -13.4634
2180.000000 95.288 -10.5377
2200.000000 95.363 -9.0832
2240.000000 95.516 -6.2069
2270.000000 95.631 -4.0843
2300.000000 95.747 -1.9720
2330.000000 95.866 0.1443
2360.000000 95.988 2.2580
2400.000000 96.159 5.0546
2430.000000 96.291 7.1263
2470.000000 96.470 9.8595
2500.000000 96.606 11.8831
2540.000000 96.792 14.5345
2580.000000 96.981 17.1358
2620.000000 97.174 19.6875
2650.000000 97.319 21.5570
2690.000000 97.514 23.9900
2720.000000 97.658 25.7708
2760.000000 97.846 28.0822
2800.000000 98.029 30.3289
2850.000000 98.250 33.0573
2900.000000 98.459 35.7054
2950.000000 98.652 38.2957
3000.000000 98.826 40.8864
3040.000000 98.951 43.0062
3070.000000 99.038 44.6569
3110.000000 99.153 46.9777
3150.000000 99.279 49.4600
3200.000000 99.485 52.7537
3250.000000 99.772 55.9971
3300.000000 100.127 58.7494
3350.000000 100.483 60.7687
3400.000000 100.783 62.2188
3450.000000 101.010 63.4288
3500.000000 101.176 64.6402
3550.000000 101.295 65.9565
3600.000000 101.380 67.4048
3650.000000 101.440 68.9900
3700.000000 101.480 70.7116
3750.000000 101.507 72.5772
3820.000000 101.534 75.4217
3870.000000 101.551 77.5827
3950.000000 101.576 81.1385
4000.000000 101.588 83.3995
4060.000000 101.595 86.1742
4120.000000 101.596 89.0404
4180.000000 101.594 92.0134
4250.000000 101.594 95.5970
4310.000000 101.595 98.7557
4370.000000 101.594 101.9876
4440.000000 101.594 105.8302
4500.000000 101.596 109.1839
4550.000000 101.600 112.0273
4620.000000 101.612 116.1089
4680.000000 101.631 119.7366
4750.000000 101.676 124.1371
4820.000000 101.757 128.6723
4870.000000 101.842 131.9456
4940.000000 102.000 136.5079
5000.000000 102.173 140.3557
5080.000000 102.452 145.3349
5150.000000 102.738 149.4905
5220.000000 103.057 153.4130
5300.000000 103.456 157.5711
5380.000000 103.884 161.3471
5450.000000 104.279 164.3103
5520.000000 104.688 166.9147
5600.000000 105.161 169.4070
5700.000000 105.736 171.7364
5800.000000 106.261 173.1708
5900.000000 106.692 173.7632
6000.000000 106.987 173.6814
6080.000000 107.101 173.3253
6150.000000 107.107 172.9632
6220.000000 107.025 172.6942
6300.000000 106.828 172.6583
6400.000000 106.442 173.2488
6500.000000 105.923 174.7820
6600.000000 105.286 177.6539
6700.000000 104.606 -177.2512
6800.000000 104.211 -169.8318
6900.000000 104.340 -162.7320
7000.000000 104.694 -157.8598
7100.000000 104.947 -154.7101
7200.000000 105.037 -151.7397
7300.000000 105.091 -148.2554
7400.000000 105.202 -144.5262
7500.000000 105.396 -140.9548
7620.000000 105.742 -137.3148
7750.000000 106.211 -134.6954
7880.000000 106.606 -134.0097
8000.000000 106.796 -135.3786
8120.000000 106.690 -138.3828
8250.000000 106.119 -142.2879
8380.000000 105.059 -145.1219
8500.000000 103.744 -145.6483
8620.000000 102.246 -143.8604
8750.000000 100.552 -139.5779
8850.000000 99.266 -134.9414
9000.000000 97.429 -126.3333
9120.000000 96.060 -118.3766
9250.000000 94.682 -108.9694
9380.000000 93.405 -98.9410
9500.000000 92.310 -89.2621
9620.000000 91.289 -79.2650
9750.000000 90.266 -68.1488
9880.000000 89.320 -56.7926
10000.000000 88.505 -46.1369
10150.000000 87.555 -32.6273
10300.000000 86.676 -18.9356
10440.000000 85.916 -6.0325
10600.000000 85.114 8.8070
10750.000000 84.423 22.7916
10900.000000 83.789 36.8478
11060.000000 83.181 51.8809
11200.000000 82.702 65.0172
11380.000000 82.155 81.8334
11500.000000 81.834 92.9680
11720.000000 81.335 113.2046
11800.000000 81.182 120.5023
12060.000000 80.791 143.9700
12200.000000 80.652 156.3995
12410.000000 80.545 174.7393
12500.000000 80.540 -177.5121
12650.000000 80.593 -164.7634
12800.000000 80.731 -152.2349
13150.000000 81.454 -123.9384
13200.000000 81.609 -120.0076
13400.000000 82.382 -104.5903
13600.000000 83.436 -89.7689
13800.000000 84.832 -75.6907
14000.000000 86.627 -62.7428
14300.000000 90.117 -47.4011
14500.000000 92.757 -42.5059
14750.000000 95.437 -46.8842
15000.000000 96.248 -59.9940
15250.000000 95.116 -67.1991
15500.000000 93.357 -62.1420
15750.000000 92.147 -50.8735
16000.000000 91.456 -37.6594
16250.000000 91.183 -24.4655
16500.000000 91.104 -14.1506
16750.000000 90.641 -7.9313
17000.000000 89.226 -2.3594
17250.000000 86.721 9.4987
17500.000000 83.656 31.7561
17750.000000 81.232 60.1486
18000.000000 80.058 80.5550
18250.000000 78.918 50.8314
18500.000000 76.944 -136.4991
18750.000000 74.401 -102.0556
19000.000000 72.321 11.5858
19250.000000 71.652 -76.7263
19500.000000 72.080 -69.5656
19750.000000 72.810 -40.3470
20000.000000 73.399 -10.4193
20300.000000 73.901 23.7007
20600.000000 74.294 56.6245
20900.000000 74.541 89.1744
21200.000000 74.675 122.2105
21400.000000 74.767 144.7415
21800.000000 75.193 -172.1009
22000.000000 75.523 -164.6961
22400.000000 75.512 -164.0501
22700.000000 73.374 -138.4854
23000.000000 68.636 139.3418
23300.000000 63.381 -7.6113
23600.000000 61.703 -84.8125
24000.000000 62.765 45.5547
