* Measurement data measured by REW V5.20.13
* Source: Headset (DS by VECLAN.COM), MICROPHONE (Master Volume), L, volume: 0.720. Timing signal peak level -14.1 dBFS, measurement signal peak level -14.1 dBFS
* Format: 4M Log Swept Sine, 1 sweep at -12.0 dBFS using an acoustic timing reference
* Dated: Dec 5, 2023 3:29:46 PM
* REW Settings:
*  C-weighting compensation: Off
*  Target level: 75.0 dB
* Note: ; Apple + Abigail Delay -0.0612 ms (-21 mm, -0.83 in) using estimated IR delay relative to Acoustic reference played from  L with no timing offset
* Measurement: Moondrop Aria W1 L
* Smoothing: 1/24 octave
* Frequency Step: 1/48 octave
* Start Frequency: 1.000 Hz
*
* Freq(Hz) SPL(dB) Phase(degrees)
1.000000 60.987 -23.5439
1.015000 61.375 -22.0514
1.030000 61.758 -20.6769
1.044000 62.109 -19.5082
1.060000 62.501 -18.3170
1.075000 62.858 -17.3493
1.090000 63.203 -16.5346
1.106000 63.559 -15.8498
1.120000 63.871 -15.4375
1.138000 64.274 -15.1543
1.150000 64.544 -15.1083
1.172000 65.040 -15.2923
1.180000 65.221 -15.4381
1.206000 65.809 -16.1661
1.220000 66.124 -16.6997
1.241000 66.594 -17.6535
1.250000 66.795 -18.1099
1.265000 67.127 -18.9225
1.280000 67.456 -19.7872
1.315000 68.210 -21.9247
1.320000 68.315 -22.2358
1.340000 68.732 -23.4727
1.360000 69.139 -24.6715
1.380000 69.535 -25.7974
1.400000 69.918 -26.8155
1.430000 70.467 -28.0644
1.450000 70.813 -28.6607
1.475000 71.223 -29.0983
1.500000 71.607 -29.3310
1.525000 71.969 -29.4175
1.550000 72.310 -29.3804
1.575000 72.632 -29.2428
1.600000 72.937 -29.0272
1.625000 73.228 -28.7565
1.650000 73.505 -28.4534
1.675000 73.772 -28.1408
1.700000 74.029 -27.8415
1.725000 74.279 -27.5781
1.750000 74.525 -27.3736
1.775000 74.767 -27.2507
1.800000 75.008 -27.2321
1.825000 75.249 -27.3407
1.850000 75.490 -27.5805
1.875000 75.721 -27.9123
1.900000 75.942 -28.3234
1.925000 76.156 -28.8025
1.950000 76.362 -29.3384
1.975000 76.562 -29.9199
2.000000 76.756 -30.5358
2.030000 76.983 -31.3045
2.060000 77.205 -32.0872
2.090000 77.422 -32.8646
2.120000 77.637 -33.6174
2.140000 77.780 -34.0959
2.180000 78.065 -34.9712
2.200000 78.209 -35.3568
2.240000 78.494 -36.0691
2.270000 78.704 -36.5733
2.300000 78.911 -37.0560
2.330000 79.114 -37.5210
2.360000 79.314 -37.9723
2.400000 79.576 -38.5593
2.430000 79.769 -38.9934
2.470000 80.022 -39.5715
2.500000 80.208 -40.0095
2.540000 80.453 -40.6068
2.580000 80.693 -41.2241
2.620000 80.927 -41.8392
2.650000 81.099 -42.2970
2.690000 81.325 -42.9055
2.720000 81.490 -43.3627
2.760000 81.707 -43.9761
2.800000 81.919 -44.5975
2.850000 82.179 -45.3910
2.900000 82.432 -46.2100
2.950000 82.679 -47.0646
3.000000 82.919 -47.9781
3.040000 83.105 -48.7413
3.070000 83.243 -49.3248
3.110000 83.422 -50.1080
3.150000 83.597 -50.8860
3.200000 83.812 -51.8332
3.250000 84.022 -52.7304
3.300000 84.228 -53.5543
3.350000 84.429 -54.2929
3.400000 84.624 -54.9638
3.450000 84.814 -55.5891
3.500000 84.999 -56.1906
3.550000 85.180 -56.7905
3.600000 85.357 -57.4107
3.650000 85.531 -58.0732
3.700000 85.702 -58.7942
3.750000 85.868 -59.5615
3.820000 86.094 -60.6790
3.870000 86.251 -61.4838
3.950000 86.495 -62.7332
4.000000 86.644 -63.4621
4.060000 86.820 -64.2582
4.120000 86.990 -64.9809
4.180000 87.155 -65.6528
4.250000 87.343 -66.4007
4.310000 87.500 -67.0352
4.370000 87.655 -67.6860
4.440000 87.832 -68.4858
4.500000 87.979 -69.1917
4.550000 88.100 -69.7851
4.620000 88.265 -70.6108
4.680000 88.405 -71.3019
4.750000 88.565 -72.0733
4.820000 88.724 -72.7961
4.870000 88.836 -73.2878
4.940000 88.989 -73.9527
5.000000 89.119 -74.5099
5.080000 89.289 -75.2504
5.150000 89.435 -75.9094
5.220000 89.579 -76.5737
5.300000 89.739 -77.3311
5.380000 89.897 -78.0821
5.450000 90.032 -78.7301
5.520000 90.165 -79.3666
5.600000 90.313 -80.0821
5.700000 90.494 -80.9611
5.800000 90.670 -81.8249
5.900000 90.843 -82.6744
6.000000 91.012 -83.5042
6.080000 91.144 -84.1585
6.150000 91.258 -84.7283
6.220000 91.369 -85.2991
6.300000 91.495 -85.9550
6.400000 91.648 -86.7751
6.500000 91.797 -87.5891
6.600000 91.941 -88.3897
6.700000 92.080 -89.1763
6.800000 92.215 -89.9516
6.900000 92.345 -90.7160
7.000000 92.472 -91.4699
7.100000 92.595 -92.2151
7.200000 92.714 -92.9486
7.300000 92.831 -93.6666
7.400000 92.945 -94.3652
7.500000 93.056 -95.0453
7.620000 93.187 -95.8460
7.750000 93.326 -96.7041
7.880000 93.461 -97.5487
8.000000 93.583 -98.3190
8.120000 93.703 -99.0839
8.250000 93.829 -99.9046
8.380000 93.952 -100.7187
8.500000 94.062 -101.4663
8.620000 94.168 -102.2101
8.750000 94.279 -103.0083
8.850000 94.362 -103.6159
9.000000 94.481 -104.5187
9.120000 94.573 -105.2294
9.250000 94.670 -105.9846
9.380000 94.765 -106.7264
9.500000 94.847 -107.3971
9.620000 94.925 -108.0539
9.750000 95.005 -108.7503
9.880000 95.078 -109.4282
10.000000 95.136 -110.0363
10.150000 95.200 -110.7738
10.300000 95.258 -111.4855
10.440000 95.306 -112.1216
10.600000 95.358 -112.8331
10.750000 95.412 -113.4928
10.900000 95.467 -114.1475
11.060000 95.528 -114.8712
11.200000 95.584 -115.5245
11.380000 95.653 -116.3871
11.500000 95.698 -116.9790
11.720000 95.774 -118.0835
11.800000 95.799 -118.4880
12.060000 95.874 -119.8086
12.200000 95.909 -120.5076
12.410000 95.955 -121.5337
12.500000 95.973 -121.9520
12.650000 95.997 -122.6250
12.800000 96.020 -123.2619
13.150000 96.070 -124.5891
13.200000 96.078 -124.7648
13.400000 96.114 -125.4278
13.600000 96.155 -126.0586
13.800000 96.205 -126.6648
14.000000 96.259 -127.2781
14.300000 96.347 -128.2265
14.500000 96.407 -128.8928
14.750000 96.479 -129.7581
15.000000 96.546 -130.6548
15.250000 96.608 -131.5656
15.500000 96.662 -132.4609
15.750000 96.708 -133.3223
16.000000 96.747 -134.1255
16.250000 96.783 -134.8667
16.500000 96.819 -135.5488
16.750000 96.859 -136.1788
17.000000 96.907 -136.7835
17.250000 96.961 -137.3825
17.500000 97.022 -138.0010
17.750000 97.083 -138.6653
18.000000 97.143 -139.3788
18.250000 97.196 -140.1447
18.500000 97.238 -140.9329
18.750000 97.270 -141.7143
19.000000 97.292 -142.4613
19.250000 97.307 -143.1396
19.500000 97.320 -143.7438
19.750000 97.334 -144.2716
20.000000 97.355 -144.7424
20.299999 97.392 -145.2770
20.600000 97.441 -145.8256
20.900000 97.496 -146.4303
21.200001 97.552 -147.1116
21.400000 97.585 -147.6011
21.799999 97.636 -148.6278
22.000000 97.655 -149.1433
22.400000 97.678 -150.1349
22.700001 97.687 -150.8242
23.000000 97.694 -151.4620
23.299999 97.701 -152.0581
23.600000 97.710 -152.6241
24.000000 97.726 -153.3500
24.299999 97.740 -153.8837
24.700001 97.760 -154.5880
25.000000 97.775 -155.1119
25.400000 97.795 -155.8018
25.799999 97.815 -156.4748
26.200001 97.834 -157.1250
26.500000 97.850 -157.5981
26.900000 97.873 -158.2167
27.200001 97.892 -158.6807
27.600000 97.919 -159.3126
28.000000 97.944 -159.9697
28.500000 97.970 -160.8194
29.000000 97.985 -161.6619
29.500000 97.990 -162.4537
30.000000 97.990 -163.1763
30.400000 97.989 -163.7147
30.700001 97.989 -164.1060
31.100000 97.991 -164.6256
31.500000 97.993 -165.1519
32.000000 97.994 -165.8205
32.500000 97.990 -166.4865
33.000000 97.980 -167.1272
33.500000 97.968 -167.7286
34.000000 97.959 -168.2979
34.500000 97.959 -168.8663
35.000000 97.962 -169.4674
35.500000 97.964 -170.1093
36.000000 97.958 -170.7551
36.500000 97.944 -171.3549
37.000000 97.930 -171.8969
37.500000 97.920 -172.4136
38.200001 97.908 -173.1477
38.700001 97.896 -173.6688
39.500000 97.872 -174.4404
40.000000 97.860 -174.8978
40.599998 97.846 -175.4585
41.200001 97.827 -176.0314
41.799999 97.802 -176.5814
42.500000 97.772 -177.1671
43.099998 97.751 -177.6341
43.700001 97.736 -178.0960
44.400002 97.725 -178.6628
45.000000 97.715 -179.1813
45.500000 97.704 -179.6230
46.200001 97.686 179.7544
46.799999 97.665 179.2141
47.500000 97.628 178.6217
48.200001 97.586 178.1540
48.700001 97.564 177.8832
49.400002 97.548 177.4778
50.000000 97.535 177.0500
50.799999 97.504 176.4433
51.500000 97.470 175.9580
52.200001 97.439 175.4987
53.000000 97.407 174.9737
53.799999 97.377 174.4510
54.500000 97.350 173.9849
55.200001 97.320 173.5201
56.000000 97.283 173.0347
57.000000 97.242 172.5029
58.000000 97.204 171.9984
59.000000 97.165 171.4799
60.000000 97.115 170.9581
60.799999 97.072 170.5803
61.500000 97.038 170.2751
62.200001 97.005 169.9628
63.000000 96.966 169.5901
64.000000 96.916 169.1294
65.000000 96.870 168.6863
66.000000 96.827 168.2572
67.000000 96.784 167.8443
68.000000 96.743 167.4769
69.000000 96.709 167.0875
70.000000 96.662 166.6263
71.000000 96.596 166.2401
72.000000 96.535 165.9489
73.000000 96.482 165.6535
74.000000 96.431 165.3357
75.000000 96.378 165.0072
76.199997 96.318 164.6232
77.500000 96.257 164.2061
78.800003 96.196 163.7942
80.000000 96.138 163.4477
81.199997 96.080 163.1321
82.500000 96.015 162.8011
83.800003 95.950 162.4823
85.000000 95.891 162.1959
86.199997 95.834 161.9161
87.500000 95.776 161.6178
88.500000 95.733 161.3872
90.000000 95.663 161.0606
91.199997 95.606 160.8351
92.500000 95.548 160.6103
93.800003 95.490 160.3792
95.000000 95.433 160.1697
96.199997 95.375 159.9742
97.500000 95.316 159.7867
98.800003 95.261 159.5838
100.000000 95.208 159.3900
101.500000 95.141 159.1553
103.000000 95.075 158.9453
104.400002 95.013 158.7700
106.000000 94.941 158.5805
107.500000 94.876 158.4260
109.000000 94.817 158.2632
110.599998 94.752 158.0764
112.000000 94.690 157.9471
113.800003 94.606 157.8245
115.000000 94.547 157.7487
117.199997 94.444 157.5555
118.000000 94.408 157.4652
120.599998 94.298 157.2105
122.000000 94.246 157.1274
124.099998 94.172 157.0418
125.000000 94.137 157.0141
126.500000 94.078 156.9766
128.000000 94.020 156.9277
131.500000 93.900 156.7722
132.000000 93.884 156.7533
134.000000 93.823 156.6960
136.000000 93.764 156.6793
138.000000 93.705 156.6811
140.000000 93.643 156.6584
143.000000 93.546 156.6486
145.000000 93.482 156.6584
147.500000 93.404 156.6787
150.000000 93.334 156.6868
152.500000 93.265 156.6742
155.000000 93.196 156.6454
157.500000 93.127 156.6344
160.000000 93.061 156.6723
162.500000 92.995 156.7429
165.000000 92.927 156.7878
167.500000 92.856 156.8020
170.000000 92.788 156.8480
172.500000 92.720 156.9129
175.000000 92.649 156.9858
177.500000 92.574 157.0849
180.000000 92.499 157.2198
182.500000 92.427 157.3619
185.000000 92.355 157.4703
187.500000 92.288 157.5568
190.000000 92.227 157.6663
192.500000 92.170 157.8107
195.000000 92.116 157.9613
197.500000 92.066 158.0988
200.000000 92.021 158.2336
203.000000 91.968 158.4128
206.000000 91.907 158.5847
209.000000 91.845 158.7313
212.000000 91.789 158.8903
214.000000 91.752 159.0127
218.000000 91.678 159.2415
220.000000 91.641 159.3476
224.000000 91.567 159.5790
227.000000 91.510 159.7554
230.000000 91.455 159.9166
233.000000 91.403 160.0894
236.000000 91.352 160.2782
240.000000 91.283 160.5271
243.000000 91.235 160.7160
247.000000 91.173 160.9754
250.000000 91.126 161.1731
254.000000 91.065 161.4519
258.000000 91.004 161.7394
262.000000 90.943 162.0101
265.000000 90.898 162.2045
269.000000 90.840 162.4736
272.000000 90.796 162.6926
276.000000 90.737 163.0019
280.000000 90.679 163.3063
285.000000 90.619 163.6759
290.000000 90.568 164.0399
295.000000 90.521 164.4042
300.000000 90.472 164.8002
304.000000 90.428 165.1195
307.000000 90.395 165.3424
311.000000 90.354 165.6395
315.000000 90.317 165.9468
320.000000 90.271 166.3194
325.000000 90.225 166.6772
330.000000 90.176 167.0574
335.000000 90.129 167.4409
340.000000 90.082 167.8303
345.000000 90.035 168.2444
350.000000 89.995 168.6411
355.000000 89.958 169.0007
360.000000 89.919 169.3835
365.000000 89.881 169.7988
370.000000 89.840 170.2141
375.000000 89.804 170.6038
382.000000 89.765 171.1040
387.000000 89.736 171.4876
395.000000 89.687 172.1248
400.000000 89.653 172.4781
406.000000 89.609 172.9487
412.000000 89.562 173.4694
418.000000 89.516 173.9482
425.000000 89.473 174.4919
431.000000 89.444 174.9460
437.000000 89.418 175.3812
444.000000 89.390 175.9005
450.000000 89.362 176.3677
455.000000 89.337 176.7539
462.000000 89.305 177.2828
468.000000 89.278 177.7435
475.000000 89.247 178.2758
482.000000 89.218 178.8049
487.000000 89.200 179.1889
494.000000 89.176 179.7202
500.000000 89.158 -179.8281
508.000000 89.135 -179.2240
515.000000 89.114 -178.6921
522.000000 89.095 -178.1542
530.000000 89.077 -177.5443
538.000000 89.060 -176.9491
545.000000 89.047 -176.4246
552.000000 89.036 -175.8905
560.000000 89.024 -175.2791
570.000000 89.009 -174.5315
580.000000 88.995 -173.7734
590.000000 88.982 -173.0102
600.000000 88.969 -172.2602
608.000000 88.958 -171.6580
615.000000 88.951 -171.1138
622.000000 88.945 -170.5577
630.000000 88.939 -169.9294
640.000000 88.930 -169.1655
650.000000 88.925 -168.3972
660.000000 88.922 -167.6135
670.000000 88.920 -166.8375
680.000000 88.920 -166.0646
690.000000 88.924 -165.2785
700.000000 88.928 -164.4860
710.000000 88.937 -163.6830
720.000000 88.949 -162.8733
730.000000 88.962 -162.0691
740.000000 88.979 -161.2548
750.000000 89.001 -160.4296
762.000000 89.028 -159.4324
775.000000 89.062 -158.3350
788.000000 89.101 -157.2412
800.000000 89.146 -156.2456
812.000000 89.199 -155.2427
825.000000 89.265 -154.1651
838.000000 89.340 -153.1214
850.000000 89.416 -152.1781
862.000000 89.500 -151.2700
875.000000 89.599 -150.3516
885.000000 89.677 -149.6909
900.000000 89.800 -148.7739
912.000000 89.905 -148.0948
925.000000 90.018 -147.4310
938.000000 90.129 -146.8328
950.000000 90.230 -146.3274
962.000000 90.332 -145.8618
975.000000 90.441 -145.3839
988.000000 90.551 -144.9242
1000.000000 90.648 -144.5535
1015.000000 90.760 -144.2167
1030.000000 90.865 -143.9676
1044.000000 90.950 -143.7979
1060.000000 91.022 -143.6129
1075.000000 91.071 -143.3149
1090.000000 91.129 -142.9070
1106.000000 91.209 -142.4672
1120.000000 91.282 -142.0766
1138.000000 91.379 -141.5094
1150.000000 91.452 -141.1084
1172.000000 91.600 -140.4341
1180.000000 91.655 -140.2174
1206.000000 91.830 -139.6236
1220.000000 91.925 -139.3646
1241.000000 92.066 -139.0073
1250.000000 92.126 -138.8569
1265.000000 92.224 -138.6169
1280.000000 92.319 -138.3835
1315.000000 92.531 -137.8680
1320.000000 92.560 -137.7991
1340.000000 92.668 -137.5241
1360.000000 92.755 -137.2422
1380.000000 92.839 -136.9675
1400.000000 92.933 -136.7028
1430.000000 93.079 -136.3007
1450.000000 93.177 -136.0356
1475.000000 93.299 -135.6969
1500.000000 93.419 -135.3581
1525.000000 93.537 -135.0258
1550.000000 93.650 -134.6991
1575.000000 93.761 -134.3822
1600.000000 93.871 -134.0838
1625.000000 93.979 -133.8048
1650.000000 94.087 -133.5230
1675.000000 94.199 -133.2501
1700.000000 94.309 -132.9964
1725.000000 94.416 -132.7532
1750.000000 94.524 -132.5321
1775.000000 94.632 -132.3261
1800.000000 94.738 -132.1297
1825.000000 94.842 -131.9575
1850.000000 94.944 -131.8057
1875.000000 95.045 -131.6651
1900.000000 95.144 -131.5401
1925.000000 95.242 -131.4293
1950.000000 95.339 -131.3318
1975.000000 95.439 -131.2401
2000.000000 95.536 -131.1637
2030.000000 95.640 -131.1024
2060.000000 95.742 -131.0400
2090.000000 95.844 -130.9697
2120.000000 95.942 -130.8985
2140.000000 96.006 -130.8457
2180.000000 96.129 -130.6967
2200.000000 96.190 -130.5902
2240.000000 96.318 -130.2888
2270.000000 96.433 -130.0170
2300.000000 96.570 -129.7813
2330.000000 96.726 -129.6692
2360.000000 96.891 -129.7489
2400.000000 97.099 -130.1429
2430.000000 97.234 -130.5816
2470.000000 97.381 -131.2545
2500.000000 97.473 -131.7651
2540.000000 97.575 -132.4223
2580.000000 97.661 -133.0389
2620.000000 97.734 -133.6233
2650.000000 97.782 -134.0455
2690.000000 97.840 -134.5767
2720.000000 97.880 -134.9542
2760.000000 97.926 -135.4376
2800.000000 97.963 -135.9022
2850.000000 97.999 -136.4626
2900.000000 98.031 -137.0030
2950.000000 98.055 -137.5211
3000.000000 98.072 -138.0093
3040.000000 98.079 -138.3999
3070.000000 98.079 -138.6795
3110.000000 98.076 -139.0175
3150.000000 98.071 -139.3197
3200.000000 98.062 -139.6604
3250.000000 98.049 -139.9691
3300.000000 98.034 -140.2371
3350.000000 98.018 -140.4604
3400.000000 98.003 -140.6396
3450.000000 97.991 -140.7796
3500.000000 97.982 -140.8975
3550.000000 97.979 -141.0149
3600.000000 97.978 -141.1384
3650.000000 97.977 -141.2701
3700.000000 97.972 -141.4102
3750.000000 97.962 -141.5349
3820.000000 97.937 -141.6339
3870.000000 97.915 -141.6309
3950.000000 97.889 -141.5296
4000.000000 97.885 -141.4680
4060.000000 97.894 -141.4513
4120.000000 97.909 -141.5205
4180.000000 97.925 -141.6874
4250.000000 97.934 -141.9957
4310.000000 97.927 -142.3521
4370.000000 97.900 -142.7725
4440.000000 97.847 -143.3045
4500.000000 97.783 -143.7668
4550.000000 97.719 -144.1530
4620.000000 97.614 -144.6999
4680.000000 97.508 -145.1791
4750.000000 97.366 -145.7215
4820.000000 97.206 -146.2175
4870.000000 97.079 -146.5270
4940.000000 96.886 -146.8918
5000.000000 96.708 -147.1332
5080.000000 96.456 -147.3265
5150.000000 96.222 -147.3777
5220.000000 95.980 -147.3101
5300.000000 95.696 -147.0808
5380.000000 95.408 -146.6844
5450.000000 95.158 -146.1948
5520.000000 94.911 -145.5758
5600.000000 94.636 -144.7141
5700.000000 94.303 -143.4095
5800.000000 93.984 -141.8804
5900.000000 93.684 -140.1541
6000.000000 93.411 -138.2610
6080.000000 93.217 -136.6376
6150.000000 93.070 -135.1397
6220.000000 92.943 -133.5834
6300.000000 92.820 -131.7503
6400.000000 92.696 -129.3794
6500.000000 92.607 -126.9385
6600.000000 92.557 -124.4604
6700.000000 92.548 -121.9873
6800.000000 92.589 -119.5524
6900.000000 92.699 -117.1930
7000.000000 92.881 -114.9601
7100.000000 93.124 -112.9283
7200.000000 93.428 -111.1826
7300.000000 93.789 -109.8347
7400.000000 94.197 -108.9917
7500.000000 94.641 -108.7677
7620.000000 95.210 -109.5075
7750.000000 95.807 -111.7667
7880.000000 96.211 -115.6381
8000.000000 96.347 -120.4313
8120.000000 96.213 -125.8513
8250.000000 95.744 -131.5838
8380.000000 94.980 -136.3184
8500.000000 94.087 -139.3172
8620.000000 93.092 -140.8899
8750.000000 91.969 -141.1368
8850.000000 91.107 -140.4556
9000.000000 89.861 -138.2720
9120.000000 88.926 -135.7129
9250.000000 87.981 -132.3027
9380.000000 87.105 -128.3615
9500.000000 86.356 -124.3375
9620.000000 85.665 -120.0179
9750.000000 84.979 -115.0565
9880.000000 84.354 -109.8283
10000.000000 83.825 -104.7941
10150.000000 83.216 -98.2352
10300.000000 82.657 -91.3252
10440.000000 82.179 -84.4852
10600.000000 81.696 -76.1015
10750.000000 81.322 -67.5817
10900.000000 81.058 -58.3289
11060.000000 80.956 -47.5987
11200.000000 81.086 -37.5426
11380.000000 81.686 -24.1745
11500.000000 82.406 -15.5917
11720.000000 84.265 -2.6529
11800.000000 85.021 0.7324
12060.000000 87.340 7.1357
12200.000000 88.427 8.8207
12410.000000 89.984 10.7904
12500.000000 90.700 11.5730
12650.000000 92.055 12.5619
12800.000000 93.682 12.4119
13150.000000 97.854 -1.9454
13200.000000 98.287 -6.6124
13400.000000 98.949 -30.3375
13600.000000 97.732 -52.2705
13800.000000 95.292 -63.4317
14000.000000 92.679 -65.4564
14300.000000 89.629 -60.3111
14500.000000 88.231 -54.6607
14750.000000 87.029 -46.7111
15000.000000 86.300 -38.5224
15250.000000 85.978 -30.6199
15500.000000 86.074 -23.5550
15750.000000 86.543 -18.0694
16000.000000 87.255 -14.9364
16250.000000 88.047 -15.0183
16500.000000 88.668 -18.9938
16750.000000 88.837 -26.6522
17000.000000 88.298 -36.8274
17250.000000 86.613 -42.9739
17500.000000 84.239 -35.2198
17750.000000 83.195 -27.1431
18000.000000 82.645 -23.8070
18250.000000 81.994 -20.7349
18500.000000 81.363 -17.4141
18750.000000 80.766 -14.3673
19000.000000 80.135 -11.8731
19250.000000 79.362 -9.7472
19500.000000 78.363 -7.3853
19750.000000 77.137 -4.0115
20000.000000 75.697 1.1208
20300.000000 73.824 10.1206
20600.000000 72.112 22.1193
20900.000000 70.792 36.5430
21200.000000 70.010 52.3419
21400.000000 69.836 62.9260
21800.000000 70.305 81.1365
22000.000000 70.792 83.5815
22400.000000 71.057 -68.3317
22700.000000 68.947 -120.6434
23000.000000 63.792 164.7612
23300.000000 56.129 -104.2461
23600.000000 47.655 -124.5566
24000.000000 42.035 56.0586
