* Measurement data measured by REW V5.20.13
* Source: Microphone (Realtek(R) Audio), MICROPHONE (Master Volume), L, volume: 0.710. Timing signal peak level -38.1 dBFS, measurement signal peak level -37.5 dBFS
* Format: 2M Log Swept Sine, 1 sweep at -12.0 dBFS using an acoustic timing reference
* Dated: Sep 21, 2023 7:07:24 AM
* REW Settings:
*  C-weighting compensation: Off
*  Target level: 75.0 dB
* Note: ; Delay -0.0559 ms (-19 mm, -0.75 in) using estimated IR delay relative to Acoustic reference played from HEADPHONE L with no timing offset Clock adjustment: 120.5 ppm
* Measurement: Moondrop Chu CP145 L
* Smoothing: 1/24 octave
* Frequency Step: 1/48 octave
* Start Frequency: 1.000 Hz
*
* Freq(Hz) SPL(dB) Phase(degrees)
1.000000 60.792 165.8161
1.015000 60.764 167.0477
1.030000 60.766 168.1522
1.044000 60.799 169.0606
1.060000 60.878 169.9451
1.075000 60.996 170.6162
1.090000 61.160 171.1256
1.106000 61.392 171.4735
1.120000 61.638 171.5702
1.138000 62.011 171.4184
1.150000 62.290 171.1578
1.172000 62.862 170.3807
1.180000 63.087 170.0105
1.206000 63.872 168.5250
1.220000 64.325 167.5686
1.241000 65.035 165.9656
1.250000 65.349 165.2266
1.265000 65.881 163.9387
1.280000 66.423 162.5953
1.315000 67.700 159.3385
1.320000 67.883 158.8683
1.340000 68.606 157.0003
1.360000 69.313 155.1820
1.380000 69.997 153.4532
1.400000 70.647 151.8533
1.430000 71.544 149.7822
1.450000 72.076 148.6783
1.475000 72.658 147.6570
1.500000 73.190 146.8721
1.525000 73.686 146.2572
1.550000 74.148 145.7883
1.575000 74.579 145.4414
1.600000 74.983 145.1923
1.625000 75.361 145.0170
1.650000 75.717 144.8913
1.675000 76.055 144.7914
1.700000 76.376 144.6930
1.725000 76.683 144.5721
1.750000 76.981 144.4047
1.775000 77.271 144.1666
1.800000 77.556 143.8339
1.825000 77.839 143.3824
1.850000 78.117 142.8096
1.875000 78.375 142.1605
1.900000 78.615 141.4474
1.925000 78.839 140.6809
1.950000 79.048 139.8714
1.975000 79.245 139.0294
2.000000 79.431 138.1656
2.030000 79.643 137.1147
2.060000 79.845 136.0656
2.090000 80.043 135.0362
2.120000 80.237 134.0448
2.140000 80.367 133.4140
2.180000 80.632 132.2486
2.200000 80.769 131.7247
2.240000 81.040 130.7602
2.270000 81.237 130.0899
2.300000 81.428 129.4584
2.330000 81.615 128.8597
2.360000 81.799 128.2879
2.400000 82.038 127.5571
2.430000 82.214 127.0250
2.470000 82.445 126.3254
2.500000 82.618 125.8004
2.540000 82.846 125.0886
2.580000 83.073 124.3561
2.620000 83.299 123.6383
2.650000 83.466 123.1128
2.690000 83.686 122.4241
2.720000 83.849 121.9130
2.760000 84.063 121.2337
2.800000 84.273 120.5509
2.850000 84.530 119.6829
2.900000 84.780 118.7869
2.950000 85.021 117.8490
3.000000 85.255 116.8531
3.040000 85.437 116.0260
3.070000 85.571 115.3955
3.110000 85.745 114.5507
3.150000 85.916 113.7117
3.200000 86.124 112.6889
3.250000 86.327 111.7160
3.300000 86.526 110.8158
3.350000 86.719 110.0025
3.400000 86.907 109.2596
3.450000 87.090 108.5632
3.500000 87.267 107.8897
3.550000 87.440 107.2155
3.600000 87.608 106.5168
3.650000 87.772 105.7700
3.700000 87.932 104.9574
3.750000 88.087 104.0920
3.820000 88.296 102.8294
3.870000 88.441 101.9174
3.950000 88.664 100.4948
4.000000 88.798 99.6589
4.060000 88.956 98.7378
4.120000 89.107 97.8929
4.180000 89.253 97.0995
4.250000 89.417 96.2085
4.310000 89.553 95.4482
4.370000 89.686 94.6667
4.440000 89.836 93.7059
4.500000 89.959 92.8547
4.550000 90.059 92.1368
4.620000 90.194 91.1343
4.680000 90.307 90.2918
4.750000 90.435 89.3475
4.820000 90.559 88.4554
4.870000 90.644 87.8426
4.940000 90.761 87.0094
5.000000 90.857 86.3102
5.080000 90.982 85.3860
5.150000 91.089 84.5733
5.220000 91.191 83.7606
5.300000 91.304 82.8393
5.380000 91.413 81.9310
5.450000 91.505 81.1507
5.520000 91.595 80.3872
5.600000 91.694 79.5334
5.700000 91.813 78.4910
5.800000 91.928 77.4728
5.900000 92.039 76.4768
6.000000 92.145 75.5077
6.080000 92.227 74.7483
6.150000 92.297 74.0922
6.220000 92.365 73.4411
6.300000 92.442 72.7015
6.400000 92.534 71.7879
6.500000 92.623 70.8902
6.600000 92.709 70.0127
6.700000 92.792 69.1598
6.800000 92.873 68.3268
6.900000 92.952 67.5061
7.000000 93.028 66.6905
7.100000 93.103 65.8813
7.200000 93.175 65.0822
7.300000 93.245 64.2956
7.400000 93.314 63.5242
7.500000 93.380 62.7671
7.620000 93.457 61.8725
7.750000 93.538 60.9148
7.880000 93.615 59.9698
8.000000 93.683 59.1113
8.120000 93.750 58.2676
8.250000 93.819 57.3699
8.380000 93.885 56.4883
8.500000 93.944 55.6881
8.620000 94.000 54.9011
8.750000 94.059 54.0644
8.850000 94.102 53.4324
9.000000 94.164 52.5024
9.120000 94.212 51.7763
9.250000 94.263 51.0104
9.380000 94.314 50.2652
9.500000 94.358 49.5905
9.620000 94.400 48.9266
9.750000 94.443 48.2213
9.880000 94.480 47.5259
10.000000 94.507 46.8904
10.150000 94.533 46.1072
10.300000 94.553 45.3396
10.440000 94.563 44.6393
10.600000 94.572 43.8508
10.750000 94.580 43.1198
10.900000 94.587 42.3962
11.060000 94.594 41.6194
11.200000 94.599 40.9338
11.380000 94.602 40.0666
11.500000 94.602 39.4990
11.720000 94.597 38.4911
11.800000 94.594 38.1401
12.060000 94.584 37.0509
12.200000 94.579 36.4992
12.410000 94.574 35.7171
12.500000 94.572 35.3991
12.650000 94.571 34.8949
12.800000 94.571 34.4109
13.150000 94.584 33.3381
13.200000 94.587 33.1850
13.400000 94.604 32.5735
13.600000 94.625 31.9452
13.800000 94.648 31.2924
14.000000 94.670 30.6137
14.300000 94.694 29.5539
14.500000 94.703 28.8395
14.750000 94.705 27.9692
15.000000 94.700 27.1394
15.250000 94.692 26.3682
15.500000 94.685 25.6563
15.750000 94.680 24.9990
16.000000 94.679 24.3779
16.250000 94.680 23.7654
16.500000 94.683 23.1514
16.750000 94.686 22.5271
17.000000 94.688 21.9041
17.250000 94.687 21.2933
17.500000 94.683 20.7104
17.750000 94.678 20.1680
18.000000 94.675 19.6615
18.250000 94.675 19.1852
18.500000 94.681 18.7152
18.750000 94.692 18.2344
19.000000 94.707 17.7269
19.250000 94.723 17.1790
19.500000 94.735 16.5997
19.750000 94.742 15.9974
20.000000 94.741 15.3976
20.299999 94.731 14.7087
20.600000 94.714 14.0764
20.900000 94.694 13.5126
21.200001 94.676 13.0097
21.400000 94.668 12.6937
21.799999 94.657 12.0753
22.000000 94.654 11.7577
22.400000 94.649 11.0877
22.700001 94.641 10.5651
23.000000 94.627 10.0496
23.299999 94.608 9.5664
23.600000 94.588 9.1293
24.000000 94.565 8.6164
24.299999 94.556 8.2579
24.700001 94.553 7.7633
25.000000 94.553 7.3508
25.400000 94.551 6.7398
25.799999 94.537 6.1017
26.200001 94.512 5.5008
26.500000 94.491 5.0991
26.900000 94.464 4.6254
27.200001 94.449 4.2936
27.600000 94.433 3.8463
28.000000 94.420 3.3728
28.500000 94.398 2.7629
29.000000 94.372 2.1788
29.500000 94.345 1.6320
30.000000 94.319 1.0981
30.400000 94.295 0.6737
30.700001 94.275 0.3642
31.100000 94.248 -0.0256
31.500000 94.222 -0.3918
32.000000 94.196 -0.8456
32.500000 94.171 -1.3274
33.000000 94.141 -1.8255
33.500000 94.104 -2.2942
34.000000 94.068 -2.7131
34.500000 94.038 -3.1118
35.000000 94.011 -3.5219
35.500000 93.984 -3.9401
36.000000 93.955 -4.3552
36.500000 93.926 -4.7867
37.000000 93.890 -5.2523
37.500000 93.839 -5.7001
38.200001 93.752 -6.1009
38.700001 93.708 -6.2086
39.500000 93.696 -6.4767
40.000000 93.696 -6.8686
40.599998 93.669 -7.4495
41.200001 93.620 -7.9325
41.799999 93.575 -8.2901
42.500000 93.539 -8.6864
43.099998 93.511 -9.0528
43.700001 93.485 -9.4234
44.400002 93.452 -9.8762
45.000000 93.415 -10.2728
45.500000 93.376 -10.5598
46.200001 93.322 -10.8611
46.799999 93.284 -11.0809
47.500000 93.245 -11.3790
48.200001 93.201 -11.7143
48.700001 93.164 -11.9436
49.400002 93.111 -12.2244
50.000000 93.071 -12.4428
50.799999 93.025 -12.7585
51.500000 92.985 -13.0655
52.200001 92.945 -13.3553
53.000000 92.905 -13.6686
53.799999 92.865 -14.0144
54.500000 92.819 -14.2944
55.200001 92.768 -14.4927
56.000000 92.713 -14.6479
57.000000 92.645 -14.8361
58.000000 92.559 -15.0546
59.000000 92.457 -15.0466
60.000000 92.418 -14.9315
60.799999 92.415 -15.2338
61.500000 92.383 -15.6927
62.200001 92.329 -16.0711
63.000000 92.274 -16.3902
64.000000 92.212 -16.7543
65.000000 92.154 -16.9970
66.000000 92.107 -17.1656
67.000000 92.056 -17.3005
68.000000 92.002 -17.3431
69.000000 91.957 -17.3623
70.000000 91.914 -17.4731
71.000000 91.861 -17.6536
72.000000 91.800 -17.8173
73.000000 91.743 -17.9606
74.000000 91.690 -18.1166
75.000000 91.635 -18.2836
76.199997 91.568 -18.4470
77.500000 91.501 -18.6288
78.800003 91.428 -18.8616
80.000000 91.357 -19.0354
81.199997 91.293 -19.1672
82.500000 91.232 -19.2758
83.800003 91.177 -19.3721
85.000000 91.121 -19.4515
86.199997 91.067 -19.4778
87.500000 91.010 -19.6009
88.500000 90.954 -19.7236
90.000000 90.877 -19.8115
91.199997 90.831 -19.9108
92.500000 90.781 -20.0249
93.800003 90.728 -20.0355
95.000000 90.682 -19.9572
96.199997 90.639 -19.8390
97.500000 90.594 -19.7737
98.800003 90.538 -19.8020
100.000000 90.478 -19.8647
101.500000 90.404 -19.9503
103.000000 90.338 -20.0445
104.400002 90.284 -20.0852
106.000000 90.229 -20.0603
107.500000 90.179 -19.9783
109.000000 90.118 -19.9363
110.599998 90.034 -19.8493
112.000000 89.970 -19.7894
113.800003 89.893 -19.8386
115.000000 89.837 -19.7804
117.199997 89.783 -19.2557
118.000000 89.784 -19.0366
120.599998 89.789 -18.9461
122.000000 89.715 -19.1384
124.099998 89.583 -19.1895
125.000000 89.540 -19.1996
126.500000 89.485 -19.2003
128.000000 89.449 -19.1642
131.500000 89.366 -18.9409
132.000000 89.351 -18.9095
134.000000 89.285 -18.8228
136.000000 89.221 -18.7057
138.000000 89.181 -18.5644
140.000000 89.143 -18.4166
143.000000 89.077 -18.1192
145.000000 89.025 -17.9723
147.500000 88.955 -17.8265
150.000000 88.889 -17.6872
152.500000 88.830 -17.4917
155.000000 88.777 -17.2942
157.500000 88.718 -17.1279
160.000000 88.656 -16.9151
162.500000 88.612 -16.7050
165.000000 88.572 -16.5226
167.500000 88.528 -16.2665
170.000000 88.474 -16.0212
172.500000 88.409 -15.8046
175.000000 88.352 -15.5842
177.500000 88.313 -15.3318
180.000000 88.286 -15.0635
182.500000 88.254 -14.8173
185.000000 88.209 -14.5721
187.500000 88.157 -14.3392
190.000000 88.103 -14.0945
192.500000 88.060 -13.8646
195.000000 88.019 -13.6489
197.500000 87.977 -13.4162
200.000000 87.931 -13.1649
203.000000 87.884 -12.8506
206.000000 87.849 -12.5409
209.000000 87.816 -12.2930
212.000000 87.780 -12.0546
214.000000 87.759 -11.8560
218.000000 87.706 -11.4676
220.000000 87.672 -11.3080
224.000000 87.617 -10.9826
227.000000 87.587 -10.6901
230.000000 87.555 -10.4240
233.000000 87.527 -10.0887
236.000000 87.492 -9.6880
240.000000 87.425 -9.2138
243.000000 87.392 -8.9858
247.000000 87.362 -8.7632
250.000000 87.338 -8.5946
254.000000 87.304 -8.2976
258.000000 87.273 -7.8695
262.000000 87.249 -7.4644
265.000000 87.230 -7.1745
269.000000 87.199 -6.7950
272.000000 87.175 -6.5046
276.000000 87.150 -6.0915
280.000000 87.122 -5.6939
285.000000 87.080 -5.2857
290.000000 87.040 -4.8851
295.000000 87.031 -4.4618
300.000000 87.025 -4.0186
304.000000 87.001 -3.6480
307.000000 86.977 -3.3841
311.000000 86.947 -3.0491
315.000000 86.927 -2.6908
320.000000 86.917 -2.2041
325.000000 86.898 -1.7080
330.000000 86.874 -1.2847
335.000000 86.857 -0.8390
340.000000 86.836 -0.3605
345.000000 86.818 0.0691
350.000000 86.802 0.4233
355.000000 86.779 0.8848
360.000000 86.754 1.3789
365.000000 86.744 1.7256
370.000000 86.736 2.0534
375.000000 86.720 2.4630
382.000000 86.693 3.1065
387.000000 86.672 3.4755
395.000000 86.654 4.0849
400.000000 86.639 4.5331
406.000000 86.616 4.9982
412.000000 86.606 5.5320
418.000000 86.604 6.1703
425.000000 86.581 6.6802
431.000000 86.558 6.9846
437.000000 86.554 7.3417
444.000000 86.544 7.8535
450.000000 86.523 8.3336
455.000000 86.511 8.7870
462.000000 86.492 9.3568
468.000000 86.474 9.7321
475.000000 86.463 10.2969
482.000000 86.455 10.9356
487.000000 86.452 11.3368
494.000000 86.447 11.8304
500.000000 86.444 12.2304
508.000000 86.446 12.8011
515.000000 86.445 13.3284
522.000000 86.438 13.8881
530.000000 86.433 14.5123
538.000000 86.435 15.1216
545.000000 86.444 15.6563
552.000000 86.456 16.1379
560.000000 86.455 16.6790
570.000000 86.460 17.4349
580.000000 86.471 18.2066
590.000000 86.465 18.9929
600.000000 86.447 19.8091
608.000000 86.459 20.3973
615.000000 86.478 20.9314
622.000000 86.489 21.4375
630.000000 86.495 21.9915
640.000000 86.495 22.7431
650.000000 86.513 23.5384
660.000000 86.532 24.2867
670.000000 86.544 24.9404
680.000000 86.551 25.6591
690.000000 86.566 26.4445
700.000000 86.580 27.2026
710.000000 86.596 27.9853
720.000000 86.620 28.7813
730.000000 86.646 29.4393
740.000000 86.671 30.0646
750.000000 86.699 30.7941
762.000000 86.735 31.7507
775.000000 86.758 32.7151
788.000000 86.790 33.6594
800.000000 86.834 34.5467
812.000000 86.884 35.4754
825.000000 86.939 36.4843
838.000000 86.998 37.4184
850.000000 87.044 38.2239
862.000000 87.091 39.0733
875.000000 87.153 40.0981
885.000000 87.199 40.8910
900.000000 87.273 42.1201
912.000000 87.362 43.2293
925.000000 87.520 44.2776
938.000000 87.685 44.7069
950.000000 87.762 44.8510
962.000000 87.799 45.2595
975.000000 87.851 45.9894
988.000000 87.927 46.8059
1000.000000 88.018 47.4959
1015.000000 88.134 48.2132
1030.000000 88.240 48.8032
1044.000000 88.335 49.2906
1060.000000 88.437 49.8363
1075.000000 88.529 50.3801
1090.000000 88.636 50.9331
1106.000000 88.760 51.4874
1120.000000 88.866 51.9494
1138.000000 89.001 52.4956
1150.000000 89.089 52.8165
1172.000000 89.244 53.4354
1180.000000 89.298 53.6589
1206.000000 89.476 54.3125
1220.000000 89.571 54.6305
1241.000000 89.715 55.0728
1250.000000 89.777 55.2432
1265.000000 89.878 55.5464
1280.000000 89.975 55.8704
1315.000000 90.197 56.6188
1320.000000 90.226 56.7230
1340.000000 90.336 57.1069
1360.000000 90.433 57.4863
1380.000000 90.521 57.8837
1400.000000 90.611 58.2568
1430.000000 90.761 58.8370
1450.000000 90.864 59.1969
1475.000000 90.995 59.6674
1500.000000 91.122 60.1422
1525.000000 91.248 60.6030
1550.000000 91.370 61.0731
1575.000000 91.482 61.5268
1600.000000 91.592 61.9446
1625.000000 91.708 62.3591
1650.000000 91.829 62.7655
1675.000000 91.943 63.1773
1700.000000 92.049 63.5848
1725.000000 92.160 63.9564
1750.000000 92.271 64.3284
1775.000000 92.378 64.7089
1800.000000 92.484 65.0544
1825.000000 92.590 65.3815
1850.000000 92.693 65.7085
1875.000000 92.800 66.0247
1900.000000 92.903 66.3298
1925.000000 93.001 66.6173
1950.000000 93.097 66.9009
1975.000000 93.193 67.2101
2000.000000 93.293 67.5344
2030.000000 93.416 67.9227
2060.000000 93.546 68.3100
2090.000000 93.689 68.6589
2120.000000 93.839 68.9040
2140.000000 93.939 69.0058
2180.000000 94.127 69.0762
2200.000000 94.211 69.0580
2240.000000 94.363 68.9620
2270.000000 94.466 68.8580
2300.000000 94.558 68.7522
2330.000000 94.642 68.6636
2360.000000 94.719 68.5870
2400.000000 94.813 68.4777
2430.000000 94.877 68.4234
2470.000000 94.953 68.3962
2500.000000 95.005 68.4090
2540.000000 95.078 68.4599
2580.000000 95.155 68.5290
2620.000000 95.235 68.5737
2650.000000 95.297 68.5675
2690.000000 95.377 68.4968
2720.000000 95.429 68.3988
2760.000000 95.483 68.2397
2800.000000 95.521 68.0918
2850.000000 95.550 67.9602
2900.000000 95.565 67.9094
2950.000000 95.573 67.9389
3000.000000 95.577 68.0775
3040.000000 95.580 68.2480
3070.000000 95.586 68.4020
3110.000000 95.595 68.6392
3150.000000 95.607 68.9000
3200.000000 95.626 69.2501
3250.000000 95.651 69.6143
3300.000000 95.686 69.9488
3350.000000 95.727 70.2506
3400.000000 95.769 70.5166
3450.000000 95.810 70.7394
3500.000000 95.853 70.9355
3550.000000 95.896 71.1367
3600.000000 95.934 71.3365
3650.000000 95.970 71.5427
3700.000000 96.005 71.7365
3750.000000 96.039 71.9012
3820.000000 96.081 72.0794
3870.000000 96.101 72.1831
3950.000000 96.110 72.3529
4000.000000 96.107 72.4962
4060.000000 96.099 72.7065
4120.000000 96.089 72.9705
4180.000000 96.078 73.2939
4250.000000 96.067 73.7231
4310.000000 96.060 74.1430
4370.000000 96.060 74.6044
4440.000000 96.077 75.1164
4500.000000 96.107 75.4608
4550.000000 96.137 75.6393
4620.000000 96.177 75.6999
4680.000000 96.202 75.6042
4750.000000 96.211 75.3813
4820.000000 96.192 75.0975
4870.000000 96.164 74.8931
4940.000000 96.112 74.6392
5000.000000 96.058 74.4458
5080.000000 95.976 74.1882
5150.000000 95.892 73.9662
5220.000000 95.792 73.7437
5300.000000 95.658 73.5188
5380.000000 95.506 73.3756
5450.000000 95.361 73.3263
5520.000000 95.207 73.3485
5600.000000 95.020 73.4662
5700.000000 94.768 73.7813
5800.000000 94.498 74.3594
5900.000000 94.234 75.2852
6000.000000 94.007 76.4225
6080.000000 93.842 77.3385
6150.000000 93.697 78.1647
6220.000000 93.550 79.0760
6300.000000 93.390 80.2376
6400.000000 93.213 81.8322
6500.000000 93.068 83.5709
6600.000000 92.955 85.4353
6700.000000 92.878 87.3658
6800.000000 92.847 89.2915
6900.000000 92.880 91.1901
7000.000000 92.976 93.0283
7100.000000 93.121 94.7611
7200.000000 93.315 96.3404
7300.000000 93.563 97.6709
7400.000000 93.859 98.6446
7500.000000 94.200 99.1380
7620.000000 94.675 98.8984
7750.000000 95.222 97.2501
7880.000000 95.633 93.8033
8000.000000 95.786 89.0108
8120.000000 95.628 83.2156
8250.000000 95.053 77.0612
8380.000000 94.108 72.3749
8500.000000 93.025 69.9699
8620.000000 91.857 69.4404
8750.000000 90.583 70.6360
8850.000000 89.642 72.5482
9000.000000 88.325 76.6572
9120.000000 87.356 80.8108
9250.000000 86.393 86.0323
9380.000000 85.523 91.8844
9500.000000 84.801 97.8044
9620.000000 84.163 104.2328
9750.000000 83.587 111.7785
9880.000000 83.152 119.9173
10000.000000 82.908 127.8323
10150.000000 82.864 138.0037
10300.000000 83.160 147.8849
10440.000000 83.722 156.1417
10600.000000 84.585 163.6510
10750.000000 85.456 168.4888
10900.000000 86.256 171.5143
11060.000000 86.978 173.5187
11200.000000 87.516 174.8579
11380.000000 88.164 176.5197
11500.000000 88.625 177.5972
11720.000000 89.646 178.9498
11800.000000 90.087 179.0132
12060.000000 91.706 175.8749
12200.000000 92.536 170.9725
12410.000000 93.267 158.7386
12500.000000 93.274 152.3005
12650.000000 92.806 141.7234
12800.000000 91.804 133.2243
13150.000000 88.488 125.5955
13200.000000 88.006 125.6853
13400.000000 86.221 127.9388
13600.000000 84.717 132.3024
13800.000000 83.504 137.9751
14000.000000 82.557 144.4055
14300.000000 81.549 154.8721
14500.000000 81.124 162.1631
14750.000000 80.865 171.2547
15000.000000 80.914 -179.9284
15250.000000 81.296 -171.8841
15500.000000 82.104 -165.5634
15750.000000 83.320 -162.2419
16000.000000 84.724 -164.0583
16250.000000 85.761 -173.4560
16500.000000 85.728 170.7581
16750.000000 84.338 155.3125
17000.000000 81.937 145.3219
17250.000000 79.182 135.3706
17500.000000 76.826 79.0802
17750.000000 76.136 170.9663
18000.000000 76.593 -158.6300
18250.000000 75.632 107.4641
18500.000000 73.543 -71.9709
18750.000000 71.103 66.0200
19000.000000 68.254 81.7930
19250.000000 66.124 -63.0967
19500.000000 65.949 158.8740
19750.000000 67.602 -6.8730
20000.000000 68.913 78.9941
20300.000000 67.723 118.6055
20600.000000 64.436 120.5781
20900.000000 62.489 -147.3301
21200.000000 62.019 33.0273
21400.000000 61.957 -129.2422
21800.000000 62.372 102.4414
22000.000000 63.062 -109.3730
22400.000000 66.017 -141.8945
22700.000000 67.895 -23.5273
23000.000000 68.554 16.4297
23300.000000 68.743 -106.4609
23600.000000 68.892 26.4688
24000.000000 68.906 -137.1562
