* Measurement data measured by REW V5.20.13
* Source: Headset (DS by VECLAN.COM), MICROPHONE (Master Volume), L, volume: 0.880. Timing signal peak level -15.7 dBFS, measurement signal peak level -14.4 dBFS
* Format: 2M Log Swept Sine, 1 sweep at -12.0 dBFS using an acoustic timing reference
* Dated: Nov 11, 2023 6:16:34 PM
* REW Settings:
*  C-weighting compensation: Off
*  Target level: 75.0 dB
* Note: ; Delay -0.0620 ms (-21 mm, -0.84 in) using estimated IR delay relative to Acoustic reference played from HEADPHONE R with no timing offset
* Measurement: Moondrop KATO S4 R
* Smoothing: 1/24 octave
* Frequency Step: 1/48 octave
* Start Frequency: 1.000 Hz
*
* Freq(Hz) SPL(dB) Phase(degrees)
1.000000 76.075 -104.8031
1.015000 76.162 -103.6185
1.030000 76.250 -102.4386
1.044000 76.332 -101.3434
1.060000 76.426 -100.1009
1.075000 76.515 -98.9469
1.090000 76.605 -97.8055
1.106000 76.702 -96.6008
1.120000 76.785 -95.5405
1.138000 76.892 -94.1653
1.150000 76.962 -93.2420
1.172000 77.090 -91.5387
1.180000 77.136 -90.9166
1.206000 77.286 -88.8878
1.220000 77.366 -87.7929
1.241000 77.488 -86.1503
1.250000 77.540 -85.4471
1.265000 77.628 -84.2771
1.280000 77.716 -83.1108
1.315000 77.926 -80.4118
1.320000 77.957 -80.0295
1.340000 78.080 -78.5107
1.360000 78.207 -77.0106
1.380000 78.337 -75.5327
1.400000 78.470 -74.0801
1.430000 78.678 -71.9558
1.450000 78.822 -70.5808
1.475000 79.010 -68.9054
1.500000 79.208 -67.2111
1.525000 79.413 -65.4944
1.550000 79.627 -63.7702
1.575000 79.846 -62.0539
1.600000 80.071 -60.3604
1.625000 80.299 -58.7051
1.650000 80.531 -57.1030
1.675000 80.763 -55.5692
1.700000 80.997 -54.1190
1.725000 81.229 -52.7674
1.750000 81.460 -51.5297
1.775000 81.687 -50.4209
1.800000 81.911 -49.4562
1.825000 82.129 -48.6508
1.850000 82.342 -48.0186
1.875000 82.556 -47.5560
1.900000 82.771 -47.2473
1.925000 82.985 -47.0765
1.950000 83.198 -47.0277
1.975000 83.410 -47.0850
2.000000 83.621 -47.2326
2.030000 83.871 -47.5062
2.060000 84.118 -47.8593
2.090000 84.360 -48.2643
2.120000 84.597 -48.6938
2.140000 84.752 -48.9801
2.180000 85.053 -49.5160
2.200000 85.199 -49.7499
2.240000 85.483 -50.2540
2.270000 85.690 -50.6951
2.300000 85.893 -51.1838
2.330000 86.090 -51.7143
2.360000 86.283 -52.2807
2.400000 86.534 -53.0818
2.430000 86.716 -53.7094
2.470000 86.951 -54.5709
2.500000 87.122 -55.2280
2.540000 87.343 -56.1077
2.580000 87.556 -56.9841
2.620000 87.759 -57.8921
2.650000 87.905 -58.5970
2.690000 88.092 -59.5635
2.720000 88.227 -60.3049
2.760000 88.400 -61.3105
2.800000 88.566 -62.3298
2.850000 88.764 -63.6137
2.900000 88.953 -64.8969
2.950000 89.134 -66.1733
3.000000 89.304 -67.4834
3.040000 89.431 -68.5531
3.070000 89.523 -69.3618
3.110000 89.639 -70.4410
3.150000 89.750 -71.5128
3.200000 89.882 -72.8277
3.250000 90.007 -74.0978
3.300000 90.126 -75.3050
3.350000 90.237 -76.4559
3.400000 90.340 -77.5666
3.450000 90.434 -78.6407
3.500000 90.522 -79.6822
3.550000 90.604 -80.6947
3.600000 90.683 -81.6821
3.650000 90.760 -82.6482
3.700000 90.833 -83.5985
3.750000 90.900 -84.5354
3.820000 90.985 -85.8106
3.870000 91.043 -86.6851
3.950000 91.132 -88.0000
4.000000 91.190 -88.7574
4.060000 91.262 -89.5864
4.120000 91.331 -90.3215
4.180000 91.400 -90.9817
4.250000 91.481 -91.6858
4.310000 91.555 -92.2574
4.370000 91.633 -92.8222
4.440000 91.734 -93.4810
4.500000 91.824 -94.0114
4.550000 91.903 -94.4349
4.620000 92.018 -95.0135
4.680000 92.121 -95.5088
4.750000 92.247 -96.1026
4.820000 92.380 -96.7072
4.870000 92.480 -97.1306
4.940000 92.626 -97.7262
5.000000 92.753 -98.2532
5.080000 92.923 -99.0029
5.150000 93.068 -99.7230
5.220000 93.217 -100.4968
5.300000 93.388 -101.4337
5.380000 93.556 -102.4173
5.450000 93.696 -103.3090
5.520000 93.827 -104.2261
5.600000 93.971 -105.3304
5.700000 94.140 -106.7690
5.800000 94.292 -108.2209
5.900000 94.424 -109.6431
6.000000 94.535 -111.0851
6.080000 94.611 -112.2278
6.150000 94.669 -113.1913
6.220000 94.719 -114.0973
6.300000 94.765 -115.0726
6.400000 94.805 -116.2305
6.500000 94.835 -117.2770
6.600000 94.863 -118.1661
6.700000 94.885 -118.8807
6.800000 94.900 -119.4482
6.900000 94.924 -119.8945
7.000000 94.966 -120.2339
7.100000 95.020 -120.4140
7.200000 95.088 -120.5009
7.300000 95.176 -120.5868
7.400000 95.290 -120.6990
7.500000 95.428 -120.7752
7.620000 95.614 -120.9434
7.750000 95.829 -121.3712
7.880000 96.071 -122.0030
8.000000 96.294 -122.7829
8.120000 96.498 -123.7955
8.250000 96.710 -125.1630
8.380000 96.893 -126.7164
8.500000 97.021 -128.2698
8.620000 97.116 -129.9867
8.750000 97.176 -131.8749
8.850000 97.185 -133.2733
9.000000 97.140 -135.3920
9.120000 97.062 -136.9210
9.250000 96.932 -138.2922
9.380000 96.755 -139.4398
9.500000 96.574 -140.1512
9.620000 96.379 -140.4340
9.750000 96.145 -140.3245
9.880000 95.939 -139.8219
10.000000 95.783 -138.9408
10.150000 95.627 -137.3754
10.300000 95.572 -135.7451
10.440000 95.621 -134.0697
10.600000 95.764 -132.3637
10.750000 95.979 -131.3022
10.900000 96.260 -130.6561
11.060000 96.555 -130.6154
11.200000 96.819 -131.1484
11.380000 97.116 -132.3402
11.500000 97.277 -133.4553
11.720000 97.498 -135.9086
11.800000 97.550 -136.8462
12.060000 97.628 -140.0680
12.200000 97.619 -141.7038
12.410000 97.545 -144.0215
12.500000 97.502 -144.9020
12.650000 97.409 -146.2316
12.800000 97.306 -147.3967
13.150000 97.067 -149.4621
13.200000 97.036 -149.7102
13.400000 96.927 -150.5736
13.600000 96.836 -151.3489
13.800000 96.764 -152.0805
14.000000 96.702 -152.7932
14.300000 96.619 -153.8206
14.500000 96.565 -154.4296
14.750000 96.509 -155.0597
15.000000 96.471 -155.5353
15.250000 96.468 -155.9013
15.500000 96.497 -156.2616
15.750000 96.555 -156.6779
16.000000 96.624 -157.2368
16.250000 96.685 -157.9117
16.500000 96.729 -158.6519
16.750000 96.746 -159.3579
17.000000 96.744 -159.8987
17.250000 96.733 -160.2349
17.500000 96.728 -160.3245
17.750000 96.746 -160.2463
18.000000 96.792 -160.0895
18.250000 96.869 -159.9551
18.500000 96.966 -159.9731
18.750000 97.068 -160.1718
19.000000 97.163 -160.5765
19.250000 97.234 -161.1441
19.500000 97.274 -161.8035
19.750000 97.280 -162.4943
20.000000 97.251 -163.1126
20.299999 97.183 -163.6716
20.600000 97.094 -163.9657
20.900000 97.008 -163.9819
21.200001 96.949 -163.7880
21.400000 96.933 -163.6307
21.799999 96.955 -163.4453
22.000000 96.985 -163.5090
22.400000 97.053 -164.0615
22.700001 97.085 -164.8040
23.000000 97.083 -165.7046
23.299999 97.048 -166.6303
23.600000 96.991 -167.5005
24.000000 96.896 -168.5237
24.299999 96.821 -169.2060
24.700001 96.713 -170.0230
25.000000 96.624 -170.5240
25.400000 96.499 -170.9261
25.799999 96.398 -170.9372
26.200001 96.362 -170.6761
26.500000 96.388 -170.4942
26.900000 96.475 -170.5135
27.200001 96.552 -170.8074
27.600000 96.632 -171.5166
28.000000 96.666 -172.3779
28.500000 96.645 -173.3403
29.000000 96.584 -173.9610
29.500000 96.516 -174.1651
30.000000 96.484 -174.0039
30.400000 96.508 -173.8010
30.700001 96.554 -173.7542
31.100000 96.625 -173.9737
31.500000 96.671 -174.4758
32.000000 96.658 -175.1238
32.500000 96.607 -175.3200
33.000000 96.607 -175.0788
33.500000 96.696 -174.9436
34.000000 96.814 -175.3772
34.500000 96.877 -176.2507
35.000000 96.866 -177.1041
35.500000 96.822 -177.6386
36.000000 96.787 -177.9309
36.500000 96.769 -178.1756
37.000000 96.751 -178.4373
37.500000 96.726 -178.6506
38.200001 96.700 -178.8130
38.700001 96.698 -178.9169
39.500000 96.708 -179.2631
40.000000 96.702 -179.5805
40.599998 96.678 -179.9518
41.200001 96.648 179.7575
41.799999 96.625 179.4640
42.500000 96.596 178.9811
43.099998 96.550 178.5194
43.700001 96.492 178.1266
44.400002 96.427 177.6975
45.000000 96.363 177.3353
45.500000 96.304 177.1668
46.200001 96.264 177.1860
46.799999 96.299 177.1090
47.500000 96.358 176.5103
48.200001 96.355 175.7159
48.700001 96.329 175.3671
49.400002 96.319 175.1762
50.000000 96.338 174.9763
50.799999 96.340 174.5951
51.500000 96.317 174.5013
52.200001 96.327 174.5955
53.000000 96.378 174.3752
53.799999 96.377 173.7097
54.500000 96.315 173.2516
55.200001 96.258 173.0868
56.000000 96.238 172.8273
57.000000 96.180 172.1572
58.000000 96.063 172.0531
59.000000 96.054 172.4898
60.000000 96.125 172.2584
60.799999 96.112 171.6825
61.500000 96.052 171.3885
62.200001 96.003 171.3201
63.000000 95.979 171.1603
64.000000 95.939 170.6841
65.000000 95.879 170.2311
66.000000 95.826 169.8701
67.000000 95.783 169.6613
68.000000 95.781 169.6089
69.000000 95.815 169.3286
70.000000 95.812 168.7772
71.000000 95.762 168.3160
72.000000 95.701 167.9866
73.000000 95.635 167.7266
74.000000 95.581 167.5927
75.000000 95.564 167.4196
76.199997 95.548 166.9870
77.500000 95.516 166.5911
78.800003 95.490 166.2486
80.000000 95.447 166.0285
81.199997 95.409 165.9599
82.500000 95.366 165.8461
83.800003 95.301 165.7173
85.000000 95.231 165.6730
86.199997 95.181 165.6403
87.500000 95.162 165.3455
88.500000 95.142 164.8631
90.000000 95.086 164.2349
91.199997 95.054 163.8483
92.500000 94.993 163.6959
93.800003 94.959 163.9997
95.000000 94.962 164.2193
96.199997 94.955 164.1596
97.500000 94.908 163.8991
98.800003 94.844 163.5830
100.000000 94.790 163.2747
101.500000 94.737 162.8720
103.000000 94.678 162.6337
104.400002 94.626 162.6399
106.000000 94.559 162.7127
107.500000 94.484 162.7837
109.000000 94.420 162.7358
110.599998 94.371 162.5682
112.000000 94.347 162.4086
113.800003 94.327 162.2863
115.000000 94.304 162.2483
117.199997 94.227 162.2661
118.000000 94.200 162.2983
120.599998 94.161 162.0551
122.000000 94.127 161.7849
124.099998 94.045 161.6730
125.000000 94.005 161.6776
126.500000 93.930 161.5998
128.000000 93.839 161.4716
131.500000 93.810 162.3062
132.000000 93.843 162.4099
134.000000 93.915 162.4346
136.000000 93.820 162.1539
138.000000 93.603 162.0166
140.000000 93.474 161.9943
143.000000 93.502 161.4648
145.000000 93.518 161.3779
147.500000 93.528 161.5610
150.000000 93.519 160.9822
152.500000 93.402 160.2150
155.000000 93.190 160.2222
157.500000 92.964 160.8393
160.000000 92.847 161.1993
162.500000 92.867 160.9518
165.000000 92.944 160.8384
167.500000 93.020 161.3578
170.000000 92.993 162.5324
172.500000 92.934 163.9565
175.000000 92.693 164.4573
177.500000 92.303 164.9601
180.000000 92.012 164.9507
182.500000 91.944 164.8082
185.000000 92.141 164.3810
187.500000 92.307 163.5018
190.000000 92.319 163.0056
192.500000 92.283 162.8344
195.000000 92.262 162.6996
197.500000 92.279 162.5566
200.000000 92.264 162.2512
203.000000 92.129 162.3008
206.000000 92.011 162.8351
209.000000 91.986 163.2838
212.000000 91.993 163.4633
214.000000 91.967 163.5542
218.000000 91.919 163.9370
220.000000 91.890 163.9792
224.000000 91.772 164.1760
227.000000 91.730 164.9027
230.000000 91.763 165.4907
233.000000 91.769 164.9967
236.000000 91.737 164.4725
240.000000 91.774 164.3879
243.000000 91.800 164.5588
247.000000 91.712 166.6189
250.000000 91.506 168.0033
254.000000 91.336 167.1282
258.000000 91.425 166.5154
262.000000 91.334 166.9084
265.000000 91.229 166.8911
269.000000 91.157 166.9425
272.000000 91.108 167.0862
276.000000 91.042 167.3465
280.000000 91.000 167.6626
285.000000 90.990 167.8586
290.000000 90.955 168.3854
295.000000 90.886 168.8934
300.000000 90.855 169.1047
304.000000 90.824 169.2736
307.000000 90.788 169.4877
311.000000 90.741 169.8186
315.000000 90.725 170.2063
320.000000 90.714 170.9816
325.000000 90.647 171.6465
330.000000 90.531 171.7381
335.000000 90.491 171.7472
340.000000 90.515 172.2802
345.000000 90.484 172.9066
350.000000 90.400 173.3479
355.000000 90.245 173.5219
360.000000 90.133 173.7688
365.000000 90.183 174.2425
370.000000 90.273 174.6076
375.000000 90.291 174.8701
382.000000 90.257 175.4217
387.000000 90.219 175.9005
395.000000 90.156 176.3664
400.000000 90.123 176.6824
406.000000 90.123 177.3455
412.000000 90.177 177.8491
418.000000 90.172 178.0533
425.000000 90.084 178.3257
431.000000 90.031 179.0738
437.000000 89.978 -179.8028
444.000000 89.911 -179.1198
450.000000 89.896 -178.9984
455.000000 89.901 -178.8356
462.000000 89.883 -178.4094
468.000000 89.841 -177.7838
475.000000 89.773 -177.3439
482.000000 89.758 -177.2639
487.000000 89.740 -176.8766
494.000000 89.701 -175.8727
500.000000 89.664 -174.9215
508.000000 89.694 -173.7671
515.000000 89.715 -173.2252
522.000000 89.682 -173.2505
530.000000 89.655 -173.1019
538.000000 89.625 -172.5026
545.000000 89.589 -171.9144
552.000000 89.557 -171.4015
560.000000 89.561 -170.7296
570.000000 89.592 -169.9612
580.000000 89.590 -169.3994
590.000000 89.572 -168.7436
600.000000 89.555 -167.9092
608.000000 89.541 -167.1970
615.000000 89.530 -166.4972
622.000000 89.513 -165.7569
630.000000 89.492 -165.0620
640.000000 89.480 -164.3719
650.000000 89.485 -163.6554
660.000000 89.479 -162.8213
670.000000 89.464 -161.9862
680.000000 89.467 -161.0993
690.000000 89.467 -160.2371
700.000000 89.470 -159.4538
710.000000 89.484 -158.7015
720.000000 89.503 -157.8895
730.000000 89.526 -157.0549
740.000000 89.549 -156.2267
750.000000 89.569 -155.4283
762.000000 89.596 -154.4923
775.000000 89.638 -153.4471
788.000000 89.677 -152.4046
800.000000 89.711 -151.4627
812.000000 89.752 -150.4698
825.000000 89.812 -149.5129
838.000000 89.861 -148.6022
850.000000 89.913 -147.7183
862.000000 89.971 -146.7908
875.000000 90.041 -145.7788
885.000000 90.092 -145.0405
900.000000 90.173 -143.9456
912.000000 90.237 -143.1057
925.000000 90.313 -142.2777
938.000000 90.395 -141.4944
950.000000 90.472 -140.7658
962.000000 90.555 -140.0493
975.000000 90.645 -139.2818
988.000000 90.732 -138.5564
1000.000000 90.816 -137.9271
1015.000000 90.927 -137.1430
1030.000000 91.034 -136.4318
1044.000000 91.131 -135.8128
1060.000000 91.240 -135.0942
1075.000000 91.345 -134.4534
1090.000000 91.458 -133.8998
1106.000000 91.593 -133.4023
1120.000000 91.708 -132.9579
1138.000000 91.845 -132.3946
1150.000000 91.933 -132.0405
1172.000000 92.096 -131.4918
1180.000000 92.154 -131.3112
1206.000000 92.343 -130.7196
1220.000000 92.447 -130.4077
1241.000000 92.609 -129.9774
1250.000000 92.678 -129.8374
1265.000000 92.786 -129.6626
1280.000000 92.880 -129.4601
1315.000000 93.084 -128.7634
1320.000000 93.113 -128.6675
1340.000000 93.222 -128.3138
1360.000000 93.315 -127.9861
1380.000000 93.406 -127.6532
1400.000000 93.500 -127.2924
1430.000000 93.648 -126.7919
1450.000000 93.747 -126.4837
1475.000000 93.866 -125.9967
1500.000000 93.981 -125.5042
1525.000000 94.089 -124.9877
1550.000000 94.194 -124.4656
1575.000000 94.309 -123.9776
1600.000000 94.430 -123.5480
1625.000000 94.550 -123.1657
1650.000000 94.663 -122.8042
1675.000000 94.773 -122.4480
1700.000000 94.882 -122.0935
1725.000000 94.988 -121.7424
1750.000000 95.091 -121.3852
1775.000000 95.194 -121.0397
1800.000000 95.296 -120.7085
1825.000000 95.394 -120.3884
1850.000000 95.488 -120.0701
1875.000000 95.583 -119.7706
1900.000000 95.682 -119.4882
1925.000000 95.780 -119.2056
1950.000000 95.878 -118.9441
1975.000000 95.973 -118.6912
2000.000000 96.064 -118.4345
2030.000000 96.167 -118.1321
2060.000000 96.264 -117.7976
2090.000000 96.358 -117.4215
2120.000000 96.456 -116.9753
2140.000000 96.527 -116.6278
2180.000000 96.699 -115.8297
2200.000000 96.806 -115.4231
2240.000000 97.071 -114.8307
2270.000000 97.288 -114.7205
2300.000000 97.491 -114.9261
2330.000000 97.664 -115.3546
2360.000000 97.806 -115.8796
2400.000000 97.955 -116.6115
2430.000000 98.046 -117.1237
2470.000000 98.148 -117.7447
2500.000000 98.215 -118.1756
2540.000000 98.296 -118.7422
2580.000000 98.364 -119.2890
2620.000000 98.424 -119.8848
2650.000000 98.456 -120.3447
2690.000000 98.482 -120.9366
2720.000000 98.493 -121.3790
2760.000000 98.498 -121.9242
2800.000000 98.486 -122.3909
2850.000000 98.457 -122.9063
2900.000000 98.419 -123.3620
2950.000000 98.370 -123.7893
3000.000000 98.301 -124.1522
3040.000000 98.238 -124.3880
3070.000000 98.188 -124.5146
3110.000000 98.119 -124.6065
3150.000000 98.048 -124.6497
3200.000000 97.956 -124.6808
3250.000000 97.856 -124.6493
3300.000000 97.749 -124.5550
3350.000000 97.639 -124.3711
3400.000000 97.529 -124.0676
3450.000000 97.429 -123.6922
3500.000000 97.340 -123.2694
3550.000000 97.256 -122.8366
3600.000000 97.169 -122.3703
3650.000000 97.073 -121.8496
3700.000000 96.974 -121.2538
3750.000000 96.878 -120.5665
3820.000000 96.759 -119.4939
3870.000000 96.679 -118.6698
3950.000000 96.573 -117.3607
4000.000000 96.511 -116.5430
4060.000000 96.434 -115.5584
4120.000000 96.356 -114.5400
4180.000000 96.285 -113.4804
4250.000000 96.214 -112.2094
4310.000000 96.155 -111.1094
4370.000000 96.099 -110.0418
4440.000000 96.037 -108.8473
4500.000000 95.983 -107.8468
4550.000000 95.936 -107.0195
4620.000000 95.869 -105.8696
4680.000000 95.806 -104.8751
4750.000000 95.734 -103.7066
4820.000000 95.666 -102.5307
4870.000000 95.618 -101.6764
4940.000000 95.554 -100.4741
5000.000000 95.503 -99.4423
5080.000000 95.431 -98.0486
5150.000000 95.371 -96.8355
5220.000000 95.313 -95.6184
5300.000000 95.251 -94.2210
5380.000000 95.191 -92.8162
5450.000000 95.141 -91.5767
5520.000000 95.097 -90.3301
5600.000000 95.048 -88.8857
5700.000000 94.989 -87.0520
5800.000000 94.932 -85.1717
5900.000000 94.893 -83.2730
6000.000000 94.873 -81.3622
6080.000000 94.868 -79.8333
6150.000000 94.871 -78.5072
6220.000000 94.882 -77.1956
6300.000000 94.910 -75.7359
6400.000000 94.966 -73.9974
6500.000000 95.036 -72.3857
6600.000000 95.117 -70.9511
6700.000000 95.198 -69.7119
6800.000000 95.277 -68.6519
6900.000000 95.364 -67.7093
7000.000000 95.448 -66.7519
7100.000000 95.531 -65.6825
7200.000000 95.637 -64.4825
7300.000000 95.782 -63.2165
7400.000000 95.990 -62.0573
7500.000000 96.266 -61.2249
7620.000000 96.678 -60.9799
7750.000000 97.168 -62.0669
7880.000000 97.528 -64.8246
8000.000000 97.655 -68.7491
8120.000000 97.523 -73.4717
8250.000000 97.046 -78.5638
8380.000000 96.270 -82.6930
8500.000000 95.367 -85.1566
8620.000000 94.360 -86.2030
8750.000000 93.219 -85.8438
8850.000000 92.348 -84.6889
9000.000000 91.098 -81.8472
9120.000000 90.164 -78.7978
9250.000000 89.229 -74.9035
9380.000000 88.375 -70.5646
9500.000000 87.655 -66.2525
9620.000000 86.991 -61.7126
9750.000000 86.338 -56.6170
9880.000000 85.752 -51.4062
10000.000000 85.259 -46.5212
10150.000000 84.696 -40.2852
10300.000000 84.191 -33.9251
10440.000000 83.779 -27.9288
10600.000000 83.370 -21.0965
10750.000000 83.029 -14.7512
10900.000000 82.721 -8.4143
11060.000000 82.444 -1.6474
11200.000000 82.239 4.2641
11380.000000 82.018 11.8393
11500.000000 81.898 16.8621
11720.000000 81.734 26.0085
11800.000000 81.693 29.3074
12060.000000 81.623 39.8967
12200.000000 81.614 45.5186
12410.000000 81.633 53.8479
12500.000000 81.659 57.3844
12650.000000 81.731 63.2394
12800.000000 81.839 69.0495
13150.000000 82.262 82.2978
13200.000000 82.344 84.1317
13400.000000 82.736 91.2325
13600.000000 83.232 97.8198
13800.000000 83.833 103.7053
14000.000000 84.519 108.6899
14300.000000 85.620 114.1156
14500.000000 86.344 116.1414
14750.000000 87.134 116.7465
15000.000000 87.693 115.5510
15250.000000 87.963 113.3603
15500.000000 87.988 111.0176
15750.000000 87.848 109.0474
16000.000000 87.603 107.4355
16250.000000 87.316 105.3470
16500.000000 86.925 100.7554
16750.000000 85.893 93.6046
17000.000000 83.440 97.7762
17250.000000 81.489 113.4334
17500.000000 81.061 120.1560
17750.000000 80.336 123.2276
18000.000000 79.247 127.9504
18250.000000 78.068 134.6461
18500.000000 77.006 142.8801
18750.000000 76.232 152.3088
19000.000000 75.757 162.7112
19250.000000 75.372 173.9902
19500.000000 74.860 -173.9215
19750.000000 74.218 -161.0287
20000.000000 73.534 -147.3468
20300.000000 72.876 -130.0160
20600.000000 72.666 -111.9532
20900.000000 72.991 -94.1117
21200.000000 73.822 -77.9363
21400.000000 74.517 -69.3225
21800.000000 75.188 -77.7305
22000.000000 74.474 -146.2545
22400.000000 70.123 99.7237
22700.000000 64.749 -39.7285
23000.000000 58.165 -40.3467
23300.000000 51.371 -35.2988
23600.000000 47.370 44.7188
24000.000000 47.193 -121.5898
