* Measurement data measured by REW V5.20.13
* Source: Headset (DS by VECLAN.COM), MICROPHONE (Master Volume), L, volume: 0.720. Timing signal peak level -16.5 dBFS, measurement signal peak level -15.7 dBFS
* Format: 4M Log Swept Sine, 1 sweep at -12.0 dBFS using an acoustic timing reference
* Dated: Dec 6, 2023 12:36:56 PM
* REW Settings:
*  C-weighting compensation: Off
*  Target level: 75.0 dB
* Note: ; Apple + Abigail Delay -0.0665 ms (-23 mm, -0.9 in) using estimated IR delay relative to Acoustic reference played from  R with no timing offset Clock adjustment: -0.1 ppm
* Measurement: Moondrop KATO S1 CP145 R
* Smoothing: 1/24 octave
* Frequency Step: 1/48 octave
* Start Frequency: 1.000 Hz
*
* Freq(Hz) SPL(dB) Phase(degrees)
1.000000 68.354 -5.7959
1.015000 68.595 -7.3671
1.030000 68.836 -8.8725
1.044000 69.061 -10.2119
1.060000 69.318 -11.6576
1.075000 69.558 -12.9231
1.090000 69.798 -14.0945
1.106000 70.053 -15.2337
1.120000 70.281 -16.1441
1.138000 70.582 -17.2057
1.150000 70.787 -17.8498
1.172000 71.170 -18.9091
1.180000 71.312 -19.2582
1.206000 71.778 -20.2736
1.220000 72.031 -20.7524
1.241000 72.413 -21.3940
1.250000 72.578 -21.6441
1.265000 72.851 -22.0324
1.280000 73.124 -22.3900
1.315000 73.754 -23.1365
1.320000 73.842 -23.2362
1.340000 74.193 -23.6259
1.360000 74.537 -24.0114
1.380000 74.871 -24.4061
1.400000 75.194 -24.8234
1.430000 75.654 -25.5213
1.450000 75.942 -26.0540
1.475000 76.279 -26.8099
1.500000 76.596 -27.5945
1.525000 76.895 -28.3859
1.550000 77.178 -29.1810
1.575000 77.447 -29.9768
1.600000 77.703 -30.7702
1.625000 77.947 -31.5584
1.650000 78.181 -32.3382
1.675000 78.407 -33.1066
1.700000 78.625 -33.8606
1.725000 78.838 -34.5972
1.750000 79.046 -35.3133
1.775000 79.251 -36.0060
1.800000 79.455 -36.6722
1.825000 79.659 -37.3089
1.850000 79.862 -37.9121
1.875000 80.055 -38.4801
1.900000 80.242 -39.0168
1.925000 80.421 -39.5263
1.950000 80.594 -40.0127
1.975000 80.762 -40.4800
2.000000 80.925 -40.9325
2.030000 81.116 -41.4615
2.060000 81.303 -41.9820
2.090000 81.487 -42.5010
2.120000 81.671 -43.0256
2.140000 81.793 -43.3820
2.180000 82.039 -44.1200
2.200000 82.165 -44.5057
2.240000 82.414 -45.2909
2.270000 82.600 -45.8839
2.300000 82.784 -46.4799
2.330000 82.967 -47.0784
2.360000 83.147 -47.6787
2.400000 83.384 -48.4814
2.430000 83.560 -49.0843
2.470000 83.790 -49.8885
2.500000 83.960 -50.4912
2.540000 84.183 -51.2933
2.580000 84.400 -52.0935
2.620000 84.613 -52.8994
2.650000 84.769 -53.5074
2.690000 84.974 -54.3202
2.720000 85.125 -54.9298
2.760000 85.323 -55.7402
2.800000 85.517 -56.5450
2.850000 85.754 -57.5387
2.900000 85.986 -58.5131
2.950000 86.212 -59.4624
3.000000 86.432 -60.3856
3.040000 86.603 -61.1092
3.070000 86.729 -61.6451
3.110000 86.894 -62.3531
3.150000 87.055 -63.0565
3.200000 87.252 -63.9338
3.250000 87.445 -64.8146
3.300000 87.634 -65.7048
3.350000 87.818 -66.6093
3.400000 87.996 -67.5236
3.450000 88.170 -68.4407
3.500000 88.339 -69.3537
3.550000 88.504 -70.2557
3.600000 88.666 -71.1395
3.650000 88.824 -71.9982
3.700000 88.978 -72.8269
3.750000 89.129 -73.6297
3.820000 89.333 -74.7206
3.870000 89.474 -75.4835
3.950000 89.693 -76.6910
4.000000 89.826 -77.4458
4.060000 89.982 -78.3596
4.120000 90.133 -79.2792
4.180000 90.279 -80.1971
4.250000 90.444 -81.2569
4.310000 90.581 -82.1476
4.370000 90.715 -83.0147
4.440000 90.868 -83.9889
4.500000 90.995 -84.7950
4.550000 91.098 -85.4507
4.620000 91.238 -86.3505
4.680000 91.356 -87.1108
4.750000 91.491 -87.9927
4.820000 91.623 -88.8714
4.870000 91.715 -89.4928
4.940000 91.842 -90.3533
5.000000 91.948 -91.0817
5.080000 92.086 -92.0391
5.150000 92.203 -92.8632
5.220000 92.317 -93.6743
5.300000 92.443 -94.5862
5.380000 92.566 -95.4829
5.450000 92.670 -96.2559
5.520000 92.771 -97.0187
5.600000 92.882 -97.8775
5.700000 93.016 -98.9310
5.800000 93.145 -99.9619
5.900000 93.270 -100.9695
6.000000 93.390 -101.9526
6.080000 93.483 -102.7229
6.150000 93.562 -103.3865
6.220000 93.639 -104.0415
6.300000 93.725 -104.7787
6.400000 93.829 -105.6822
6.500000 93.929 -106.5680
6.600000 94.026 -107.4385
6.700000 94.118 -108.2955
6.800000 94.206 -109.1371
6.900000 94.292 -109.9598
7.000000 94.375 -110.7606
7.100000 94.454 -111.5385
7.200000 94.531 -112.2973
7.300000 94.607 -113.0416
7.400000 94.680 -113.7727
7.500000 94.752 -114.4879
7.620000 94.836 -115.3302
7.750000 94.923 -116.2295
7.880000 95.009 -117.1121
8.000000 95.084 -117.9149
8.120000 95.157 -118.7105
8.250000 95.232 -119.5637
8.380000 95.303 -120.4033
8.500000 95.365 -121.1637
8.620000 95.423 -121.9122
8.750000 95.483 -122.7047
8.850000 95.527 -123.2983
9.000000 95.589 -124.1649
9.120000 95.637 -124.8382
9.250000 95.688 -125.5467
9.380000 95.738 -126.2335
9.500000 95.781 -126.8534
9.620000 95.822 -127.4617
9.750000 95.864 -128.1058
9.880000 95.900 -128.7403
10.000000 95.925 -129.3204
10.150000 95.949 -130.0348
10.300000 95.965 -130.7347
10.440000 95.972 -131.3732
10.600000 95.977 -132.0910
10.750000 95.982 -132.7548
10.900000 95.986 -133.4101
11.060000 95.990 -134.1084
11.200000 95.994 -134.7201
11.380000 95.996 -135.4913
11.500000 95.996 -135.9941
11.720000 95.994 -136.8878
11.800000 95.994 -137.2004
12.060000 95.992 -138.1771
12.200000 95.994 -138.6824
12.410000 95.998 -139.4138
12.500000 96.001 -139.7187
12.650000 96.006 -140.2137
12.800000 96.012 -140.6990
13.150000 96.030 -141.8078
13.200000 96.033 -141.9655
13.400000 96.047 -142.5964
13.600000 96.061 -143.2260
13.800000 96.075 -143.8553
14.000000 96.087 -144.4788
14.300000 96.100 -145.3975
14.500000 96.105 -145.9866
14.750000 96.110 -146.6900
15.000000 96.115 -147.3549
15.250000 96.123 -147.9886
15.500000 96.134 -148.5962
15.750000 96.147 -149.1824
16.000000 96.160 -149.7547
16.250000 96.173 -150.3209
16.500000 96.186 -150.8821
16.750000 96.198 -151.4374
17.000000 96.209 -151.9806
17.250000 96.220 -152.5092
17.500000 96.230 -153.0202
17.750000 96.239 -153.5177
18.000000 96.249 -154.0066
18.250000 96.257 -154.4927
18.500000 96.266 -154.9771
18.750000 96.274 -155.4577
19.000000 96.282 -155.9324
19.250000 96.289 -156.3976
19.500000 96.295 -156.8499
19.750000 96.300 -157.2863
20.000000 96.306 -157.7051
20.299999 96.314 -158.1910
20.600000 96.324 -158.6673
20.900000 96.334 -159.1437
21.200001 96.343 -159.6264
21.400000 96.348 -159.9488
21.799999 96.352 -160.5804
22.000000 96.352 -160.8821
22.400000 96.351 -161.4457
22.700001 96.352 -161.8368
23.000000 96.356 -162.2155
23.299999 96.362 -162.6007
23.600000 96.369 -163.0013
24.000000 96.376 -163.5559
24.299999 96.376 -163.9666
24.700001 96.370 -164.4738
25.000000 96.367 -164.8128
25.400000 96.367 -165.2246
25.799999 96.376 -165.6384
26.200001 96.388 -166.0970
26.500000 96.393 -166.4706
26.900000 96.392 -166.9751
27.200001 96.384 -167.3250
27.600000 96.372 -167.7249
28.000000 96.364 -168.0592
28.500000 96.369 -168.4608
29.000000 96.383 -168.9289
29.500000 96.394 -169.4700
30.000000 96.392 -170.0221
30.400000 96.383 -170.4332
30.700001 96.375 -170.7188
31.100000 96.365 -171.0791
31.500000 96.357 -171.4279
32.000000 96.347 -171.8538
32.500000 96.337 -172.2581
33.000000 96.327 -172.6356
33.500000 96.320 -173.0033
34.000000 96.315 -173.3855
34.500000 96.310 -173.7845
35.000000 96.303 -174.1788
35.500000 96.294 -174.5517
36.000000 96.287 -174.9084
36.500000 96.279 -175.2629
37.000000 96.268 -175.6175
37.500000 96.254 -175.9567
38.200001 96.237 -176.3870
38.700001 96.229 -176.6864
39.500000 96.218 -177.2043
40.000000 96.208 -177.5358
40.599998 96.196 -177.9206
41.200001 96.182 -178.2996
41.799999 96.168 -178.6739
42.500000 96.149 -179.0798
43.099998 96.137 -179.4015
43.700001 96.127 -179.7232
44.400002 96.117 179.8905
45.000000 96.106 179.5575
45.500000 96.095 179.2828
46.200001 96.076 178.9123
46.799999 96.058 178.6216
47.500000 96.040 178.3110
48.200001 96.026 177.9997
48.700001 96.017 177.7653
49.400002 96.003 177.4273
50.000000 95.989 177.1418
50.799999 95.972 176.7728
51.500000 95.958 176.4580
52.200001 95.944 176.1497
53.000000 95.929 175.7990
53.799999 95.911 175.4536
54.500000 95.891 175.1715
55.200001 95.870 174.9045
56.000000 95.845 174.6036
57.000000 95.812 174.2455
58.000000 95.776 173.8704
59.000000 95.729 173.5135
60.000000 95.692 173.2769
60.799999 95.684 173.0293
61.500000 95.677 172.7274
62.200001 95.661 172.4203
63.000000 95.638 172.1103
64.000000 95.611 171.7549
65.000000 95.584 171.4296
66.000000 95.559 171.1190
67.000000 95.531 170.8103
68.000000 95.500 170.5133
69.000000 95.466 170.2308
70.000000 95.433 169.9678
71.000000 95.403 169.7081
72.000000 95.375 169.4359
73.000000 95.346 169.1651
74.000000 95.314 168.9078
75.000000 95.280 168.6593
76.199997 95.240 168.3657
77.500000 95.198 168.0419
78.800003 95.159 167.6952
80.000000 95.122 167.3519
81.199997 95.075 167.0444
82.500000 95.027 166.8391
83.800003 94.992 166.6407
85.000000 94.959 166.4292
86.199997 94.924 166.2073
87.500000 94.884 165.9667
88.500000 94.854 165.7811
90.000000 94.806 165.5017
91.199997 94.769 165.2907
92.500000 94.730 165.0761
93.800003 94.693 164.8653
95.000000 94.656 164.6728
96.199997 94.617 164.4941
97.500000 94.575 164.3193
98.800003 94.534 164.1548
100.000000 94.496 163.9980
101.500000 94.449 163.7835
103.000000 94.401 163.5708
104.400002 94.356 163.3854
106.000000 94.302 163.1852
107.500000 94.251 163.0092
109.000000 94.200 162.8484
110.599998 94.149 162.6970
112.000000 94.107 162.5652
113.800003 94.053 162.3931
115.000000 94.015 162.2865
117.199997 93.941 162.1011
118.000000 93.913 162.0380
120.599998 93.829 161.8633
122.000000 93.792 161.7423
124.099998 93.737 161.5514
125.000000 93.713 161.4802
126.500000 93.672 161.3794
128.000000 93.631 161.2999
131.500000 93.536 161.1186
132.000000 93.523 161.0878
134.000000 93.469 160.9672
136.000000 93.418 160.8748
138.000000 93.368 160.7957
140.000000 93.317 160.7106
143.000000 93.244 160.6049
145.000000 93.195 160.5595
147.500000 93.134 160.5163
150.000000 93.072 160.4806
152.500000 93.009 160.4387
155.000000 92.947 160.3877
157.500000 92.886 160.3520
160.000000 92.827 160.3186
162.500000 92.769 160.3126
165.000000 92.714 160.3163
167.500000 92.653 160.3150
170.000000 92.586 160.3349
172.500000 92.521 160.3729
175.000000 92.464 160.4157
177.500000 92.409 160.4464
180.000000 92.353 160.4678
182.500000 92.295 160.4865
185.000000 92.236 160.5208
187.500000 92.179 160.5750
190.000000 92.124 160.6444
192.500000 92.072 160.7068
195.000000 92.020 160.7650
197.500000 91.970 160.8424
200.000000 91.921 160.9303
203.000000 91.862 161.0361
206.000000 91.801 161.1349
209.000000 91.740 161.2184
212.000000 91.685 161.3203
214.000000 91.650 161.4086
218.000000 91.578 161.5867
220.000000 91.541 161.6748
224.000000 91.468 161.8589
227.000000 91.413 161.9955
230.000000 91.358 162.1315
233.000000 91.306 162.2836
236.000000 91.257 162.4492
240.000000 91.187 162.6732
243.000000 91.139 162.8369
247.000000 91.080 163.0489
250.000000 91.037 163.2086
254.000000 90.981 163.4247
258.000000 90.922 163.6573
262.000000 90.861 163.8999
265.000000 90.818 164.0787
269.000000 90.763 164.3289
272.000000 90.723 164.5236
276.000000 90.672 164.7786
280.000000 90.623 165.0294
285.000000 90.564 165.3424
290.000000 90.507 165.6708
295.000000 90.452 166.0254
300.000000 90.397 166.4048
304.000000 90.346 166.6770
307.000000 90.311 166.8592
311.000000 90.269 167.1199
315.000000 90.231 167.3967
320.000000 90.187 167.7210
325.000000 90.141 168.0508
330.000000 90.095 168.4082
335.000000 90.051 168.7562
340.000000 90.009 169.1043
345.000000 89.966 169.4694
350.000000 89.921 169.8262
355.000000 89.878 170.1853
360.000000 89.835 170.5557
365.000000 89.796 170.9221
370.000000 89.758 171.2830
375.000000 89.720 171.6411
382.000000 89.670 172.1509
387.000000 89.635 172.5189
395.000000 89.577 173.0986
400.000000 89.543 173.4497
406.000000 89.505 173.8975
412.000000 89.468 174.3524
418.000000 89.431 174.7961
425.000000 89.388 175.3198
431.000000 89.350 175.7678
437.000000 89.315 176.2043
444.000000 89.278 176.7088
450.000000 89.247 177.1446
455.000000 89.221 177.5120
462.000000 89.186 178.0273
468.000000 89.157 178.4762
475.000000 89.124 178.9978
482.000000 89.093 179.5128
487.000000 89.074 179.8820
494.000000 89.049 -179.6013
500.000000 89.030 -179.1604
508.000000 89.004 -178.5689
515.000000 88.981 -178.0446
522.000000 88.959 -177.5146
530.000000 88.936 -176.9093
538.000000 88.915 -176.3099
545.000000 88.898 -175.7900
552.000000 88.883 -175.2637
560.000000 88.867 -174.6554
570.000000 88.849 -173.9115
580.000000 88.830 -173.1487
590.000000 88.814 -172.3754
600.000000 88.799 -171.6088
608.000000 88.785 -170.9902
615.000000 88.775 -170.4300
622.000000 88.768 -169.8531
630.000000 88.760 -169.1927
640.000000 88.752 -168.3816
650.000000 88.749 -167.5654
660.000000 88.751 -166.7379
670.000000 88.756 -165.9314
680.000000 88.765 -165.1477
690.000000 88.780 -164.3715
700.000000 88.797 -163.6066
710.000000 88.817 -162.8503
720.000000 88.839 -162.1072
730.000000 88.859 -161.3866
740.000000 88.879 -160.6700
750.000000 88.902 -159.9508
762.000000 88.929 -159.0856
775.000000 88.959 -158.1390
788.000000 88.991 -157.2005
800.000000 89.025 -156.3500
812.000000 89.061 -155.4867
825.000000 89.104 -154.5521
838.000000 89.149 -153.6356
850.000000 89.194 -152.7853
862.000000 89.244 -151.9402
875.000000 89.302 -151.0470
885.000000 89.347 -150.3668
900.000000 89.420 -149.3627
912.000000 89.486 -148.5712
925.000000 89.559 -147.7424
938.000000 89.633 -146.9371
950.000000 89.705 -146.2125
962.000000 89.780 -145.5048
975.000000 89.867 -144.7434
988.000000 89.960 -144.0018
1000.000000 90.045 -143.3547
1015.000000 90.141 -142.6243
1030.000000 90.241 -141.9422
1044.000000 90.342 -141.3339
1060.000000 90.458 -140.6553
1075.000000 90.567 -140.0547
1090.000000 90.685 -139.5213
1106.000000 90.820 -138.9886
1120.000000 90.936 -138.5489
1138.000000 91.083 -138.0395
1150.000000 91.178 -137.7224
1172.000000 91.350 -137.1761
1180.000000 91.411 -136.9881
1206.000000 91.605 -136.4371
1220.000000 91.710 -136.1812
1241.000000 91.867 -135.8200
1250.000000 91.933 -135.6651
1265.000000 92.042 -135.4182
1280.000000 92.147 -135.1825
1315.000000 92.383 -134.6770
1320.000000 92.415 -134.6111
1340.000000 92.536 -134.3514
1360.000000 92.635 -134.0860
1380.000000 92.731 -133.8247
1400.000000 92.836 -133.5723
1430.000000 92.995 -133.1948
1450.000000 93.101 -132.9462
1475.000000 93.230 -132.6300
1500.000000 93.359 -132.3168
1525.000000 93.484 -132.0079
1550.000000 93.602 -131.6978
1575.000000 93.717 -131.3899
1600.000000 93.832 -131.0923
1625.000000 93.944 -130.8052
1650.000000 94.057 -130.5137
1675.000000 94.171 -130.2303
1700.000000 94.283 -129.9651
1725.000000 94.392 -129.7080
1750.000000 94.502 -129.4661
1775.000000 94.613 -129.2314
1800.000000 94.724 -129.0060
1825.000000 94.833 -128.8018
1850.000000 94.940 -128.6142
1875.000000 95.046 -128.4336
1900.000000 95.151 -128.2603
1925.000000 95.255 -128.0931
1950.000000 95.358 -127.9318
1975.000000 95.462 -127.7667
2000.000000 95.566 -127.6012
2030.000000 95.682 -127.4035
2060.000000 95.805 -127.1757
2090.000000 95.942 -126.9350
2120.000000 96.094 -126.7392
2140.000000 96.202 -126.6635
2180.000000 96.422 -126.6955
2200.000000 96.528 -126.8055
2240.000000 96.722 -127.1549
2270.000000 96.853 -127.4891
2300.000000 96.971 -127.8537
2330.000000 97.078 -128.2316
2360.000000 97.179 -128.6155
2400.000000 97.303 -129.1237
2430.000000 97.388 -129.5000
2470.000000 97.493 -130.0046
2500.000000 97.565 -130.3790
2540.000000 97.654 -130.8889
2580.000000 97.737 -131.4117
2620.000000 97.812 -131.9444
2650.000000 97.863 -132.3501
2690.000000 97.923 -132.8875
2720.000000 97.961 -133.2856
2760.000000 98.002 -133.8158
2800.000000 98.032 -134.3373
2850.000000 98.058 -134.9557
2900.000000 98.071 -135.5161
2950.000000 98.074 -135.9992
3000.000000 98.070 -136.3782
3040.000000 98.066 -136.6300
3070.000000 98.064 -136.7821
3110.000000 98.068 -136.9342
3150.000000 98.083 -137.0666
3200.000000 98.113 -137.2847
3250.000000 98.150 -137.6290
3300.000000 98.181 -138.0984
3350.000000 98.195 -138.6433
3400.000000 98.191 -139.2039
3450.000000 98.175 -139.7341
3500.000000 98.151 -140.2127
3550.000000 98.122 -140.6373
3600.000000 98.089 -141.0091
3650.000000 98.051 -141.3442
3700.000000 98.011 -141.6592
3750.000000 97.969 -141.9552
3820.000000 97.902 -142.3427
3870.000000 97.846 -142.6137
3950.000000 97.741 -143.0233
4000.000000 97.665 -143.2546
4060.000000 97.563 -143.4911
4120.000000 97.447 -143.6498
4180.000000 97.322 -143.6932
4250.000000 97.173 -143.5693
4310.000000 97.050 -143.3366
4370.000000 96.932 -143.0263
4440.000000 96.809 -142.6351
4500.000000 96.716 -142.3391
4550.000000 96.643 -142.1517
4620.000000 96.536 -141.9894
4680.000000 96.432 -141.9189
4750.000000 96.289 -141.8503
4820.000000 96.120 -141.7073
4870.000000 95.985 -141.5034
4940.000000 95.789 -141.0382
5000.000000 95.626 -140.4633
5080.000000 95.435 -139.4978
5150.000000 95.297 -138.6006
5220.000000 95.181 -137.7460
5300.000000 95.069 -136.8674
5380.000000 94.966 -136.1057
5450.000000 94.877 -135.5252
5520.000000 94.783 -135.0134
5600.000000 94.663 -134.4884
5700.000000 94.486 -133.8571
5800.000000 94.270 -133.1755
5900.000000 94.014 -132.3268
6000.000000 93.725 -131.1698
6080.000000 93.482 -129.9319
6150.000000 93.275 -128.5907
6220.000000 93.083 -127.0164
6300.000000 92.892 -124.9824
6400.000000 92.708 -122.1969
6500.000000 92.589 -119.2595
6600.000000 92.536 -116.2479
6700.000000 92.549 -113.2252
6800.000000 92.636 -110.2441
6900.000000 92.814 -107.3611
7000.000000 93.082 -104.6501
7100.000000 93.427 -102.2020
7200.000000 93.844 -100.1074
7300.000000 94.331 -98.4990
7400.000000 94.876 -97.5418
7500.000000 95.466 -97.4027
7620.000000 96.208 -98.5417
7750.000000 96.965 -101.6203
7880.000000 97.473 -106.6231
8000.000000 97.636 -112.5186
8120.000000 97.471 -118.8100
8250.000000 96.936 -124.9949
8380.000000 96.116 -129.6647
8500.000000 95.210 -132.3641
8620.000000 94.244 -133.6058
8750.000000 93.194 -133.5621
8850.000000 92.413 -132.7296
9000.000000 91.311 -130.4496
9120.000000 90.504 -127.9460
9250.000000 89.713 -124.7520
9380.000000 89.005 -121.1868
9500.000000 88.418 -117.6419
9620.000000 87.893 -113.9215
9750.000000 87.391 -109.7484
9880.000000 86.953 -105.4576
10000.000000 86.601 -101.4258
10150.000000 86.221 -96.3083
10300.000000 85.900 -91.0945
10440.000000 85.654 -86.1295
10600.000000 85.440 -80.3324
10750.000000 85.311 -74.7961
10900.000000 85.258 -69.2230
11060.000000 85.296 -63.3055
11200.000000 85.415 -58.1768
11380.000000 85.696 -51.7219
11500.000000 85.976 -47.6124
11720.000000 86.699 -40.8131
11800.000000 87.035 -38.6771
12060.000000 88.387 -33.7023
12200.000000 89.242 -32.8774
12410.000000 90.512 -35.2642
12500.000000 90.970 -37.8445
12650.000000 91.477 -44.0822
12800.000000 91.542 -51.7873
13150.000000 89.930 -66.3376
13200.000000 89.563 -67.4147
13400.000000 87.990 -69.0669
13600.000000 86.458 -67.3286
13800.000000 85.122 -63.3633
14000.000000 84.027 -58.0067
14300.000000 82.806 -48.5204
14500.000000 82.246 -41.6716
14750.000000 81.819 -32.8762
15000.000000 81.688 -24.2126
15250.000000 81.872 -16.0919
15500.000000 82.434 -8.9926
15750.000000 83.398 -3.7412
16000.000000 84.664 -1.8124
16250.000000 85.923 -5.3540
16500.000000 86.611 -15.4719
16750.000000 86.182 -29.2105
17000.000000 84.418 -38.9964
17250.000000 81.787 -38.4961
17500.000000 79.489 -31.0348
17750.000000 78.023 -22.1593
18000.000000 77.088 -13.5323
18250.000000 76.404 -5.5346
18500.000000 75.842 1.6094
18750.000000 75.352 8.1128
19000.000000 74.896 14.2259
19250.000000 74.417 20.0329
19500.000000 73.871 25.6356
19750.000000 73.252 31.2521
20000.000000 72.511 37.1493
20300.000000 71.500 44.9817
20600.000000 70.535 54.1174
20900.000000 69.736 64.6892
21200.000000 69.241 76.2989
21400.000000 69.153 83.9812
21800.000000 69.501 95.5312
22000.000000 69.742 93.0939
22400.000000 69.305 -107.4541
22700.000000 66.776 -64.4047
23000.000000 61.380 20.8052
23300.000000 53.625 -168.3711
23600.000000 45.584 98.5469
24000.000000 41.731 -112.9492
