* Measurement data measured by REW V5.20.13
* Source: Headset (DS by VECLAN.COM), MICROPHONE (Master Volume), L, volume: 0.880. Timing signal peak level -15.8 dBFS, measurement signal peak level -14.8 dBFS
* Format: 2M Log Swept Sine, 1 sweep at -12.0 dBFS using an acoustic timing reference
* Dated: Nov 11, 2023 5:25:59 PM
* REW Settings:
*  C-weighting compensation: Off
*  Target level: 75.0 dB
* Note: ; Delay -0.0616 ms (-21 mm, -0.83 in) using estimated IR delay relative to Acoustic reference played from HEADPHONE R with no timing offset
* Measurement: Moondrop KATO S3 R
* Smoothing: 1/24 octave
* Frequency Step: 1/48 octave
* Start Frequency: 1.000 Hz
*
* Freq(Hz) SPL(dB) Phase(degrees)
1.000000 67.620 -57.9536
1.015000 67.736 -58.9037
1.030000 67.856 -59.8095
1.044000 67.974 -60.6096
1.060000 68.113 -61.4638
1.075000 68.249 -62.2001
1.090000 68.389 -62.8675
1.106000 68.544 -63.5027
1.120000 68.692 -64.0230
1.138000 68.898 -64.6530
1.150000 69.045 -65.0489
1.172000 69.332 -65.7250
1.180000 69.441 -65.9551
1.206000 69.813 -66.6455
1.220000 70.023 -66.9812
1.241000 70.346 -67.4381
1.250000 70.487 -67.6169
1.265000 70.726 -67.8926
1.280000 70.967 -68.1405
1.315000 71.535 -68.6124
1.320000 71.616 -68.6679
1.340000 71.939 -68.8599
1.360000 72.257 -69.0051
1.380000 72.569 -69.1040
1.400000 72.871 -69.1574
1.430000 73.300 -69.1535
1.450000 73.567 -69.0959
1.475000 73.877 -68.9539
1.500000 74.170 -68.6603
1.525000 74.450 -68.2164
1.550000 74.719 -67.6443
1.575000 74.979 -66.9663
1.600000 75.230 -66.2046
1.625000 75.475 -65.3814
1.650000 75.714 -64.5190
1.675000 75.949 -63.6395
1.700000 76.182 -62.7652
1.725000 76.414 -61.9183
1.750000 76.646 -61.1210
1.775000 76.880 -60.3955
1.800000 77.117 -59.7640
1.825000 77.358 -59.2488
1.850000 77.605 -58.8443
1.875000 77.852 -58.4928
1.900000 78.100 -58.1881
1.925000 78.348 -57.9267
1.950000 78.596 -57.7047
1.975000 78.843 -57.5186
2.000000 79.090 -57.3646
2.030000 79.384 -57.2172
2.060000 79.676 -57.1044
2.090000 79.965 -57.0200
2.120000 80.250 -56.9576
2.140000 80.439 -56.9251
2.180000 80.809 -56.8735
2.200000 80.990 -56.8507
2.240000 81.349 -56.8362
2.270000 81.615 -56.8598
2.300000 81.879 -56.9110
2.330000 82.139 -56.9885
2.360000 82.396 -57.0905
2.400000 82.733 -57.2620
2.430000 82.981 -57.4152
2.470000 83.306 -57.6493
2.500000 83.545 -57.8452
2.540000 83.856 -58.1305
2.580000 84.158 -58.4420
2.620000 84.451 -58.7938
2.650000 84.666 -59.0843
2.690000 84.946 -59.5038
2.720000 85.151 -59.8402
2.760000 85.418 -60.3144
2.800000 85.679 -60.8139
2.850000 85.995 -61.4676
2.900000 86.302 -62.1460
2.950000 86.600 -62.8449
3.000000 86.888 -63.5909
3.040000 87.110 -64.2200
3.070000 87.272 -64.7067
3.110000 87.483 -65.3705
3.150000 87.689 -66.0459
3.200000 87.937 -66.8969
3.250000 88.178 -67.7445
3.300000 88.410 -68.5770
3.350000 88.635 -69.3994
3.400000 88.850 -70.2221
3.450000 89.056 -71.0469
3.500000 89.254 -71.8757
3.550000 89.445 -72.7104
3.600000 89.629 -73.5526
3.650000 89.807 -74.4042
3.700000 89.979 -75.2709
3.750000 90.143 -76.1583
3.820000 90.360 -77.4205
3.870000 90.508 -78.3249
3.950000 90.732 -79.7540
4.000000 90.865 -80.6229
4.060000 91.020 -81.6307
4.120000 91.165 -82.6133
4.180000 91.302 -83.5757
4.250000 91.454 -84.6767
4.310000 91.577 -85.6047
4.370000 91.696 -86.5212
4.440000 91.828 -87.5801
4.500000 91.935 -88.4803
4.550000 92.020 -89.2216
4.620000 92.132 -90.2400
4.680000 92.226 -91.0894
4.750000 92.332 -92.0460
4.820000 92.434 -92.9605
4.870000 92.504 -93.5904
4.940000 92.599 -94.4444
5.000000 92.678 -95.1546
5.080000 92.781 -96.0773
5.150000 92.872 -96.8673
5.220000 92.962 -97.6321
5.300000 93.062 -98.4773
5.380000 93.161 -99.3002
5.450000 93.249 -100.0090
5.520000 93.337 -100.7118
5.600000 93.440 -101.4944
5.700000 93.568 -102.4507
5.800000 93.697 -103.4037
5.900000 93.826 -104.3723
6.000000 93.958 -105.3430
6.080000 94.063 -106.1243
6.150000 94.154 -106.8167
6.220000 94.243 -107.5216
6.300000 94.343 -108.3453
6.400000 94.467 -109.3959
6.500000 94.587 -110.4621
6.600000 94.699 -111.5357
6.700000 94.806 -112.6251
6.800000 94.906 -113.7269
6.900000 94.998 -114.8225
7.000000 95.082 -115.8979
7.100000 95.157 -116.9717
7.200000 95.224 -118.0275
7.300000 95.284 -119.0393
7.400000 95.336 -119.9967
7.500000 95.380 -120.9160
7.620000 95.426 -121.9467
7.750000 95.471 -122.9455
7.880000 95.509 -123.8283
8.000000 95.543 -124.5464
8.120000 95.584 -125.1687
8.250000 95.631 -125.7234
8.380000 95.686 -126.2002
8.500000 95.750 -126.5974
8.620000 95.823 -126.9308
8.750000 95.914 -127.2814
8.850000 95.991 -127.5765
9.000000 96.121 -128.0238
9.120000 96.231 -128.4251
9.250000 96.352 -128.9373
9.380000 96.479 -129.5133
9.500000 96.590 -130.1005
9.620000 96.690 -130.7508
9.750000 96.791 -131.5221
9.880000 96.873 -132.3179
10.000000 96.927 -133.0719
10.150000 96.971 -134.0369
10.300000 96.990 -134.9360
10.440000 96.982 -135.7242
10.600000 96.955 -136.5261
10.750000 96.921 -137.1388
10.900000 96.877 -137.6344
11.060000 96.835 -138.0299
11.200000 96.801 -138.2558
11.380000 96.772 -138.4461
11.500000 96.762 -138.5058
11.720000 96.768 -138.5610
11.800000 96.780 -138.5902
12.060000 96.844 -138.7198
12.200000 96.891 -138.8871
12.410000 96.974 -139.2563
12.500000 97.008 -139.4651
12.650000 97.064 -139.8854
12.800000 97.114 -140.3685
13.150000 97.196 -141.6877
13.200000 97.203 -141.8837
13.400000 97.224 -142.6898
13.600000 97.233 -143.4766
13.800000 97.230 -144.2226
14.000000 97.222 -144.9176
14.300000 97.204 -145.8644
14.500000 97.195 -146.4423
14.750000 97.189 -147.1412
15.000000 97.191 -147.8349
15.250000 97.201 -148.5672
15.500000 97.212 -149.3429
15.750000 97.220 -150.1589
16.000000 97.216 -150.9964
16.250000 97.200 -151.8091
16.500000 97.171 -152.5620
16.750000 97.134 -153.2024
17.000000 97.097 -153.6967
17.250000 97.069 -154.0535
17.500000 97.059 -154.2890
17.750000 97.073 -154.4939
18.000000 97.108 -154.7319
18.250000 97.159 -155.0744
18.500000 97.211 -155.5689
18.750000 97.253 -156.1846
19.000000 97.276 -156.8904
19.250000 97.273 -157.5740
19.500000 97.251 -158.1629
19.750000 97.217 -158.6044
20.000000 97.188 -158.8777
20.299999 97.177 -159.0869
20.600000 97.197 -159.3007
20.900000 97.240 -159.6699
21.200001 97.283 -160.2839
21.400000 97.298 -160.7980
21.799999 97.282 -161.9007
22.000000 97.254 -162.3925
22.400000 97.183 -163.0955
22.700001 97.147 -163.4019
23.000000 97.147 -163.6736
23.299999 97.174 -164.0946
23.600000 97.203 -164.7388
24.000000 97.203 -165.8558
24.299999 97.155 -166.6328
24.700001 97.047 -167.2005
25.000000 96.980 -167.1536
25.400000 96.979 -166.6572
25.799999 97.106 -166.2697
26.200001 97.296 -166.5599
26.500000 97.415 -167.2743
26.900000 97.482 -168.5782
27.200001 97.454 -169.4499
27.600000 97.348 -170.0462
28.000000 97.241 -169.8493
28.500000 97.222 -168.9559
29.000000 97.338 -168.2960
29.500000 97.493 -168.4060
30.000000 97.586 -169.1281
30.400000 97.598 -169.8401
30.700001 97.577 -170.3370
31.100000 97.527 -170.8913
31.500000 97.466 -171.3274
32.000000 97.390 -171.7636
32.500000 97.323 -172.1508
33.000000 97.268 -172.5329
33.500000 97.224 -172.9059
34.000000 97.203 -173.2669
34.500000 97.210 -173.6868
35.000000 97.235 -174.2782
35.500000 97.248 -175.0542
36.000000 97.225 -175.8283
36.500000 97.173 -176.3478
37.000000 97.132 -176.5302
37.500000 97.130 -176.5546
38.200001 97.171 -176.7656
38.700001 97.190 -177.0908
39.500000 97.184 -177.6055
40.000000 97.174 -177.9107
40.599998 97.152 -178.3491
41.200001 97.108 -178.7837
41.799999 97.058 -179.0779
42.500000 97.035 -179.3757
43.099998 97.035 -179.8339
43.700001 97.015 179.5826
44.400002 96.968 179.0672
45.000000 96.942 178.8486
45.500000 96.944 178.6993
46.200001 96.966 178.3853
46.799999 96.980 178.0253
47.500000 96.979 177.5941
48.200001 96.960 177.2145
48.700001 96.939 176.9999
49.400002 96.910 176.7834
50.000000 96.894 176.6176
50.799999 96.883 176.2969
51.500000 96.871 175.9082
52.200001 96.856 175.4601
53.000000 96.832 174.8546
53.799999 96.779 174.2657
54.500000 96.723 173.9938
55.200001 96.696 173.8931
56.000000 96.693 173.6711
57.000000 96.666 173.2907
58.000000 96.624 173.0894
59.000000 96.584 172.9908
60.000000 96.570 172.9763
60.799999 96.587 172.7411
61.500000 96.584 172.2784
62.200001 96.540 171.8041
63.000000 96.469 171.5939
64.000000 96.459 171.6578
65.000000 96.514 171.1415
66.000000 96.477 170.2614
67.000000 96.392 169.9810
68.000000 96.374 169.8879
69.000000 96.352 169.4325
70.000000 96.275 169.0826
71.000000 96.215 169.0526
72.000000 96.203 168.8530
73.000000 96.166 168.3975
74.000000 96.107 168.2141
75.000000 96.104 168.1586
76.199997 96.115 167.7502
77.500000 96.082 167.2887
78.800003 96.023 167.1192
80.000000 95.999 167.0310
81.199997 95.955 166.7055
82.500000 95.887 166.4246
83.800003 95.812 166.1631
85.000000 95.754 166.1273
86.199997 95.737 166.1042
87.500000 95.743 165.9619
88.500000 95.761 165.7190
90.000000 95.779 164.9900
91.199997 95.736 164.1588
92.500000 95.613 163.7284
93.800003 95.544 163.9537
95.000000 95.543 164.0285
96.199997 95.522 163.8674
97.500000 95.450 163.7197
98.800003 95.363 163.7601
100.000000 95.305 163.7819
101.500000 95.256 163.5286
103.000000 95.195 163.0565
104.400002 95.132 162.7532
106.000000 95.072 162.5444
107.500000 95.014 162.5008
109.000000 94.971 162.5801
110.599998 94.952 162.6030
112.000000 94.938 162.4414
113.800003 94.896 162.1970
115.000000 94.862 162.0948
117.199997 94.802 162.0267
118.000000 94.784 162.0271
120.599998 94.719 161.7574
122.000000 94.613 161.5011
124.099998 94.372 161.4704
125.000000 94.262 161.5611
126.500000 94.103 161.8530
128.000000 94.038 162.2939
131.500000 94.250 161.8849
132.000000 94.273 161.6626
134.000000 94.283 161.0050
136.000000 94.244 160.8918
138.000000 94.203 160.8584
140.000000 94.144 160.9114
143.000000 94.018 161.1105
145.000000 93.934 161.0341
147.500000 93.861 160.4966
150.000000 93.868 159.9929
152.500000 93.879 159.6723
155.000000 93.764 160.0797
157.500000 93.604 160.9420
160.000000 93.476 161.6515
162.500000 93.493 161.9979
165.000000 93.619 161.9247
167.500000 93.675 161.8453
170.000000 93.626 161.6664
172.500000 93.500 160.5090
175.000000 93.369 159.4348
177.500000 93.378 159.3988
180.000000 93.418 159.9678
182.500000 93.376 160.6423
185.000000 93.265 161.2991
187.500000 93.108 161.9306
190.000000 92.880 162.2302
192.500000 92.663 162.0109
195.000000 92.616 161.2410
197.500000 92.680 160.5017
200.000000 92.688 160.3457
203.000000 92.578 160.5645
206.000000 92.523 161.0195
209.000000 92.564 161.9553
212.000000 92.525 163.0169
214.000000 92.446 163.2336
218.000000 92.336 162.7992
220.000000 92.325 162.5672
224.000000 92.255 162.3230
227.000000 92.209 162.3195
230.000000 92.173 162.6556
233.000000 92.124 162.9790
236.000000 92.059 162.9435
240.000000 91.984 162.9826
243.000000 91.929 163.0729
247.000000 91.874 163.3179
250.000000 91.825 163.7397
254.000000 91.715 164.1795
258.000000 91.638 164.3025
262.000000 91.611 164.4008
265.000000 91.560 164.5026
269.000000 91.497 164.7032
272.000000 91.465 164.9113
276.000000 91.408 165.2591
280.000000 91.376 165.6793
285.000000 91.374 166.0781
290.000000 91.309 166.3807
295.000000 91.192 166.8259
300.000000 91.099 167.1746
304.000000 91.074 167.2965
307.000000 91.091 167.4015
311.000000 91.108 167.7138
315.000000 91.070 168.0425
320.000000 91.017 168.4061
325.000000 90.962 169.0654
330.000000 90.876 169.5505
335.000000 90.847 169.6023
340.000000 90.841 169.7575
345.000000 90.825 170.3993
350.000000 90.760 171.2167
355.000000 90.658 171.4347
360.000000 90.606 171.7094
365.000000 90.579 171.9851
370.000000 90.504 171.9826
375.000000 90.423 172.9650
382.000000 90.560 173.6284
387.000000 90.534 172.6065
395.000000 90.193 173.7584
400.000000 90.177 176.0410
406.000000 90.375 177.0948
412.000000 90.482 176.2229
418.000000 90.449 175.8221
425.000000 90.320 176.6271
431.000000 90.210 177.1593
437.000000 90.119 177.1718
444.000000 90.055 177.8549
450.000000 90.153 179.2260
455.000000 90.266 179.8920
462.000000 90.172 179.5032
468.000000 89.937 179.4166
475.000000 89.827 -179.8773
482.000000 89.860 -179.4139
487.000000 89.857 -179.2998
494.000000 89.810 -178.8368
500.000000 89.793 -178.2085
508.000000 89.839 -177.4361
515.000000 89.828 -176.8868
522.000000 89.803 -176.2337
530.000000 89.759 -175.3869
538.000000 89.696 -174.7671
545.000000 89.684 -174.4181
552.000000 89.677 -173.9163
560.000000 89.661 -173.2248
570.000000 89.629 -172.2648
580.000000 89.589 -171.5353
590.000000 89.555 -170.9152
600.000000 89.510 -170.4506
608.000000 89.385 -170.4647
615.000000 89.298 -170.5450
622.000000 89.370 -170.1190
630.000000 89.498 -168.5251
640.000000 89.503 -166.9090
650.000000 89.478 -166.0458
660.000000 89.476 -165.3974
670.000000 89.470 -164.5401
680.000000 89.462 -163.5530
690.000000 89.451 -162.7033
700.000000 89.452 -161.8810
710.000000 89.474 -160.9348
720.000000 89.506 -160.0127
730.000000 89.524 -159.1331
740.000000 89.540 -158.3035
750.000000 89.561 -157.5691
762.000000 89.585 -156.6965
775.000000 89.626 -155.8588
788.000000 89.678 -154.7586
800.000000 89.720 -153.7269
812.000000 89.748 -152.8493
825.000000 89.799 -151.8383
838.000000 89.832 -150.8442
850.000000 89.869 -150.0009
862.000000 89.916 -149.2948
875.000000 89.940 -148.4440
885.000000 89.990 -147.6470
900.000000 90.101 -146.3904
912.000000 90.171 -145.5576
925.000000 90.242 -144.7581
938.000000 90.314 -143.9205
950.000000 90.387 -143.1654
962.000000 90.464 -142.4510
975.000000 90.546 -141.6826
988.000000 90.624 -140.9579
1000.000000 90.704 -140.3245
1015.000000 90.810 -139.5058
1030.000000 90.896 -138.7732
1044.000000 90.976 -138.1785
1060.000000 91.076 -137.4791
1075.000000 91.176 -136.8938
1090.000000 91.278 -136.3423
1106.000000 91.392 -135.7358
1120.000000 91.493 -135.2472
1138.000000 91.622 -134.6657
1150.000000 91.710 -134.2944
1172.000000 91.858 -133.6601
1180.000000 91.908 -133.4273
1206.000000 92.077 -132.6945
1220.000000 92.167 -132.3359
1241.000000 92.307 -131.8064
1250.000000 92.367 -131.6055
1265.000000 92.466 -131.2753
1280.000000 92.566 -130.9384
1315.000000 92.774 -130.0356
1320.000000 92.802 -129.9259
1340.000000 92.902 -129.5372
1360.000000 92.985 -129.0598
1380.000000 93.081 -128.6039
1400.000000 93.190 -128.1159
1430.000000 93.350 -127.4621
1450.000000 93.456 -127.0382
1475.000000 93.597 -126.5429
1500.000000 93.733 -126.0536
1525.000000 93.852 -125.5112
1550.000000 93.971 -125.0057
1575.000000 94.098 -124.5195
1600.000000 94.232 -124.0847
1625.000000 94.366 -123.7471
1650.000000 94.490 -123.4695
1675.000000 94.603 -123.2057
1700.000000 94.706 -122.9328
1725.000000 94.806 -122.6504
1750.000000 94.904 -122.3864
1775.000000 94.997 -122.0785
1800.000000 95.090 -121.7742
1825.000000 95.184 -121.4912
1850.000000 95.276 -121.1831
1875.000000 95.365 -120.8851
1900.000000 95.454 -120.5853
1925.000000 95.540 -120.2877
1950.000000 95.625 -119.9937
1975.000000 95.712 -119.7142
2000.000000 95.801 -119.4724
2030.000000 95.906 -119.1987
2060.000000 96.012 -118.9645
2090.000000 96.114 -118.7534
2120.000000 96.208 -118.5412
2140.000000 96.268 -118.4066
2180.000000 96.378 -118.1028
2200.000000 96.427 -117.9270
2240.000000 96.520 -117.4985
2270.000000 96.597 -117.0814
2300.000000 96.687 -116.5896
2330.000000 96.793 -116.0229
2360.000000 96.925 -115.5038
2400.000000 97.139 -115.0963
2430.000000 97.305 -115.0342
2470.000000 97.507 -115.2361
2500.000000 97.641 -115.5331
2540.000000 97.792 -116.0389
2580.000000 97.910 -116.5935
2620.000000 97.997 -117.1435
2650.000000 98.043 -117.5270
2690.000000 98.088 -118.0002
2720.000000 98.120 -118.3249
2760.000000 98.160 -118.6594
2800.000000 98.190 -118.9358
2850.000000 98.213 -119.2975
2900.000000 98.221 -119.6446
2950.000000 98.222 -119.9469
3000.000000 98.216 -120.1840
3040.000000 98.212 -120.3561
3070.000000 98.208 -120.4897
3110.000000 98.196 -120.6743
3150.000000 98.174 -120.8402
3200.000000 98.134 -121.0172
3250.000000 98.082 -121.1254
3300.000000 98.026 -121.1665
3350.000000 97.972 -121.1639
3400.000000 97.914 -121.0940
3450.000000 97.858 -121.0016
3500.000000 97.799 -120.8787
3550.000000 97.737 -120.7145
3600.000000 97.680 -120.5314
3650.000000 97.621 -120.3305
3700.000000 97.552 -120.0896
3750.000000 97.478 -119.8044
3820.000000 97.372 -119.3246
3870.000000 97.292 -118.9014
3950.000000 97.166 -118.1155
4000.000000 97.093 -117.5594
4060.000000 97.018 -116.8792
4120.000000 96.946 -116.2035
4180.000000 96.876 -115.5687
4250.000000 96.790 -114.8864
4310.000000 96.709 -114.2977
4370.000000 96.613 -113.6753
4440.000000 96.490 -112.9185
4500.000000 96.383 -112.2492
4550.000000 96.290 -111.6616
4620.000000 96.158 -110.8032
4680.000000 96.039 -110.0227
4750.000000 95.901 -109.0696
4820.000000 95.772 -108.0988
4870.000000 95.677 -107.3746
4940.000000 95.540 -106.3352
5000.000000 95.423 -105.4195
5080.000000 95.261 -104.1356
5150.000000 95.116 -102.9479
5220.000000 94.970 -101.6875
5300.000000 94.810 -100.1737
5380.000000 94.660 -98.5942
5450.000000 94.535 -97.1594
5520.000000 94.414 -95.6726
5600.000000 94.282 -93.9117
5700.000000 94.135 -91.6397
5800.000000 93.999 -89.2744
5900.000000 93.881 -86.8404
6000.000000 93.781 -84.3202
6080.000000 93.720 -82.2689
6150.000000 93.674 -80.4374
6220.000000 93.639 -78.5796
6300.000000 93.615 -76.4484
6400.000000 93.609 -73.7656
6500.000000 93.637 -71.0863
6600.000000 93.704 -68.4355
6700.000000 93.807 -65.8428
6800.000000 93.949 -63.3363
6900.000000 94.152 -60.9621
7000.000000 94.413 -58.7538
7100.000000 94.719 -56.7494
7200.000000 95.074 -55.0400
7300.000000 95.464 -53.7054
7400.000000 95.885 -52.8588
7500.000000 96.331 -52.5871
7620.000000 96.889 -53.1220
7750.000000 97.477 -54.9423
7880.000000 97.898 -58.1359
8000.000000 98.101 -62.2238
8120.000000 98.085 -67.0574
8250.000000 97.785 -72.5235
8380.000000 97.200 -77.5323
8500.000000 96.450 -81.2770
8620.000000 95.544 -83.9321
8750.000000 94.435 -85.4886
8850.000000 93.526 -85.7433
9000.000000 92.127 -84.6285
9120.000000 91.030 -82.5432
9250.000000 89.895 -79.2456
9380.000000 88.837 -75.0862
9500.000000 87.949 -70.6855
9620.000000 87.149 -65.9017
9750.000000 86.376 -60.4209
9880.000000 85.693 -54.7293
10000.000000 85.136 -49.3607
10150.000000 84.530 -42.5653
10300.000000 84.003 -35.7147
10440.000000 83.568 -29.3006
10600.000000 83.135 -21.9747
10750.000000 82.793 -15.1335
10900.000000 82.506 -8.3191
11060.000000 82.257 -1.0873
11200.000000 82.089 5.1831
11380.000000 81.935 13.1513
11500.000000 81.869 18.3892
11720.000000 81.813 27.8056
11800.000000 81.815 31.1577
12060.000000 81.909 41.7190
12200.000000 81.996 47.1806
12410.000000 82.155 55.0409
12500.000000 82.235 58.2777
12650.000000 82.387 63.4944
12800.000000 82.555 68.5034
13150.000000 83.008 79.4910
13200.000000 83.081 80.9899
13400.000000 83.393 86.8152
13600.000000 83.755 92.3098
13800.000000 84.180 97.3501
14000.000000 84.664 101.7576
14300.000000 85.456 106.8099
14500.000000 85.965 108.9505
14750.000000 86.483 110.2213
15000.000000 86.805 110.3298
15250.000000 86.921 109.9312
15500.000000 86.911 109.4542
15750.000000 86.821 108.7563
16000.000000 86.532 107.3009
16250.000000 85.766 106.9991
16500.000000 84.936 111.0146
16750.000000 84.664 114.4677
17000.000000 84.331 114.8143
17250.000000 83.593 114.5302
17500.000000 82.503 115.5240
17750.000000 81.188 118.5980
18000.000000 79.777 123.8663
18250.000000 78.402 131.0692
18500.000000 77.200 139.8542
18750.000000 76.324 149.9010
19000.000000 75.797 160.9732
19250.000000 75.407 172.9138
19500.000000 74.925 -174.4360
19750.000000 74.341 -161.1349
20000.000000 73.740 -147.2616
20300.000000 73.195 -130.0866
20600.000000 73.051 -112.5023
20900.000000 73.355 -95.0994
21200.000000 74.094 -78.8279
21400.000000 74.728 -69.2451
21800.000000 75.386 -58.3619
22000.000000 74.722 -73.4653
22400.000000 70.565 -123.5880
22700.000000 65.418 -91.0334
23000.000000 59.086 157.4185
23300.000000 52.402 174.1875
23600.000000 48.479 99.8906
24000.000000 49.315 -35.0859
