* Measurement data measured by REW V5.20.13
* Source: Microphone (Realtek(R) Audio), MICROPHONE (Master Volume), L, volume: 0.710. Timing signal peak level -36.8 dBFS, measurement signal peak level -37.2 dBFS
* Format: 2M Log Swept Sine, 1 sweep at -12.0 dBFS using an acoustic timing reference
* Dated: Sep 21, 2023 7:11:35 AM
* REW Settings:
*  C-weighting compensation: Off
*  Target level: 75.0 dB
* Note: ; Delay -0.0522 ms (-18 mm, -0.71 in) using estimated IR delay relative to Acoustic reference played from HEADPHONE L with no timing offset Clock adjustment: 120.5 ppm
* Measurement: Moondrop Chu W1 L
* Smoothing: 1/24 octave
* Frequency Step: 1/48 octave
* Start Frequency: 1.000 Hz
*
* Freq(Hz) SPL(dB) Phase(degrees)
1.000000 65.745 140.2188
1.015000 65.870 143.4226
1.030000 66.002 146.4405
1.044000 66.133 149.0707
1.060000 66.292 151.8337
1.075000 66.452 154.1668
1.090000 66.625 156.2292
1.106000 66.823 158.1173
1.120000 67.005 159.5545
1.138000 67.248 161.1375
1.150000 67.415 162.0363
1.172000 67.733 163.3805
1.180000 67.852 163.7776
1.206000 68.248 164.7578
1.220000 68.467 165.1041
1.241000 68.802 165.4104
1.250000 68.948 165.4700
1.265000 69.192 165.4829
1.280000 69.439 165.3975
1.315000 70.021 164.8799
1.320000 70.104 164.7756
1.340000 70.438 164.3000
1.360000 70.771 163.7504
1.380000 71.102 163.1537
1.400000 71.429 162.5368
1.430000 71.910 161.6321
1.450000 72.222 161.0820
1.475000 72.603 160.4649
1.500000 72.986 159.6472
1.525000 73.373 158.5897
1.550000 73.763 157.3297
1.575000 74.154 155.9047
1.600000 74.544 154.3521
1.625000 74.931 152.7093
1.650000 75.314 151.0137
1.675000 75.691 149.3029
1.700000 76.060 147.6141
1.725000 76.419 145.9849
1.750000 76.767 144.4527
1.775000 77.101 143.0549
1.800000 77.421 141.8289
1.825000 77.724 140.8121
1.850000 78.010 140.0135
1.875000 78.280 139.3725
1.900000 78.537 138.8670
1.925000 78.780 138.4768
1.950000 79.012 138.1822
1.975000 79.233 137.9630
2.000000 79.445 137.7993
2.030000 79.690 137.6481
2.060000 79.924 137.5136
2.090000 80.152 137.3613
2.120000 80.374 137.1566
2.140000 80.520 136.9740
2.180000 80.810 136.4522
2.200000 80.955 136.0928
2.240000 81.237 135.2364
2.270000 81.437 134.5115
2.300000 81.629 133.7301
2.330000 81.815 132.9051
2.360000 81.994 132.0493
2.400000 82.225 130.8828
2.430000 82.395 130.0055
2.470000 82.617 128.8570
2.500000 82.783 128.0282
2.540000 83.003 126.9913
2.580000 83.226 126.0536
2.620000 83.447 125.1777
2.650000 83.611 124.5496
2.690000 83.826 123.7442
2.720000 83.985 123.1600
2.760000 84.194 122.4013
2.800000 84.398 121.6585
2.850000 84.647 120.7404
2.900000 84.889 119.8198
2.950000 85.122 118.8858
3.000000 85.346 117.9670
3.040000 85.520 117.2449
3.070000 85.647 116.7085
3.110000 85.813 115.9975
3.150000 85.975 115.2879
3.200000 86.172 114.3975
3.250000 86.364 113.4969
3.300000 86.552 112.5790
3.350000 86.736 111.6310
3.400000 86.913 110.6567
3.450000 87.085 109.6706
3.500000 87.253 108.6872
3.550000 87.415 107.7209
3.600000 87.574 106.7860
3.650000 87.728 105.8971
3.700000 87.879 105.0662
3.750000 88.025 104.2876
3.820000 88.222 103.2586
3.870000 88.358 102.5482
3.950000 88.568 101.4149
4.000000 88.696 100.6869
4.060000 88.845 99.7723
4.120000 88.988 98.8211
4.180000 89.127 97.8523
4.250000 89.283 96.7245
4.310000 89.413 95.7811
4.370000 89.540 94.8787
4.440000 89.684 93.8976
4.500000 89.804 93.1091
4.550000 89.901 92.4781
4.620000 90.034 91.6182
4.680000 90.144 90.8878
4.750000 90.271 90.0237
4.820000 90.395 89.1367
4.870000 90.481 88.4980
4.940000 90.598 87.6041
5.000000 90.696 86.8449
5.080000 90.824 85.8539
5.150000 90.934 85.0166
5.220000 91.041 84.2073
5.300000 91.159 83.3075
5.380000 91.275 82.4256
5.450000 91.373 81.6608
5.520000 91.469 80.8967
5.600000 91.576 80.0296
5.700000 91.706 78.9587
5.800000 91.831 77.9027
5.900000 91.953 76.8622
6.000000 92.070 75.8367
6.080000 92.161 75.0273
6.150000 92.239 74.3276
6.220000 92.314 73.6362
6.300000 92.398 72.8571
6.400000 92.500 71.8994
6.500000 92.597 70.9563
6.600000 92.691 70.0244
6.700000 92.782 69.1010
6.800000 92.869 68.1892
6.900000 92.953 67.2938
7.000000 93.033 66.4195
7.100000 93.111 65.5656
7.200000 93.186 64.7294
7.300000 93.258 63.9089
7.400000 93.327 63.1020
7.500000 93.393 62.3094
7.620000 93.470 61.3811
7.750000 93.549 60.4087
7.880000 93.625 59.4704
8.000000 93.692 58.6312
8.120000 93.757 57.8155
8.250000 93.826 56.9602
8.380000 93.893 56.1312
8.500000 93.954 55.3878
8.620000 94.013 54.6674
8.750000 94.077 53.9060
8.850000 94.125 53.3307
9.000000 94.197 52.4890
9.120000 94.254 51.8272
9.250000 94.316 51.1182
9.380000 94.379 50.4200
9.500000 94.434 49.7771
9.620000 94.486 49.1318
9.750000 94.541 48.4331
9.880000 94.587 47.7319
10.000000 94.620 47.0775
10.150000 94.652 46.2561
10.300000 94.673 45.4501
10.440000 94.681 44.7108
10.600000 94.683 43.8857
10.750000 94.681 43.1374
10.900000 94.675 42.4111
11.060000 94.668 41.6593
11.200000 94.660 41.0197
11.380000 94.648 40.2330
11.500000 94.640 39.7350
11.720000 94.626 38.8637
11.800000 94.623 38.5593
12.060000 94.616 37.6050
12.200000 94.617 37.0897
12.410000 94.623 36.3162
12.500000 94.625 35.9797
12.650000 94.629 35.4127
12.800000 94.632 34.8408
13.150000 94.629 33.4886
13.200000 94.628 33.2982
13.400000 94.619 32.5398
13.600000 94.607 31.8149
13.800000 94.592 31.1339
14.000000 94.578 30.5011
14.300000 94.560 29.6392
14.500000 94.554 29.1118
14.750000 94.556 28.4670
15.000000 94.569 27.8168
15.250000 94.591 27.1180
15.500000 94.613 26.3774
15.750000 94.632 25.6057
16.000000 94.641 24.8349
16.250000 94.644 24.1014
16.500000 94.643 23.4203
16.750000 94.643 22.8093
17.000000 94.651 22.2404
17.250000 94.668 21.6862
17.500000 94.692 21.1080
17.750000 94.716 20.4716
18.000000 94.734 19.7845
18.250000 94.739 19.0563
18.500000 94.727 18.3575
18.750000 94.701 17.7378
19.000000 94.667 17.2430
19.250000 94.637 16.8998
19.500000 94.621 16.6643
19.750000 94.626 16.4962
20.000000 94.657 16.2844
20.299999 94.713 15.8657
20.600000 94.774 15.2011
20.900000 94.816 14.2965
21.200001 94.820 13.2550
21.400000 94.798 12.5804
21.799999 94.710 11.4293
22.000000 94.657 11.0054
22.400000 94.562 10.4655
22.700001 94.521 10.2165
23.000000 94.510 9.9530
23.299999 94.517 9.5837
23.600000 94.529 9.0963
24.000000 94.535 8.3277
24.299999 94.529 7.7495
24.700001 94.516 7.0505
25.000000 94.508 6.5792
25.400000 94.505 5.9819
25.799999 94.503 5.4032
26.200001 94.498 4.8882
26.500000 94.496 4.5724
26.900000 94.505 4.2274
27.200001 94.521 3.9703
27.600000 94.549 3.5530
28.000000 94.563 3.0457
28.500000 94.545 2.4501
29.000000 94.510 2.0906
29.500000 94.492 1.8860
30.000000 94.493 1.5545
30.400000 94.481 1.1236
30.700001 94.455 0.7541
31.100000 94.403 0.2919
31.500000 94.342 -0.1143
32.000000 94.264 -0.6290
32.500000 94.171 -1.1891
33.000000 94.053 -1.5905
33.500000 93.953 -1.6540
34.000000 93.930 -1.6152
34.500000 93.971 -1.9737
35.000000 93.996 -2.8589
35.500000 93.950 -3.8117
36.000000 93.872 -4.3224
36.500000 93.845 -4.4482
37.000000 93.888 -4.7295
37.500000 93.932 -5.4842
38.200001 93.871 -6.7233
38.700001 93.765 -7.0679
39.500000 93.692 -6.7816
40.000000 93.727 -6.7816
40.599998 93.766 -7.3196
41.200001 93.735 -8.1065
41.799999 93.647 -8.6963
42.500000 93.542 -9.0058
43.099998 93.483 -9.1583
43.700001 93.443 -9.3645
44.400002 93.406 -9.6840
45.000000 93.376 -10.0001
45.500000 93.349 -10.2845
46.200001 93.303 -10.6564
46.799999 93.262 -10.8852
47.500000 93.230 -11.0931
48.200001 93.209 -11.3773
48.700001 93.189 -11.6396
49.400002 93.147 -12.0011
50.000000 93.109 -12.2659
50.799999 93.066 -12.6304
51.500000 93.026 -13.0094
52.200001 92.979 -13.3809
53.000000 92.926 -13.7427
53.799999 92.878 -14.0984
54.500000 92.831 -14.4181
55.200001 92.776 -14.7114
56.000000 92.703 -14.9857
57.000000 92.604 -15.1663
58.000000 92.519 -15.3317
59.000000 92.412 -15.4866
60.000000 92.336 -15.2669
60.799999 92.348 -15.2702
61.500000 92.360 -15.6310
62.200001 92.338 -16.0783
63.000000 92.293 -16.4343
64.000000 92.246 -16.7002
65.000000 92.205 -16.9138
66.000000 92.154 -17.0988
67.000000 92.091 -17.1755
68.000000 92.037 -17.2000
69.000000 91.986 -17.3110
70.000000 91.929 -17.4810
71.000000 91.874 -17.6307
72.000000 91.832 -17.8056
73.000000 91.790 -18.0577
74.000000 91.740 -18.2879
75.000000 91.692 -18.4644
76.199997 91.639 -18.6833
77.500000 91.566 -18.9858
78.800003 91.474 -19.1029
80.000000 91.408 -19.1240
81.199997 91.352 -19.1435
82.500000 91.300 -19.2480
83.800003 91.232 -19.3378
85.000000 91.180 -19.3855
86.199997 91.123 -19.4975
87.500000 91.052 -19.5740
88.500000 91.000 -19.6064
90.000000 90.930 -19.6506
91.199997 90.882 -19.7401
92.500000 90.829 -19.8811
93.800003 90.774 -20.0287
95.000000 90.716 -20.1242
96.199997 90.656 -20.1224
97.500000 90.600 -20.0681
98.800003 90.546 -20.0638
100.000000 90.494 -20.0700
101.500000 90.440 -20.1242
103.000000 90.384 -20.2515
104.400002 90.323 -20.2883
106.000000 90.250 -20.1621
107.500000 90.186 -19.9797
109.000000 90.127 -19.8669
110.599998 90.067 -19.9954
112.000000 90.001 -20.1407
113.800003 89.942 -20.0925
115.000000 89.918 -20.0170
117.199997 89.821 -19.7167
118.000000 89.771 -19.4561
120.599998 89.702 -18.8400
122.000000 89.669 -19.1685
124.099998 89.584 -19.5701
125.000000 89.560 -19.6162
126.500000 89.528 -19.5709
128.000000 89.494 -19.4011
131.500000 89.392 -19.0798
132.000000 89.374 -19.0798
134.000000 89.303 -19.0928
136.000000 89.249 -19.0147
138.000000 89.210 -18.8559
140.000000 89.165 -18.7077
143.000000 89.082 -18.4365
145.000000 89.044 -18.2480
147.500000 89.009 -18.0960
150.000000 88.960 -17.9355
152.500000 88.897 -17.6834
155.000000 88.838 -17.3960
157.500000 88.771 -17.2111
160.000000 88.694 -17.0226
162.500000 88.627 -16.8313
165.000000 88.569 -16.6067
167.500000 88.517 -16.3371
170.000000 88.474 -16.0883
172.500000 88.437 -15.8717
175.000000 88.398 -15.6337
177.500000 88.339 -15.4408
180.000000 88.267 -15.2473
182.500000 88.225 -15.0276
185.000000 88.209 -14.7906
187.500000 88.185 -14.5249
190.000000 88.137 -14.3075
192.500000 88.082 -14.1757
195.000000 88.028 -14.0517
197.500000 87.980 -13.7872
200.000000 87.946 -13.4783
203.000000 87.909 -13.2331
206.000000 87.869 -13.0233
209.000000 87.836 -12.7245
212.000000 87.792 -12.3627
214.000000 87.756 -12.1109
218.000000 87.693 -11.7020
220.000000 87.674 -11.5541
224.000000 87.641 -11.2844
227.000000 87.614 -11.0347
230.000000 87.584 -10.7379
233.000000 87.543 -10.4442
236.000000 87.504 -10.2977
240.000000 87.458 -10.1711
243.000000 87.423 -9.7650
247.000000 87.379 -9.1665
250.000000 87.347 -8.8245
254.000000 87.315 -8.3986
258.000000 87.281 -7.9947
262.000000 87.251 -7.5899
265.000000 87.235 -7.2873
269.000000 87.225 -6.9015
272.000000 87.210 -6.6371
276.000000 87.179 -6.3206
280.000000 87.155 -5.9855
285.000000 87.119 -5.4573
290.000000 87.051 -5.0040
295.000000 87.019 -4.6462
300.000000 87.015 -4.2337
304.000000 86.995 -3.8679
307.000000 86.977 -3.5757
311.000000 86.958 -3.1964
315.000000 86.949 -2.8504
320.000000 86.946 -2.4274
325.000000 86.930 -2.0365
330.000000 86.910 -1.6647
335.000000 86.892 -1.2432
340.000000 86.873 -0.8214
345.000000 86.845 -0.4032
350.000000 86.819 0.0234
355.000000 86.793 0.3706
360.000000 86.775 0.6551
365.000000 86.767 1.0735
370.000000 86.757 1.5427
375.000000 86.742 1.9719
382.000000 86.717 2.5452
387.000000 86.696 2.9741
395.000000 86.673 3.6542
400.000000 86.662 4.0406
406.000000 86.642 4.4549
412.000000 86.626 4.8441
418.000000 86.604 5.2175
425.000000 86.578 5.9065
431.000000 86.567 6.4652
437.000000 86.563 6.8471
444.000000 86.558 7.3517
450.000000 86.545 7.8370
455.000000 86.532 8.2311
462.000000 86.518 8.7482
468.000000 86.513 9.1715
475.000000 86.509 9.6607
482.000000 86.504 10.2053
487.000000 86.498 10.6005
494.000000 86.480 11.0900
500.000000 86.459 11.5147
508.000000 86.437 12.1627
515.000000 86.437 12.7785
522.000000 86.443 13.3043
530.000000 86.445 13.8542
538.000000 86.452 14.4898
545.000000 86.454 14.9928
552.000000 86.448 15.4450
560.000000 86.447 16.0597
570.000000 86.455 16.7961
580.000000 86.456 17.4849
590.000000 86.452 18.2874
600.000000 86.467 19.1082
608.000000 86.476 19.6460
615.000000 86.476 20.1065
622.000000 86.476 20.6021
630.000000 86.480 21.1775
640.000000 86.482 21.8881
650.000000 86.492 22.5800
660.000000 86.504 23.2818
670.000000 86.510 24.0627
680.000000 86.531 24.8162
690.000000 86.551 25.5770
700.000000 86.566 26.3283
710.000000 86.584 27.0542
720.000000 86.603 27.7910
730.000000 86.625 28.5404
740.000000 86.650 29.2686
750.000000 86.671 30.0186
762.000000 86.699 30.9316
775.000000 86.727 31.9290
788.000000 86.769 32.8896
800.000000 86.810 33.7214
812.000000 86.844 34.5653
825.000000 86.888 35.4672
838.000000 86.941 36.3871
850.000000 86.996 37.2484
862.000000 87.051 38.1265
875.000000 87.099 39.1383
885.000000 87.140 39.9453
900.000000 87.223 41.1956
912.000000 87.320 42.2564
925.000000 87.477 43.2972
938.000000 87.641 43.7600
950.000000 87.719 43.8981
962.000000 87.755 44.2765
975.000000 87.804 44.9445
988.000000 87.873 45.7282
1000.000000 87.958 46.4482
1015.000000 88.074 47.1628
1030.000000 88.188 47.7391
1044.000000 88.280 48.2752
1060.000000 88.367 48.8691
1075.000000 88.462 49.3634
1090.000000 88.564 49.8704
1106.000000 88.676 50.4401
1120.000000 88.775 50.8527
1138.000000 88.907 51.3202
1150.000000 88.995 51.6914
1172.000000 89.152 52.3422
1180.000000 89.208 52.5440
1206.000000 89.384 53.1424
1220.000000 89.482 53.4547
1241.000000 89.625 53.8959
1250.000000 89.682 54.0809
1265.000000 89.771 54.3975
1280.000000 89.860 54.6950
1315.000000 90.083 55.4011
1320.000000 90.113 55.5059
1340.000000 90.218 55.9077
1360.000000 90.300 56.2863
1380.000000 90.384 56.6679
1400.000000 90.481 57.0336
1430.000000 90.635 57.5992
1450.000000 90.733 57.9951
1475.000000 90.855 58.4897
1500.000000 90.982 58.9638
1525.000000 91.101 59.4470
1550.000000 91.220 59.9162
1575.000000 91.334 60.3720
1600.000000 91.445 60.8070
1625.000000 91.547 61.2244
1650.000000 91.653 61.6425
1675.000000 91.763 62.0404
1700.000000 91.875 62.4603
1725.000000 91.986 62.8631
1750.000000 92.096 63.2327
1775.000000 92.200 63.5943
1800.000000 92.298 63.9658
1825.000000 92.399 64.3233
1850.000000 92.505 64.6306
1875.000000 92.610 64.9543
1900.000000 92.708 65.2892
1925.000000 92.804 65.5791
1950.000000 92.901 65.8549
1975.000000 92.994 66.1492
2000.000000 93.084 66.4304
2030.000000 93.188 66.7754
2060.000000 93.290 67.1746
2090.000000 93.394 67.6363
2120.000000 93.504 68.1968
2140.000000 93.586 68.6093
2180.000000 93.788 69.3687
2200.000000 93.907 69.6741
2240.000000 94.162 70.0231
2270.000000 94.348 70.0270
2300.000000 94.515 69.8377
2330.000000 94.660 69.5511
2360.000000 94.784 69.2477
2400.000000 94.923 68.8474
2430.000000 95.012 68.5678
2470.000000 95.122 68.2197
2500.000000 95.198 67.9725
2540.000000 95.292 67.6478
2580.000000 95.373 67.3514
2620.000000 95.446 67.0670
2650.000000 95.496 66.8635
2690.000000 95.555 66.5957
2720.000000 95.594 66.3950
2760.000000 95.641 66.1323
2800.000000 95.682 65.8727
2850.000000 95.720 65.5569
2900.000000 95.745 65.2888
2950.000000 95.763 65.0528
3000.000000 95.769 64.8514
3040.000000 95.770 64.7140
3070.000000 95.767 64.6241
3110.000000 95.761 64.5299
3150.000000 95.753 64.4518
3200.000000 95.738 64.3774
3250.000000 95.715 64.3315
3300.000000 95.685 64.3019
3350.000000 95.650 64.2889
3400.000000 95.609 64.3118
3450.000000 95.562 64.3681
3500.000000 95.507 64.4757
3550.000000 95.442 64.6658
3600.000000 95.373 64.9920
3650.000000 95.305 65.4823
3700.000000 95.246 66.1143
3750.000000 95.203 66.8354
3820.000000 95.169 67.8882
3870.000000 95.158 68.6314
3950.000000 95.155 69.7906
4000.000000 95.164 70.4936
4060.000000 95.185 71.3177
4120.000000 95.219 72.0990
4180.000000 95.263 72.8130
4250.000000 95.320 73.5413
4310.000000 95.366 74.0834
4370.000000 95.403 74.5659
4440.000000 95.436 75.0439
4500.000000 95.460 75.3885
4550.000000 95.479 75.6436
4620.000000 95.504 75.9755
4680.000000 95.520 76.2225
4750.000000 95.536 76.4475
4820.000000 95.547 76.6211
4870.000000 95.552 76.7180
4940.000000 95.552 76.8131
5000.000000 95.545 76.8596
5080.000000 95.523 76.8834
5150.000000 95.494 76.8757
5220.000000 95.456 76.8546
5300.000000 95.395 76.8281
5380.000000 95.320 76.8008
5450.000000 95.242 76.7966
5520.000000 95.154 76.8232
5600.000000 95.043 76.9076
5700.000000 94.884 77.1312
5800.000000 94.710 77.5425
5900.000000 94.536 78.2052
6000.000000 94.390 79.0189
6080.000000 94.287 79.6192
6150.000000 94.192 80.1243
6220.000000 94.089 80.6880
6300.000000 93.970 81.4290
6400.000000 93.834 82.4982
6500.000000 93.714 83.7230
6600.000000 93.615 85.0702
6700.000000 93.552 86.4950
6800.000000 93.531 87.9408
6900.000000 93.567 89.3315
7000.000000 93.664 90.6337
7100.000000 93.798 91.8199
7200.000000 93.967 92.8424
7300.000000 94.176 93.6501
7400.000000 94.421 94.1338
7500.000000 94.699 94.1859
7620.000000 95.084 93.5387
7750.000000 95.534 91.6891
7880.000000 95.862 88.2557
8000.000000 95.971 83.5678
8120.000000 95.806 77.8134
8250.000000 95.239 71.4575
8380.000000 94.288 66.3342
8500.000000 93.167 63.4565
8620.000000 91.935 62.5115
8750.000000 90.576 63.4090
8850.000000 89.561 65.2020
9000.000000 88.129 69.2473
9120.000000 87.077 73.3714
9250.000000 86.030 78.5770
9380.000000 85.071 84.4645
9500.000000 84.266 90.4644
9620.000000 83.548 96.9785
9750.000000 82.884 104.6297
9880.000000 82.352 112.8630
10000.000000 82.003 120.8872
10150.000000 81.813 131.2603
10300.000000 81.941 141.5102
10440.000000 82.332 150.2616
10600.000000 82.995 158.4553
10750.000000 83.672 164.0450
10900.000000 84.270 167.9781
11060.000000 84.753 171.1089
11200.000000 85.048 173.5931
11380.000000 85.315 177.1507
11500.000000 85.479 179.8988
11720.000000 85.840 -174.4427
11800.000000 86.010 -172.2506
12060.000000 86.786 -164.9259
12200.000000 87.383 -161.0793
12410.000000 88.579 -155.9687
12500.000000 89.226 -154.2231
12650.000000 90.516 -152.3626
12800.000000 92.056 -152.6269
13150.000000 95.515 -169.3685
13200.000000 95.796 -174.0651
13400.000000 95.925 164.5452
13600.000000 94.512 147.0316
13800.000000 92.243 138.6707
14000.000000 89.946 137.4451
14300.000000 87.249 142.2543
14500.000000 85.964 147.4866
14750.000000 84.819 154.9389
15000.000000 84.097 162.6131
15250.000000 83.735 169.9974
15500.000000 83.719 176.5929
15750.000000 84.004 -178.2415
16000.000000 84.463 -175.3345
16250.000000 84.905 -175.4942
16500.000000 85.082 -178.8317
16750.000000 84.754 175.6482
17000.000000 83.860 169.0206
17250.000000 82.515 151.8624
17500.000000 80.995 42.1765
17750.000000 79.886 -18.9537
18000.000000 79.436 -13.2677
18250.000000 78.322 8.2793
18500.000000 76.328 -92.1118
18750.000000 74.188 34.3982
19000.000000 72.016 -48.0361
19250.000000 70.225 177.9053
19500.000000 69.202 170.5093
19750.000000 69.554 10.3574
20000.000000 70.172 58.7227
20300.000000 68.853 -57.2036
20600.000000 65.796 -154.3062
20900.000000 63.750 -155.5322
21200.000000 62.941 -157.0059
21400.000000 62.691 174.7065
21800.000000 62.858 -27.6611
22000.000000 63.453 104.3823
22400.000000 66.206 97.3613
22700.000000 68.132 136.8301
23000.000000 68.876 -48.9297
23300.000000 68.805 177.7500
23600.000000 68.357 86.9219
24000.000000 67.867 -109.6250
