* Measurement data measured by REW V5.20.13
* Source: Headset (DS by VECLAN.COM), MICROPHONE (Master Volume), L, volume: 0.880. Timing signal peak level -16.0 dBFS, measurement signal peak level -14.8 dBFS
* Format: 2M Log Swept Sine, 1 sweep at -12.0 dBFS using an acoustic timing reference
* Dated: Nov 11, 2023 5:20:40 PM
* REW Settings:
*  C-weighting compensation: Off
*  Target level: 75.0 dB
* Note: ; Delay -0.0618 ms (-21 mm, -0.84 in) using estimated IR delay relative to Acoustic reference played from HEADPHONE L with no timing offset
* Measurement: Moondrop KATO S3 L
* Smoothing: 1/24 octave
* Frequency Step: 1/48 octave
* Start Frequency: 1.000 Hz
*
* Freq(Hz) SPL(dB) Phase(degrees)
1.000000 69.676 17.0751
1.015000 69.649 16.5073
1.030000 69.635 15.8658
1.044000 69.633 15.1983
1.060000 69.646 14.3514
1.075000 69.674 13.4734
1.090000 69.719 12.5114
1.106000 69.786 11.3793
1.120000 69.861 10.2426
1.138000 69.978 8.5809
1.150000 70.067 7.3584
1.172000 70.255 4.9051
1.180000 70.331 3.9516
1.206000 70.598 0.6597
1.220000 70.755 -1.2172
1.241000 71.006 -4.1398
1.250000 71.118 -5.4237
1.265000 71.311 -7.5947
1.280000 71.510 -9.7929
1.315000 71.993 -14.9520
1.320000 72.064 -15.6851
1.340000 72.348 -18.5877
1.360000 72.635 -21.4187
1.380000 72.920 -24.1460
1.400000 73.203 -26.7378
1.430000 73.616 -30.3011
1.450000 73.880 -32.4139
1.475000 74.197 -34.7239
1.500000 74.517 -36.8192
1.525000 74.844 -38.7526
1.550000 75.178 -40.5365
1.575000 75.517 -42.1833
1.600000 75.858 -43.7054
1.625000 76.201 -45.1151
1.650000 76.544 -46.4247
1.675000 76.886 -47.6467
1.700000 77.225 -48.7935
1.725000 77.559 -49.8773
1.750000 77.888 -50.9106
1.775000 78.209 -51.9058
1.800000 78.522 -52.8751
1.825000 78.824 -53.8311
1.850000 79.116 -54.7531
1.875000 79.402 -55.5749
1.900000 79.683 -56.3040
1.925000 79.959 -56.9514
1.950000 80.230 -57.5281
1.975000 80.496 -58.0448
2.000000 80.758 -58.5128
2.030000 81.065 -59.0252
2.060000 81.365 -59.5019
2.090000 81.660 -59.9618
2.120000 81.948 -60.4239
2.140000 82.137 -60.7425
2.180000 82.507 -61.4302
2.200000 82.689 -61.8102
2.240000 83.043 -62.5850
2.270000 83.300 -63.1579
2.300000 83.550 -63.7237
2.330000 83.793 -64.2822
2.360000 84.031 -64.8336
2.400000 84.339 -65.5575
2.430000 84.564 -66.0919
2.470000 84.857 -66.7931
2.500000 85.071 -67.3104
2.540000 85.350 -67.9886
2.580000 85.622 -68.6521
2.620000 85.886 -69.2906
2.650000 86.077 -69.7543
2.690000 86.324 -70.3571
2.720000 86.503 -70.8007
2.760000 86.736 -71.3856
2.800000 86.962 -71.9682
2.850000 87.235 -72.7021
2.900000 87.499 -73.4529
2.950000 87.755 -74.2312
3.000000 88.000 -75.0366
3.040000 88.188 -75.6941
3.070000 88.325 -76.1914
3.110000 88.501 -76.8562
3.150000 88.673 -77.5182
3.200000 88.879 -78.3342
3.250000 89.079 -79.1282
3.300000 89.272 -79.8903
3.350000 89.458 -80.6219
3.400000 89.634 -81.3313
3.450000 89.803 -82.0223
3.500000 89.964 -82.6991
3.550000 90.119 -83.3654
3.600000 90.269 -84.0251
3.650000 90.414 -84.6824
3.700000 90.554 -85.3408
3.750000 90.687 -85.9994
3.820000 90.864 -86.9134
3.870000 90.984 -87.5544
3.950000 91.167 -88.5470
4.000000 91.278 -89.1398
4.060000 91.407 -89.8167
4.120000 91.529 -90.4596
4.180000 91.646 -91.0737
4.250000 91.777 -91.7605
4.310000 91.885 -92.3294
4.370000 91.991 -92.8851
4.440000 92.113 -93.5193
4.500000 92.213 -94.0436
4.550000 92.294 -94.4676
4.620000 92.406 -95.0439
4.680000 92.500 -95.5236
4.750000 92.609 -96.0695
4.820000 92.718 -96.5968
4.870000 92.795 -96.9584
4.940000 92.901 -97.4495
5.000000 92.991 -97.8621
5.080000 93.111 -98.4095
5.150000 93.216 -98.8935
5.220000 93.320 -99.3723
5.300000 93.440 -99.9138
5.380000 93.558 -100.4574
5.450000 93.661 -100.9414
5.520000 93.763 -101.4382
5.600000 93.878 -102.0154
5.700000 94.022 -102.7502
5.800000 94.162 -103.5030
5.900000 94.297 -104.2774
6.000000 94.430 -105.0744
6.080000 94.533 -105.7255
6.150000 94.620 -106.3032
6.220000 94.704 -106.8865
6.300000 94.797 -107.5637
6.400000 94.908 -108.4275
6.500000 95.013 -109.2980
6.600000 95.113 -110.1614
6.700000 95.206 -111.0212
6.800000 95.294 -111.8792
6.900000 95.377 -112.7267
7.000000 95.456 -113.5562
7.100000 95.531 -114.3726
7.200000 95.601 -115.1744
7.300000 95.669 -115.9577
7.400000 95.736 -116.7191
7.500000 95.799 -117.4601
7.620000 95.874 -118.3279
7.750000 95.955 -119.2471
7.880000 96.034 -120.1391
8.000000 96.107 -120.9487
8.120000 96.180 -121.7545
8.250000 96.259 -122.6172
8.380000 96.338 -123.4768
8.500000 96.408 -124.2749
8.620000 96.478 -125.0750
8.750000 96.550 -125.9410
8.850000 96.603 -126.6064
9.000000 96.678 -127.6067
9.120000 96.735 -128.3967
9.250000 96.792 -129.2351
9.380000 96.846 -130.0599
9.500000 96.891 -130.7982
9.620000 96.930 -131.5092
9.750000 96.967 -132.2529
9.880000 96.997 -132.9623
10.000000 97.015 -133.5836
10.150000 97.030 -134.3182
10.300000 97.039 -135.0069
10.440000 97.042 -135.6030
10.600000 97.044 -136.2492
10.750000 97.050 -136.8318
10.900000 97.059 -137.3922
11.060000 97.070 -137.9930
11.200000 97.083 -138.5202
11.380000 97.097 -139.1929
11.500000 97.105 -139.6402
11.720000 97.116 -140.4431
11.800000 97.119 -140.7254
12.060000 97.126 -141.6081
12.200000 97.129 -142.0513
12.410000 97.132 -142.6749
12.500000 97.134 -142.9249
12.650000 97.137 -143.3156
12.800000 97.142 -143.6892
13.150000 97.163 -144.5245
13.200000 97.167 -144.6481
13.400000 97.188 -145.1526
13.600000 97.209 -145.6972
13.800000 97.230 -146.2935
14.000000 97.243 -146.9355
14.300000 97.247 -147.9692
14.500000 97.234 -148.6709
14.750000 97.202 -149.5110
15.000000 97.157 -150.2850
15.250000 97.107 -150.9625
15.500000 97.058 -151.5488
15.750000 97.013 -152.0543
16.000000 96.977 -152.5101
16.250000 96.948 -152.9536
16.500000 96.926 -153.3984
16.750000 96.909 -153.8551
17.000000 96.895 -154.3061
17.250000 96.885 -154.7406
17.500000 96.880 -155.1435
17.750000 96.884 -155.5193
18.000000 96.899 -155.8884
18.250000 96.925 -156.2743
18.500000 96.960 -156.7162
18.750000 96.998 -157.2162
19.000000 97.033 -157.7751
19.250000 97.059 -158.3477
19.500000 97.076 -158.8805
19.750000 97.085 -159.3325
20.000000 97.096 -159.6568
20.299999 97.125 -159.9174
20.600000 97.181 -160.1232
20.900000 97.264 -160.4059
21.200001 97.360 -160.8984
21.400000 97.415 -161.3623
21.799999 97.476 -162.4874
22.000000 97.475 -163.0425
22.400000 97.416 -163.8520
22.700001 97.354 -164.0360
23.000000 97.323 -163.8667
23.299999 97.352 -163.5736
23.600000 97.440 -163.4294
24.000000 97.606 -163.8279
24.299999 97.714 -164.6440
24.700001 97.776 -166.1798
25.000000 97.750 -167.3483
25.400000 97.646 -168.5525
25.799999 97.527 -169.2111
26.200001 97.451 -169.5247
26.500000 97.431 -169.7392
26.900000 97.435 -170.1640
27.200001 97.445 -170.6000
27.600000 97.456 -171.2762
28.000000 97.467 -172.0221
28.500000 97.471 -173.1205
29.000000 97.421 -174.3642
29.500000 97.281 -175.3075
30.000000 97.103 -175.3594
30.400000 97.019 -174.7562
30.700001 97.022 -174.1640
31.100000 97.101 -173.6060
31.500000 97.212 -173.5451
32.000000 97.304 -174.0177
32.500000 97.318 -174.5378
33.000000 97.311 -174.7701
33.500000 97.336 -174.9455
34.000000 97.376 -175.4361
34.500000 97.373 -176.2264
35.000000 97.308 -176.9644
35.500000 97.220 -177.3681
36.000000 97.160 -177.5180
36.500000 97.141 -177.6778
37.000000 97.139 -177.9915
37.500000 97.133 -178.3894
38.200001 97.127 -178.9158
38.700001 97.133 -179.3092
39.500000 97.130 179.9370
40.000000 97.104 179.5372
40.599998 97.070 179.2805
41.200001 97.059 179.1585
41.799999 97.066 178.9545
42.500000 97.061 178.5583
43.099998 97.036 178.2262
43.700001 97.004 177.9713
44.400002 96.971 177.7213
45.000000 96.949 177.5024
45.500000 96.935 177.3051
46.200001 96.925 176.9780
46.799999 96.920 176.6358
47.500000 96.911 176.2209
48.200001 96.909 175.8379
48.700001 96.918 175.5275
49.400002 96.927 174.9268
50.000000 96.904 174.3269
50.799999 96.826 173.7715
51.500000 96.764 173.6377
52.200001 96.738 173.6024
53.000000 96.733 173.4720
53.799999 96.742 173.2481
54.500000 96.758 172.9192
55.200001 96.762 172.4427
56.000000 96.734 171.9087
57.000000 96.690 171.5333
58.000000 96.683 171.1721
59.000000 96.650 170.5380
60.000000 96.557 170.1382
60.799999 96.492 170.0950
61.500000 96.460 170.0875
62.200001 96.446 169.9957
63.000000 96.438 169.6780
64.000000 96.389 169.1010
65.000000 96.328 168.7958
66.000000 96.316 168.4989
67.000000 96.297 168.0433
68.000000 96.281 167.7932
69.000000 96.292 167.4438
70.000000 96.264 166.9648
71.000000 96.201 166.7301
72.000000 96.144 166.6893
73.000000 96.103 166.6830
74.000000 96.073 166.4918
75.000000 96.015 166.1685
76.199997 95.939 165.9771
77.500000 95.905 165.6412
78.800003 95.860 165.0218
80.000000 95.778 164.4979
81.199997 95.698 164.4282
82.500000 95.695 164.3335
83.800003 95.684 163.9089
85.000000 95.656 163.5828
86.199997 95.624 163.3749
87.500000 95.597 163.3179
88.500000 95.588 163.2968
90.000000 95.567 163.1364
91.199997 95.545 162.9420
92.500000 95.494 162.3782
93.800003 95.374 162.0026
95.000000 95.291 161.8755
96.199997 95.215 161.8113
97.500000 95.191 161.8592
98.800003 95.172 161.4636
100.000000 95.092 161.2366
101.500000 95.035 161.4408
103.000000 95.049 161.1616
104.400002 94.986 160.4737
106.000000 94.846 160.2876
107.500000 94.784 160.7215
109.000000 94.834 160.9753
110.599998 94.874 160.5041
112.000000 94.848 159.8901
113.800003 94.755 158.9554
115.000000 94.665 158.4247
117.199997 94.546 158.0911
118.000000 94.535 158.1423
120.599998 94.552 158.7513
122.000000 94.547 159.2619
124.099998 94.471 159.5515
125.000000 94.387 159.4921
126.500000 94.230 159.4229
128.000000 94.122 159.2952
131.500000 94.027 159.0023
132.000000 94.025 159.0078
134.000000 94.004 158.9038
136.000000 93.935 158.7239
138.000000 93.874 158.6793
140.000000 93.837 158.7296
143.000000 93.751 158.7921
145.000000 93.675 158.4960
147.500000 93.594 157.8746
150.000000 93.550 157.6700
152.500000 93.491 157.7818
155.000000 93.399 157.3989
157.500000 93.236 156.5372
160.000000 93.108 156.9633
162.500000 93.172 157.8530
165.000000 93.270 158.1728
167.500000 93.237 157.6019
170.000000 93.039 157.4215
172.500000 92.937 157.3795
175.000000 92.897 157.0167
177.500000 92.782 157.3948
180.000000 92.609 158.5395
182.500000 92.539 159.4455
185.000000 92.729 159.3241
187.500000 92.917 158.4785
190.000000 92.943 158.3481
192.500000 92.904 158.3803
195.000000 92.724 158.6119
197.500000 92.447 159.5304
200.000000 92.219 159.8358
203.000000 92.158 158.8423
206.000000 92.224 158.7787
209.000000 92.169 159.8499
212.000000 91.998 159.9817
214.000000 91.927 159.7233
218.000000 91.906 159.9896
220.000000 91.896 160.2645
224.000000 91.833 160.4089
227.000000 91.753 160.6061
230.000000 91.663 160.6086
233.000000 91.609 160.5493
236.000000 91.576 160.7214
240.000000 91.471 160.8951
243.000000 91.409 161.1054
247.000000 91.406 161.7047
250.000000 91.403 162.0221
254.000000 91.360 162.1465
258.000000 91.280 162.2766
262.000000 91.204 162.5223
265.000000 91.170 162.7056
269.000000 91.116 162.9769
272.000000 91.051 163.3998
276.000000 90.976 164.0865
280.000000 90.869 164.5671
285.000000 90.720 165.1064
290.000000 90.637 165.5126
295.000000 90.644 165.9609
300.000000 90.689 166.0938
304.000000 90.663 165.9433
307.000000 90.610 165.9817
311.000000 90.561 166.1892
315.000000 90.537 166.3312
320.000000 90.487 166.6630
325.000000 90.441 167.2868
330.000000 90.388 167.8313
335.000000 90.314 168.1857
340.000000 90.206 168.2925
345.000000 90.067 168.3146
350.000000 90.050 168.8073
355.000000 90.094 169.6589
360.000000 90.066 170.0371
365.000000 90.063 170.0368
370.000000 90.064 170.4414
375.000000 90.018 170.9644
382.000000 89.920 171.4037
387.000000 89.881 171.7782
395.000000 89.826 172.6506
400.000000 89.800 173.1413
406.000000 89.777 173.5123
412.000000 89.737 173.8339
418.000000 89.676 174.3409
425.000000 89.596 174.9421
431.000000 89.570 175.3338
437.000000 89.562 175.8378
444.000000 89.515 176.4219
450.000000 89.455 176.8759
455.000000 89.426 177.2168
462.000000 89.403 177.9315
468.000000 89.385 178.6105
475.000000 89.371 179.0471
482.000000 89.343 179.4426
487.000000 89.291 179.7370
494.000000 89.199 -179.5012
500.000000 89.175 -178.8065
508.000000 89.196 -178.0194
515.000000 89.178 -177.2242
522.000000 89.118 -176.8263
530.000000 89.104 -176.5368
538.000000 89.108 -176.0068
545.000000 89.126 -175.4541
552.000000 89.112 -175.0381
560.000000 89.073 -174.3576
570.000000 89.049 -173.5313
580.000000 89.026 -172.6475
590.000000 89.025 -171.9017
600.000000 89.030 -171.2047
608.000000 89.030 -170.6691
615.000000 89.018 -170.1729
622.000000 88.994 -169.6479
630.000000 88.962 -169.0678
640.000000 88.935 -168.2263
650.000000 88.922 -167.4227
660.000000 88.920 -166.7034
670.000000 88.922 -165.9544
680.000000 88.910 -165.1502
690.000000 88.866 -164.3560
700.000000 88.842 -163.6594
710.000000 88.854 -163.0346
720.000000 88.869 -162.5284
730.000000 88.861 -161.7324
740.000000 88.840 -160.6712
750.000000 88.826 -159.7690
762.000000 88.822 -158.6369
775.000000 88.852 -157.3965
788.000000 88.908 -156.2090
800.000000 88.928 -155.1522
812.000000 88.936 -154.1532
825.000000 88.969 -152.9866
838.000000 88.955 -151.9271
850.000000 88.959 -151.2616
862.000000 89.015 -150.7988
875.000000 89.077 -149.6777
885.000000 89.150 -148.5440
900.000000 89.262 -147.0839
912.000000 89.342 -146.1220
925.000000 89.414 -145.2329
938.000000 89.486 -144.3916
950.000000 89.553 -143.6031
962.000000 89.618 -142.8093
975.000000 89.694 -142.0059
988.000000 89.775 -141.2153
1000.000000 89.848 -140.4552
1015.000000 89.938 -139.5834
1030.000000 90.031 -138.7946
1044.000000 90.120 -138.1192
1060.000000 90.218 -137.3790
1075.000000 90.315 -136.7125
1090.000000 90.418 -136.1069
1106.000000 90.536 -135.4730
1120.000000 90.638 -134.9259
1138.000000 90.764 -134.2791
1150.000000 90.845 -133.8902
1172.000000 90.990 -133.1938
1180.000000 91.039 -132.9418
1206.000000 91.207 -132.1450
1220.000000 91.302 -131.7536
1241.000000 91.449 -131.1360
1250.000000 91.508 -130.8855
1265.000000 91.604 -130.4796
1280.000000 91.702 -130.0672
1315.000000 91.916 -129.2441
1320.000000 91.947 -129.1166
1340.000000 92.065 -128.5732
1360.000000 92.146 -128.0774
1380.000000 92.228 -127.6075
1400.000000 92.322 -127.1071
1430.000000 92.475 -126.3316
1450.000000 92.591 -125.8104
1475.000000 92.730 -125.2189
1500.000000 92.854 -124.7266
1525.000000 92.972 -124.2260
1550.000000 93.088 -123.7133
1575.000000 93.196 -123.2151
1600.000000 93.302 -122.7245
1625.000000 93.405 -122.1992
1650.000000 93.504 -121.6865
1675.000000 93.597 -121.1073
1700.000000 93.694 -120.4516
1725.000000 93.808 -119.8040
1750.000000 93.941 -119.1882
1775.000000 94.088 -118.7262
1800.000000 94.228 -118.4066
1825.000000 94.343 -118.1341
1850.000000 94.435 -117.8593
1875.000000 94.517 -117.5567
1900.000000 94.597 -117.2154
1925.000000 94.678 -116.8482
1950.000000 94.757 -116.4411
1975.000000 94.833 -115.9629
2000.000000 94.911 -115.4076
2030.000000 95.019 -114.6537
2060.000000 95.147 -113.8343
2090.000000 95.306 -113.0168
2120.000000 95.501 -112.3200
2140.000000 95.649 -111.9808
2180.000000 95.946 -111.6868
2200.000000 96.077 -111.7099
2240.000000 96.295 -111.9436
2270.000000 96.435 -112.2014
2300.000000 96.558 -112.4518
2330.000000 96.665 -112.6522
2360.000000 96.763 -112.8381
2400.000000 96.881 -113.0480
2430.000000 96.963 -113.1903
2470.000000 97.064 -113.3868
2500.000000 97.133 -113.5083
2540.000000 97.225 -113.6778
2580.000000 97.309 -113.8407
2620.000000 97.384 -113.9732
2650.000000 97.437 -114.0896
2690.000000 97.504 -114.2530
2720.000000 97.552 -114.3598
2760.000000 97.609 -114.4797
2800.000000 97.653 -114.5809
2850.000000 97.707 -114.6737
2900.000000 97.775 -114.7720
2950.000000 97.847 -114.9013
3000.000000 97.913 -115.1506
3040.000000 97.953 -115.4544
3070.000000 97.973 -115.7106
3110.000000 97.988 -116.0578
3150.000000 97.989 -116.3799
3200.000000 97.974 -116.7392
3250.000000 97.946 -117.0477
3300.000000 97.905 -117.2923
3350.000000 97.855 -117.4776
3400.000000 97.798 -117.5860
3450.000000 97.740 -117.6229
3500.000000 97.682 -117.5895
3550.000000 97.625 -117.5059
3600.000000 97.570 -117.3927
3650.000000 97.518 -117.2622
3700.000000 97.460 -117.1133
3750.000000 97.391 -116.9151
3820.000000 97.293 -116.5886
3870.000000 97.217 -116.3043
3950.000000 97.087 -115.7624
4000.000000 97.005 -115.3884
4060.000000 96.901 -114.8865
4120.000000 96.795 -114.3378
4180.000000 96.690 -113.7248
4250.000000 96.572 -112.9523
4310.000000 96.468 -112.2439
4370.000000 96.358 -111.5110
4440.000000 96.224 -110.6264
4500.000000 96.108 -109.8420
4550.000000 96.013 -109.1651
4620.000000 95.885 -108.1826
4680.000000 95.780 -107.3234
4750.000000 95.658 -106.3100
4820.000000 95.531 -105.2766
4870.000000 95.436 -104.5153
4940.000000 95.302 -103.4161
5000.000000 95.188 -102.4431
5080.000000 95.042 -101.0974
5150.000000 94.917 -99.8791
5220.000000 94.790 -98.6108
5300.000000 94.644 -97.1054
5380.000000 94.502 -95.5387
5450.000000 94.386 -94.1271
5520.000000 94.281 -92.6890
5600.000000 94.161 -90.9898
5700.000000 94.016 -88.8009
5800.000000 93.877 -86.5181
5900.000000 93.742 -84.1030
6000.000000 93.630 -81.5513
6080.000000 93.563 -79.4298
6150.000000 93.521 -77.5337
6220.000000 93.492 -75.6175
6300.000000 93.482 -73.4302
6400.000000 93.505 -70.7199
6500.000000 93.560 -68.0484
6600.000000 93.643 -65.4511
6700.000000 93.756 -62.9504
6800.000000 93.909 -60.5692
6900.000000 94.113 -58.3142
7000.000000 94.370 -56.2115
7100.000000 94.672 -54.2853
7200.000000 95.019 -52.5983
7300.000000 95.411 -51.2671
7400.000000 95.835 -50.4063
7500.000000 96.284 -50.1281
7620.000000 96.859 -50.7147
7750.000000 97.459 -52.6393
7880.000000 97.884 -56.0064
8000.000000 98.074 -60.2945
8120.000000 98.033 -65.3252
8250.000000 97.697 -70.9590
8380.000000 97.067 -76.0335
8500.000000 96.270 -79.7304
8620.000000 95.319 -82.2335
8750.000000 94.162 -83.4664
8850.000000 93.225 -83.3902
9000.000000 91.820 -81.7517
9120.000000 90.740 -79.2862
9250.000000 89.640 -75.6875
9380.000000 88.632 -71.3588
9500.000000 87.790 -66.8884
9620.000000 87.031 -62.0867
9750.000000 86.300 -56.6134
9880.000000 85.654 -50.9558
10000.000000 85.123 -45.6434
10150.000000 84.536 -38.9226
10300.000000 84.022 -32.1531
10440.000000 83.607 -25.8364
10600.000000 83.196 -18.6400
10750.000000 82.865 -11.9035
10900.000000 82.583 -5.1591
11060.000000 82.334 2.0457
11200.000000 82.166 8.3239
11380.000000 82.016 16.3149
11500.000000 81.955 21.5707
11720.000000 81.915 31.0460
11800.000000 81.923 34.4382
12060.000000 82.025 45.2248
12200.000000 82.120 50.8769
12410.000000 82.313 59.1322
12500.000000 82.416 62.5823
12650.000000 82.626 68.1885
12800.000000 82.889 73.5740
13150.000000 83.677 85.0268
13200.000000 83.808 86.5002
13400.000000 84.375 91.8881
13600.000000 84.988 96.3552
13800.000000 85.623 99.7731
14000.000000 86.238 102.0853
14300.000000 87.016 103.6243
14500.000000 87.385 103.6352
14750.000000 87.640 102.9950
15000.000000 87.669 102.2873
15250.000000 87.559 101.9964
15500.000000 87.437 102.1035
15750.000000 87.377 102.1241
16000.000000 87.357 101.2423
16250.000000 87.281 98.3838
16500.000000 86.903 92.3944
16750.000000 85.665 85.2623
17000.000000 83.291 86.0042
17250.000000 81.068 94.2605
17500.000000 79.640 101.7435
17750.000000 78.301 108.9716
18000.000000 76.923 117.6433
18250.000000 75.643 127.8326
18500.000000 74.625 139.1980
18750.000000 74.021 151.3676
19000.000000 73.821 164.0251
19250.000000 73.778 176.9676
19500.000000 73.651 -169.9639
19750.000000 73.433 -156.8525
20000.000000 73.206 -143.7761
20300.000000 73.097 -128.3320
20600.000000 73.335 -113.4388
20900.000000 73.890 -99.8176
21200.000000 74.643 -88.5047
21400.000000 75.125 -83.5774
21800.000000 75.212 -116.1393
22000.000000 74.232 110.8172
22400.000000 69.440 88.5183
22700.000000 63.815 13.6777
23000.000000 57.083 158.2637
23300.000000 50.353 -64.2109
23600.000000 46.473 38.2852
24000.000000 45.395 -119.3867
