* Measurement data measured by REW V5.20.13
* Source: Microphone (Realtek(R) Audio), MICROPHONE (Master Volume), L, volume: 0.710. Timing signal peak level -38.2 dBFS, measurement signal peak level -37.4 dBFS
* Format: 2M Log Swept Sine, 1 sweep at -12.0 dBFS using an acoustic timing reference
* Dated: Sep 21, 2023 7:19:29 AM
* REW Settings:
*  C-weighting compensation: Off
*  Target level: 75.0 dB
* Note: ; Delay -0.0536 ms (-18 mm, -0.72 in) using estimated IR delay relative to Acoustic reference played from HEADPHONE R with no timing offset Clock adjustment: 120.6 ppm
* Measurement: Moondrop Chu CP145 R
* Smoothing: 1/24 octave
* Frequency Step: 1/48 octave
* Start Frequency: 1.000 Hz
*
* Freq(Hz) SPL(dB) Phase(degrees)
1.000000 67.148 177.7277
1.015000 67.278 174.9694
1.030000 67.416 172.3317
1.044000 67.551 169.9920
1.060000 67.715 167.4785
1.075000 67.880 165.2930
1.090000 68.056 163.2884
1.106000 68.258 161.3575
1.120000 68.442 159.7996
1.138000 68.687 157.9554
1.150000 68.856 156.8201
1.172000 69.174 154.9224
1.180000 69.292 154.2880
1.206000 69.685 152.4163
1.220000 69.901 151.5203
1.241000 70.231 150.3090
1.250000 70.374 149.8349
1.265000 70.614 149.0998
1.280000 70.856 148.4279
1.315000 71.423 147.0706
1.320000 71.505 146.8972
1.340000 71.829 146.2460
1.360000 72.152 145.6509
1.380000 72.473 145.0969
1.400000 72.789 144.5688
1.430000 73.253 143.7925
1.450000 73.554 143.2637
1.475000 73.921 142.5853
1.500000 74.288 142.0542
1.525000 74.658 141.6921
1.550000 75.030 141.4749
1.575000 75.401 141.3779
1.600000 75.770 141.3769
1.625000 76.135 141.4475
1.650000 76.496 141.5653
1.675000 76.850 141.7060
1.700000 77.196 141.8452
1.725000 77.532 141.9584
1.750000 77.857 142.0214
1.775000 78.169 142.0096
1.800000 78.467 141.8989
1.825000 78.748 141.6648
1.850000 79.013 141.3056
1.875000 79.263 140.8686
1.900000 79.499 140.3658
1.925000 79.721 139.8070
1.950000 79.932 139.2024
1.975000 80.133 138.5619
2.000000 80.324 137.8955
2.030000 80.543 137.0756
2.060000 80.753 136.2499
2.090000 80.956 135.4358
2.120000 81.154 134.6504
2.140000 81.284 134.1512
2.180000 81.543 133.2347
2.200000 81.673 132.8274
2.240000 81.924 132.0873
2.270000 82.101 131.5787
2.300000 82.271 131.1020
2.330000 82.433 130.6500
2.360000 82.590 130.2158
2.400000 82.793 129.6521
2.430000 82.941 129.2317
2.470000 83.136 128.6607
2.500000 83.282 128.2154
2.540000 83.479 127.5855
2.580000 83.679 126.9022
2.620000 83.879 126.1844
2.650000 84.029 125.6301
2.690000 84.226 124.8738
2.720000 84.373 124.2967
2.760000 84.565 123.5181
2.800000 84.755 122.7341
2.850000 84.987 121.7543
2.900000 85.211 120.7844
2.950000 85.428 119.8315
3.000000 85.637 118.8758
3.040000 85.800 118.1081
3.070000 85.919 117.5321
3.110000 86.074 116.7661
3.150000 86.227 116.0046
3.200000 86.413 115.0632
3.250000 86.595 114.1380
3.300000 86.774 113.2342
3.350000 86.948 112.3571
3.400000 87.118 111.5033
3.450000 87.284 110.6655
3.500000 87.445 109.8369
3.550000 87.603 109.0104
3.600000 87.756 108.1789
3.650000 87.907 107.3354
3.700000 88.053 106.4730
3.750000 88.196 105.5929
3.820000 88.389 104.3469
3.870000 88.522 103.4586
3.950000 88.729 102.0638
4.000000 88.854 101.2218
4.060000 89.001 100.2540
4.120000 89.142 99.3269
4.180000 89.279 98.4297
4.250000 89.433 97.4072
4.310000 89.561 96.5400
4.370000 89.686 95.6705
4.440000 89.828 94.6430
4.500000 89.946 93.7571
4.550000 90.042 93.0202
4.620000 90.172 91.9985
4.680000 90.280 91.1390
4.750000 90.404 90.1644
4.820000 90.524 89.2259
4.870000 90.608 88.5743
4.940000 90.721 87.6829
5.000000 90.816 86.9335
5.080000 90.940 85.9472
5.150000 91.045 85.0896
5.220000 91.148 84.2394
5.300000 91.261 83.2813
5.380000 91.371 82.3399
5.450000 91.465 81.5321
5.520000 91.557 80.7409
5.600000 91.659 79.8580
5.700000 91.783 78.7819
5.800000 91.902 77.7300
5.900000 92.019 76.6970
6.000000 92.132 75.6875
6.080000 92.220 74.8951
6.150000 92.295 74.2108
6.220000 92.369 73.5329
6.300000 92.452 72.7661
6.400000 92.552 71.8220
6.500000 92.650 70.8932
6.600000 92.745 69.9791
6.700000 92.837 69.0817
6.800000 92.927 68.1998
6.900000 93.014 67.3291
7.000000 93.098 66.4656
7.100000 93.180 65.6102
7.200000 93.260 64.7647
7.300000 93.336 63.9303
7.400000 93.411 63.1078
7.500000 93.482 62.2968
7.620000 93.564 61.3376
7.750000 93.649 60.3140
7.880000 93.730 59.3062
8.000000 93.801 58.3922
8.120000 93.868 57.4958
8.250000 93.938 56.5436
8.380000 94.003 55.6118
8.500000 94.061 54.7699
8.620000 94.115 53.9452
8.750000 94.170 53.0727
8.850000 94.211 52.4169
9.000000 94.269 51.4575
9.120000 94.313 50.7125
9.250000 94.360 49.9305
9.380000 94.406 49.1737
9.500000 94.446 48.4925
9.620000 94.483 47.8264
9.750000 94.522 47.1232
9.880000 94.554 46.4334
10.000000 94.577 45.8058
10.150000 94.599 45.0364
10.300000 94.615 44.2855
10.440000 94.623 43.6041
10.600000 94.629 42.8383
10.750000 94.636 42.1285
10.900000 94.643 41.4258
11.060000 94.650 40.6683
11.200000 94.657 39.9977
11.380000 94.663 39.1431
11.500000 94.665 38.5794
11.720000 94.666 37.5669
11.800000 94.665 37.2096
12.060000 94.663 36.0830
12.200000 94.662 35.4986
12.410000 94.661 34.6519
12.500000 94.661 34.3019
12.650000 94.660 33.7365
12.800000 94.660 33.1879
13.150000 94.661 31.9626
13.200000 94.662 31.7908
13.400000 94.667 31.1115
13.600000 94.673 30.4402
13.800000 94.680 29.7751
14.000000 94.686 29.1165
14.300000 94.692 28.1446
14.500000 94.692 27.5173
14.750000 94.693 26.7599
15.000000 94.694 26.0312
15.250000 94.700 25.3172
15.500000 94.708 24.6091
15.750000 94.716 23.9011
16.000000 94.723 23.1857
16.250000 94.724 22.4650
16.500000 94.721 21.7463
16.750000 94.713 21.0446
17.000000 94.703 20.3760
17.250000 94.690 19.7446
17.500000 94.678 19.1541
17.750000 94.669 18.5919
18.000000 94.661 18.0464
18.250000 94.655 17.5042
18.500000 94.651 16.9561
18.750000 94.646 16.4048
19.000000 94.641 15.8531
19.250000 94.633 15.3127
19.500000 94.625 14.7914
19.750000 94.617 14.2946
20.000000 94.610 13.8223
20.299999 94.605 13.2731
20.600000 94.604 12.7265
20.900000 94.605 12.1665
21.200001 94.605 11.5859
21.400000 94.603 11.1929
21.799999 94.591 10.4133
22.000000 94.582 10.0383
22.400000 94.562 9.3368
22.700001 94.547 8.8546
23.000000 94.535 8.3972
23.299999 94.527 7.9443
23.600000 94.520 7.4826
24.000000 94.509 6.8482
24.299999 94.497 6.3721
24.700001 94.476 5.7680
25.000000 94.458 5.3544
25.400000 94.438 4.8513
25.799999 94.427 4.3572
26.200001 94.423 3.8080
26.500000 94.417 3.3417
26.900000 94.397 2.6711
27.200001 94.369 2.1796
27.600000 94.318 1.6120
28.000000 94.265 1.1910
28.500000 94.218 0.8152
29.000000 94.201 0.4230
29.500000 94.194 -0.1136
30.000000 94.172 -0.7469
30.400000 94.140 -1.2251
30.700001 94.113 -1.5353
31.100000 94.081 -1.8967
31.500000 94.057 -2.2444
32.000000 94.033 -2.7227
32.500000 94.005 -3.2431
33.000000 93.967 -3.7372
33.500000 93.928 -4.1678
34.000000 93.895 -4.5627
34.500000 93.867 -4.9671
35.000000 93.840 -5.3915
35.500000 93.810 -5.8238
36.000000 93.776 -6.2606
36.500000 93.737 -6.6991
37.000000 93.689 -7.1083
37.500000 93.638 -7.4465
38.200001 93.578 -7.8197
38.700001 93.548 -8.1132
39.500000 93.496 -8.7445
40.000000 93.447 -9.1422
40.599998 93.382 -9.4995
41.200001 93.331 -9.7621
41.799999 93.294 -10.0544
42.500000 93.251 -10.4622
43.099998 93.211 -10.7780
43.700001 93.179 -11.0630
44.400002 93.150 -11.4697
45.000000 93.114 -11.8889
45.500000 93.070 -12.2042
46.200001 93.006 -12.5195
46.799999 92.961 -12.7268
47.500000 92.918 -13.0021
48.200001 92.872 -13.3102
48.700001 92.837 -13.5178
49.400002 92.789 -13.7731
50.000000 92.753 -13.9731
50.799999 92.714 -14.2599
51.500000 92.679 -14.5526
52.200001 92.637 -14.8483
53.000000 92.581 -15.1451
53.799999 92.517 -15.3800
54.500000 92.458 -15.5106
55.200001 92.408 -15.6295
56.000000 92.350 -15.8609
57.000000 92.257 -16.2040
58.000000 92.151 -16.6156
59.000000 92.003 -16.8740
60.000000 91.914 -16.5835
60.799999 91.935 -16.6299
61.500000 91.946 -17.0829
62.200001 91.915 -17.5558
63.000000 91.869 -17.8743
64.000000 91.830 -18.1435
65.000000 91.790 -18.3666
66.000000 91.747 -18.5361
67.000000 91.692 -18.6992
68.000000 91.623 -18.8237
69.000000 91.549 -18.9094
70.000000 91.476 -18.9542
71.000000 91.420 -18.9930
72.000000 91.378 -19.1278
73.000000 91.332 -19.3520
74.000000 91.276 -19.5773
75.000000 91.214 -19.7305
76.199997 91.144 -19.8076
77.500000 91.080 -19.8806
78.800003 91.016 -19.9934
80.000000 90.953 -20.0923
81.199997 90.888 -20.1819
82.500000 90.817 -20.2576
83.800003 90.746 -20.3339
85.000000 90.678 -20.3919
86.199997 90.615 -20.3889
87.500000 90.562 -20.3804
88.500000 90.528 -20.4332
90.000000 90.466 -20.5665
91.199997 90.407 -20.6014
92.500000 90.348 -20.5804
93.800003 90.294 -20.5658
95.000000 90.242 -20.5577
96.199997 90.191 -20.5171
97.500000 90.144 -20.5019
98.800003 90.092 -20.5243
100.000000 90.041 -20.5264
101.500000 89.979 -20.5460
103.000000 89.910 -20.5632
104.400002 89.848 -20.5190
106.000000 89.781 -20.4476
107.500000 89.715 -20.3602
109.000000 89.646 -20.2609
110.599998 89.577 -20.1666
112.000000 89.533 -20.1473
113.800003 89.484 -20.1943
115.000000 89.451 -20.1247
117.199997 89.394 -19.6266
118.000000 89.377 -19.3609
120.599998 89.320 -19.0266
122.000000 89.236 -19.1592
124.099998 89.108 -19.3453
125.000000 89.070 -19.4196
126.500000 89.025 -19.4995
128.000000 88.993 -19.4507
131.500000 88.927 -18.9746
132.000000 88.915 -18.9064
134.000000 88.862 -18.7175
136.000000 88.805 -18.6152
138.000000 88.754 -18.5370
140.000000 88.709 -18.4325
143.000000 88.650 -18.2599
145.000000 88.612 -18.1345
147.500000 88.547 -17.9346
150.000000 88.486 -17.6115
152.500000 88.429 -17.4058
155.000000 88.364 -17.1985
157.500000 88.311 -16.9138
160.000000 88.262 -16.6432
162.500000 88.214 -16.4178
165.000000 88.159 -16.2742
167.500000 88.103 -16.0879
170.000000 88.050 -15.7952
172.500000 88.004 -15.4718
175.000000 87.959 -15.2202
177.500000 87.922 -15.0178
180.000000 87.886 -14.8963
182.500000 87.838 -14.7114
185.000000 87.788 -14.4512
187.500000 87.744 -14.1481
190.000000 87.710 -13.8788
192.500000 87.677 -13.6609
195.000000 87.640 -13.4395
197.500000 87.600 -13.1714
200.000000 87.562 -12.8540
203.000000 87.520 -12.5449
206.000000 87.465 -12.3325
209.000000 87.416 -12.0609
212.000000 87.387 -11.7286
214.000000 87.373 -11.5212
218.000000 87.332 -11.2065
220.000000 87.302 -11.0580
224.000000 87.247 -10.6268
227.000000 87.217 -10.2499
230.000000 87.189 -9.9169
233.000000 87.167 -9.6823
236.000000 87.156 -9.5425
240.000000 87.125 -9.2561
243.000000 87.078 -8.8161
247.000000 87.022 -8.3203
250.000000 86.994 -8.0865
254.000000 86.966 -7.7323
258.000000 86.931 -7.3173
262.000000 86.900 -6.8817
265.000000 86.875 -6.5300
269.000000 86.842 -6.1273
272.000000 86.819 -5.9073
276.000000 86.793 -5.6351
280.000000 86.775 -5.2772
285.000000 86.759 -4.7462
290.000000 86.729 -4.4146
295.000000 86.692 -4.0298
300.000000 86.665 -3.5802
304.000000 86.651 -3.2115
307.000000 86.637 -2.9202
311.000000 86.613 -2.5665
315.000000 86.592 -2.2169
320.000000 86.588 -1.7233
325.000000 86.578 -1.2328
330.000000 86.555 -0.7565
335.000000 86.528 -0.2885
340.000000 86.514 0.1022
345.000000 86.507 0.4363
350.000000 86.494 0.8038
355.000000 86.483 1.1344
360.000000 86.476 1.5490
365.000000 86.451 2.0663
370.000000 86.432 2.5410
375.000000 86.422 2.9215
382.000000 86.397 3.4626
387.000000 86.375 3.8423
395.000000 86.353 4.5015
400.000000 86.345 4.9139
406.000000 86.340 5.3484
412.000000 86.323 5.8345
418.000000 86.284 6.2491
425.000000 86.270 6.8048
431.000000 86.278 7.3167
437.000000 86.275 7.7854
444.000000 86.250 8.3145
450.000000 86.233 8.8030
455.000000 86.226 9.2284
462.000000 86.221 9.7786
468.000000 86.221 10.2167
475.000000 86.224 10.7250
482.000000 86.218 11.2296
487.000000 86.207 11.5654
494.000000 86.199 12.0874
500.000000 86.196 12.5320
508.000000 86.184 13.1251
515.000000 86.185 13.7027
522.000000 86.194 14.2417
530.000000 86.206 14.7655
538.000000 86.217 15.3398
545.000000 86.211 15.8554
552.000000 86.204 16.3606
560.000000 86.203 16.9572
570.000000 86.197 17.7009
580.000000 86.202 18.3502
590.000000 86.222 19.1555
600.000000 86.230 20.0222
608.000000 86.243 20.5861
615.000000 86.255 21.0323
622.000000 86.260 21.5023
630.000000 86.256 22.0848
640.000000 86.254 22.8337
650.000000 86.260 23.6106
660.000000 86.269 24.3859
670.000000 86.283 25.0502
680.000000 86.302 25.7311
690.000000 86.323 26.4915
700.000000 86.343 27.2473
710.000000 86.361 27.9197
720.000000 86.381 28.5922
730.000000 86.404 29.4027
740.000000 86.427 30.1861
750.000000 86.449 30.9258
762.000000 86.473 31.7617
775.000000 86.510 32.6159
788.000000 86.565 33.5186
800.000000 86.614 34.3730
812.000000 86.663 35.2888
825.000000 86.710 36.2573
838.000000 86.759 37.1846
850.000000 86.813 37.9813
862.000000 86.872 38.7371
875.000000 86.931 39.6223
885.000000 86.973 40.3115
900.000000 87.044 41.3497
912.000000 87.117 42.2280
925.000000 87.210 43.1139
938.000000 87.312 43.8169
950.000000 87.396 44.3673
962.000000 87.470 44.9502
975.000000 87.549 45.5964
988.000000 87.624 46.2508
1000.000000 87.694 46.8884
1015.000000 87.787 47.6543
1030.000000 87.882 48.2697
1044.000000 87.977 48.7879
1060.000000 88.080 49.4291
1075.000000 88.174 50.0286
1090.000000 88.277 50.5569
1106.000000 88.394 51.0775
1120.000000 88.497 51.4888
1138.000000 88.622 51.9515
1150.000000 88.702 52.2252
1172.000000 88.833 52.6961
1180.000000 88.875 52.8503
1206.000000 88.978 53.2369
1220.000000 88.992 53.4931
1241.000000 88.953 54.5178
1250.000000 88.951 55.3799
1265.000000 89.068 57.2196
1280.000000 89.340 58.6248
1315.000000 89.883 58.8050
1320.000000 89.930 58.7424
1340.000000 90.072 58.6189
1360.000000 90.163 58.6923
1380.000000 90.243 58.8737
1400.000000 90.336 59.1307
1430.000000 90.486 59.5469
1450.000000 90.588 59.8391
1475.000000 90.712 60.2866
1500.000000 90.830 60.7622
1525.000000 90.950 61.2119
1550.000000 91.068 61.6418
1575.000000 91.177 62.0769
1600.000000 91.289 62.4950
1625.000000 91.402 62.9140
1650.000000 91.508 63.3375
1675.000000 91.613 63.7595
1700.000000 91.716 64.1523
1725.000000 91.822 64.5451
1750.000000 91.927 64.9546
1775.000000 92.025 65.3748
1800.000000 92.126 65.7742
1825.000000 92.227 66.1524
1850.000000 92.326 66.5326
1875.000000 92.425 66.9346
1900.000000 92.525 67.3500
1925.000000 92.626 67.7720
1950.000000 92.730 68.2060
1975.000000 92.839 68.6439
2000.000000 92.959 69.0768
2030.000000 93.113 69.5584
2060.000000 93.273 69.9196
2090.000000 93.433 70.1356
2120.000000 93.582 70.2516
2140.000000 93.674 70.2914
2180.000000 93.844 70.3136
2200.000000 93.921 70.2984
2240.000000 94.063 70.2910
2270.000000 94.161 70.2967
2300.000000 94.252 70.3049
2330.000000 94.338 70.3224
2360.000000 94.421 70.3293
2400.000000 94.527 70.3502
2430.000000 94.601 70.4020
2470.000000 94.696 70.5105
2500.000000 94.769 70.6111
2540.000000 94.866 70.7561
2580.000000 94.970 70.8810
2620.000000 95.079 70.9282
2650.000000 95.159 70.9026
2690.000000 95.259 70.8174
2720.000000 95.323 70.7155
2760.000000 95.393 70.5533
2800.000000 95.449 70.4045
2850.000000 95.505 70.2603
2900.000000 95.552 70.1754
2950.000000 95.590 70.1620
3000.000000 95.623 70.1866
3040.000000 95.651 70.2348
3070.000000 95.670 70.2724
3110.000000 95.690 70.3287
3150.000000 95.707 70.4174
3200.000000 95.728 70.5695
3250.000000 95.749 70.7545
3300.000000 95.774 70.9741
3350.000000 95.804 71.2295
3400.000000 95.841 71.4819
3450.000000 95.888 71.6988
3500.000000 95.941 71.8660
3550.000000 95.993 71.9769
3600.000000 96.040 72.0442
3650.000000 96.080 72.0756
3700.000000 96.111 72.0869
3750.000000 96.133 72.0920
3820.000000 96.140 72.1174
3870.000000 96.127 72.1992
3950.000000 96.088 72.5213
4000.000000 96.067 72.8478
4060.000000 96.055 73.3491
4120.000000 96.065 73.9108
4180.000000 96.099 74.4323
4250.000000 96.158 74.9325
4310.000000 96.214 75.2466
4370.000000 96.266 75.4412
4440.000000 96.318 75.5086
4500.000000 96.357 75.4352
4550.000000 96.381 75.2788
4620.000000 96.401 74.9365
4680.000000 96.399 74.5735
4750.000000 96.370 74.1037
4820.000000 96.316 73.6234
4870.000000 96.264 73.3189
4940.000000 96.178 72.9777
5000.000000 96.097 72.7357
5080.000000 95.983 72.4428
5150.000000 95.873 72.2035
5220.000000 95.753 71.9864
5300.000000 95.605 71.7612
5380.000000 95.443 71.5737
5450.000000 95.288 71.4655
5520.000000 95.125 71.4317
5600.000000 94.925 71.5007
5700.000000 94.656 71.7676
5800.000000 94.379 72.2739
5900.000000 94.100 73.0355
6000.000000 93.826 74.0614
6080.000000 93.621 75.0522
6150.000000 93.457 76.0321
6220.000000 93.310 77.0879
6300.000000 93.162 78.3385
6400.000000 92.995 79.9662
6500.000000 92.853 81.7133
6600.000000 92.742 83.5620
6700.000000 92.667 85.4553
6800.000000 92.634 87.3422
6900.000000 92.657 89.1775
7000.000000 92.739 90.9296
7100.000000 92.866 92.5799
7200.000000 93.032 94.0811
7300.000000 93.232 95.3367
7400.000000 93.465 96.2617
7500.000000 93.730 96.7971
7620.000000 94.085 96.8365
7750.000000 94.480 95.9619
7880.000000 94.760 93.9396
8000.000000 94.875 90.9862
8120.000000 94.806 87.1217
8250.000000 94.451 82.3995
8380.000000 93.762 78.0009
8500.000000 92.849 75.0856
8620.000000 91.741 73.8471
8750.000000 90.417 74.6410
8850.000000 89.374 76.6990
9000.000000 87.861 81.9006
9120.000000 86.757 87.6590
9250.000000 85.720 95.3265
9380.000000 84.890 104.3280
9500.000000 84.380 113.5303
9620.000000 84.187 123.1534
9750.000000 84.383 133.2945
9880.000000 84.964 142.1137
10000.000000 85.708 148.2717
10150.000000 86.674 152.8429
10300.000000 87.448 154.4641
10440.000000 87.895 154.5299
10600.000000 88.105 154.4654
10750.000000 88.124 155.1223
10900.000000 88.094 156.7184
11060.000000 88.113 159.2635
11200.000000 88.227 161.9202
11380.000000 88.560 165.4774
11500.000000 88.922 167.6757
11720.000000 89.916 170.5655
11800.000000 90.386 170.9787
12060.000000 92.177 168.0551
12200.000000 93.095 162.5897
12410.000000 93.852 148.7994
12500.000000 93.818 141.6916
12650.000000 93.233 130.4370
12800.000000 92.102 121.9592
13150.000000 88.658 115.5991
13200.000000 88.181 115.8832
13400.000000 86.457 118.8689
13600.000000 85.045 123.8741
13800.000000 83.929 130.0863
14000.000000 83.076 137.0614
14300.000000 82.185 148.3873
14500.000000 81.824 156.2966
14750.000000 81.637 166.2198
15000.000000 81.746 175.6685
15250.000000 82.165 -175.9483
15500.000000 82.936 -169.3219
15750.000000 84.042 -165.7644
16000.000000 85.274 -167.5789
16250.000000 86.096 -177.2378
16500.000000 85.803 166.5628
16750.000000 84.068 150.6680
17000.000000 81.253 138.4863
17250.000000 78.056 108.6824
17500.000000 75.331 -60.3292
17750.000000 74.804 127.7860
18000.000000 75.853 -133.8032
18250.000000 75.379 145.1882
18500.000000 73.801 164.5933
18750.000000 72.002 143.5869
19000.000000 70.508 -178.8359
19250.000000 69.842 -134.2266
19500.000000 69.903 -90.1504
19750.000000 70.697 109.1982
20000.000000 71.389 -72.3965
20300.000000 70.866 9.7656
20600.000000 69.827 -135.3359
20900.000000 69.476 -152.9502
21200.000000 69.547 -139.7471
21400.000000 69.623 -128.7090
21800.000000 69.746 -123.6885
22000.000000 69.857 167.4902
22400.000000 70.140 -167.1416
22700.000000 69.799 25.3340
23000.000000 68.906 49.0156
23300.000000 68.327 39.5273
23600.000000 68.333 100.4766
24000.000000 68.859 -119.7266
