* Measurement data measured by REW V5.20.13
* Source: Headset (DS by VECLAN.COM), MICROPHONE (Master Volume), L, volume: 0.720. Timing signal peak level -16.3 dBFS, measurement signal peak level -15.8 dBFS
* Format: 4M Log Swept Sine, 1 sweep at -12.0 dBFS using an acoustic timing reference
* Dated: Dec 6, 2023 3:46:17 PM
* REW Settings:
*  C-weighting compensation: Off
*  Target level: 75.0 dB
* Note: ; Apple + Abigail Delay -0.0663 ms (-23 mm, -0.9 in) using estimated IR delay relative to Acoustic reference played from  L with no timing offset
* Measurement: Moondrop KATO S1 L
* Smoothing: 1/24 octave
* Frequency Step: 1/48 octave
* Start Frequency: 1.000 Hz
*
* Freq(Hz) SPL(dB) Phase(degrees)
1.000000 68.912 -10.3072
1.015000 69.202 -11.5471
1.030000 69.489 -12.7359
1.044000 69.754 -13.7947
1.060000 70.053 -14.9391
1.075000 70.328 -15.9426
1.090000 70.596 -16.8737
1.106000 70.877 -17.7816
1.120000 71.123 -18.5066
1.138000 71.443 -19.3509
1.150000 71.658 -19.8624
1.172000 72.055 -20.7029
1.180000 72.200 -20.9797
1.206000 72.672 -21.7845
1.220000 72.926 -22.1642
1.241000 73.306 -22.6739
1.250000 73.468 -22.8732
1.265000 73.737 -23.1835
1.280000 74.004 -23.4707
1.315000 74.618 -24.0779
1.320000 74.704 -24.1600
1.340000 75.044 -24.4840
1.360000 75.377 -24.8093
1.380000 75.702 -25.1472
1.400000 76.016 -25.5090
1.430000 76.467 -26.1212
1.450000 76.753 -26.5921
1.475000 77.091 -27.2640
1.500000 77.410 -27.9746
1.525000 77.712 -28.7052
1.550000 77.998 -29.4514
1.575000 78.271 -30.2088
1.600000 78.531 -30.9728
1.625000 78.779 -31.7389
1.650000 79.017 -32.5026
1.675000 79.247 -33.2595
1.700000 79.470 -34.0052
1.725000 79.687 -34.7350
1.750000 79.900 -35.4446
1.775000 80.110 -36.1294
1.800000 80.319 -36.7850
1.825000 80.527 -37.4069
1.850000 80.734 -37.9918
1.875000 80.933 -38.5424
1.900000 81.124 -39.0628
1.925000 81.308 -39.5571
1.950000 81.487 -40.0294
1.975000 81.660 -40.4838
2.000000 81.828 -40.9245
2.030000 82.025 -41.4407
2.060000 82.219 -41.9500
2.090000 82.409 -42.4594
2.120000 82.598 -42.9760
2.140000 82.724 -43.3278
2.180000 82.978 -44.0589
2.200000 83.106 -44.4422
2.240000 83.362 -45.2261
2.270000 83.551 -45.8211
2.300000 83.739 -46.4213
2.330000 83.925 -47.0258
2.360000 84.108 -47.6336
2.400000 84.350 -48.4478
2.430000 84.528 -49.0601
2.470000 84.762 -49.8769
2.500000 84.935 -50.4887
2.540000 85.161 -51.3017
2.580000 85.383 -52.1108
2.620000 85.599 -52.9247
2.650000 85.759 -53.5382
2.690000 85.967 -54.3581
2.720000 86.121 -54.9732
2.760000 86.323 -55.7910
2.800000 86.520 -56.6040
2.850000 86.761 -57.6092
2.900000 86.996 -58.5972
2.950000 87.226 -59.5629
3.000000 87.448 -60.5052
3.040000 87.622 -61.2456
3.070000 87.749 -61.7948
3.110000 87.916 -62.5214
3.150000 88.079 -63.2439
3.200000 88.278 -64.1455
3.250000 88.472 -65.0505
3.300000 88.662 -65.9645
3.350000 88.848 -66.8921
3.400000 89.028 -67.8296
3.450000 89.202 -68.7701
3.500000 89.372 -69.7068
3.550000 89.538 -70.6330
3.600000 89.700 -71.5417
3.650000 89.858 -72.4263
3.700000 90.013 -73.2820
3.750000 90.163 -74.1129
3.820000 90.366 -75.2445
3.870000 90.507 -76.0372
3.950000 90.724 -77.2925
4.000000 90.856 -78.0770
4.060000 91.010 -79.0259
4.120000 91.159 -79.9808
4.180000 91.303 -80.9342
4.250000 91.464 -82.0351
4.310000 91.599 -82.9606
4.370000 91.730 -83.8620
4.440000 91.879 -84.8753
4.500000 92.002 -85.7149
4.550000 92.101 -86.3982
4.620000 92.237 -87.3358
4.680000 92.350 -88.1273
4.750000 92.480 -89.0439
4.820000 92.606 -89.9554
4.870000 92.695 -90.5993
4.940000 92.815 -91.4901
5.000000 92.916 -92.2431
5.080000 93.047 -93.2309
5.150000 93.158 -94.0792
5.220000 93.265 -94.9122
5.300000 93.385 -95.8465
5.380000 93.500 -96.7633
5.450000 93.598 -97.5521
5.520000 93.693 -98.3293
5.600000 93.798 -99.2021
5.700000 93.923 -100.2700
5.800000 94.045 -101.3133
5.900000 94.162 -102.3325
6.000000 94.276 -103.3249
6.080000 94.364 -104.1019
6.150000 94.439 -104.7715
6.220000 94.512 -105.4334
6.300000 94.595 -106.1795
6.400000 94.694 -107.0945
6.500000 94.790 -107.9931
6.600000 94.882 -108.8788
6.700000 94.971 -109.7537
6.800000 95.055 -110.6151
6.900000 95.137 -111.4593
7.000000 95.215 -112.2827
7.100000 95.291 -113.0854
7.200000 95.363 -113.8701
7.300000 95.433 -114.6392
7.400000 95.502 -115.3936
7.500000 95.568 -116.1316
7.620000 95.644 -116.9984
7.750000 95.724 -117.9173
7.880000 95.800 -118.8135
8.000000 95.868 -119.6231
8.120000 95.934 -120.4188
8.250000 96.002 -121.2641
8.380000 96.067 -122.0908
8.500000 96.124 -122.8364
8.620000 96.179 -123.5654
8.750000 96.236 -124.3372
8.850000 96.279 -124.9181
9.000000 96.341 -125.7672
9.120000 96.389 -126.4326
9.250000 96.442 -127.1425
9.380000 96.495 -127.8391
9.500000 96.540 -128.4759
9.620000 96.582 -129.1100
9.750000 96.625 -129.7915
9.880000 96.660 -130.4676
10.000000 96.683 -131.0896
10.150000 96.702 -131.8606
10.300000 96.711 -132.6093
10.440000 96.710 -133.2878
10.600000 96.703 -134.0382
10.750000 96.696 -134.7133
10.900000 96.687 -135.3636
11.060000 96.679 -136.0373
11.200000 96.673 -136.6096
11.380000 96.666 -137.3182
11.500000 96.661 -137.7711
11.720000 96.655 -138.5704
11.800000 96.655 -138.8523
12.060000 96.658 -139.7421
12.200000 96.664 -140.2207
12.410000 96.676 -140.9363
12.500000 96.682 -141.2444
12.650000 96.691 -141.7592
12.800000 96.700 -142.2751
13.150000 96.716 -143.4825
13.200000 96.718 -143.6535
13.400000 96.724 -144.3358
13.600000 96.729 -145.0016
13.800000 96.731 -145.6461
14.000000 96.732 -146.2652
14.300000 96.731 -147.1442
14.500000 96.729 -147.6948
14.750000 96.729 -148.3524
15.000000 96.732 -148.9816
15.250000 96.739 -149.5998
15.500000 96.749 -150.2075
15.750000 96.760 -150.8049
16.000000 96.768 -151.3888
16.250000 96.776 -151.9576
16.500000 96.782 -152.5102
16.750000 96.789 -153.0443
17.000000 96.797 -153.5622
17.250000 96.807 -154.0673
17.500000 96.818 -154.5640
17.750000 96.828 -155.0597
18.000000 96.837 -155.5566
18.250000 96.845 -156.0571
18.500000 96.851 -156.5527
18.750000 96.856 -157.0379
19.000000 96.859 -157.5074
19.250000 96.863 -157.9600
19.500000 96.868 -158.3976
19.750000 96.872 -158.8217
20.000000 96.878 -159.2360
20.299999 96.885 -159.7244
20.600000 96.892 -160.2059
20.900000 96.898 -160.6808
21.200001 96.902 -161.1472
21.400000 96.904 -161.4514
21.799999 96.907 -162.0419
22.000000 96.907 -162.3281
22.400000 96.908 -162.8847
22.700001 96.909 -163.2903
23.000000 96.909 -163.6868
23.299999 96.909 -164.0752
23.600000 96.910 -164.4564
24.000000 96.911 -164.9552
24.299999 96.912 -165.3236
24.700001 96.914 -165.8081
25.000000 96.914 -166.1659
25.400000 96.914 -166.6337
25.799999 96.914 -167.0886
26.200001 96.913 -167.5314
26.500000 96.913 -167.8571
26.900000 96.911 -168.2846
27.200001 96.910 -168.6000
27.600000 96.907 -169.0131
28.000000 96.903 -169.4188
28.500000 96.898 -169.9184
29.000000 96.893 -170.4083
29.500000 96.886 -170.8811
30.000000 96.877 -171.3288
30.400000 96.869 -171.6695
30.700001 96.863 -171.9186
31.100000 96.858 -172.2505
31.500000 96.854 -172.5890
32.000000 96.847 -173.0212
32.500000 96.838 -173.4487
33.000000 96.825 -173.8524
33.500000 96.813 -174.2288
34.000000 96.803 -174.5933
34.500000 96.797 -174.9647
35.000000 96.791 -175.3461
35.500000 96.783 -175.7250
36.000000 96.774 -176.0851
36.500000 96.764 -176.4220
37.000000 96.754 -176.7502
37.500000 96.745 -177.0833
38.200001 96.731 -177.5502
38.700001 96.720 -177.8749
39.500000 96.701 -178.3869
40.000000 96.689 -178.7039
40.599998 96.673 -179.0724
41.200001 96.656 -179.4231
41.799999 96.641 -179.7625
42.500000 96.625 179.8464
43.099998 96.613 179.5141
43.700001 96.600 179.1859
44.400002 96.586 178.8075
45.000000 96.573 178.4892
45.500000 96.561 178.2331
46.200001 96.544 177.8893
46.799999 96.530 177.5999
47.500000 96.514 177.2606
48.200001 96.497 176.9257
48.700001 96.485 176.6912
49.400002 96.466 176.3655
50.000000 96.450 176.0890
50.799999 96.428 175.7285
51.500000 96.408 175.4201
52.200001 96.389 175.1196
53.000000 96.367 174.7883
53.799999 96.345 174.4693
54.500000 96.325 174.1990
55.200001 96.304 173.9359
56.000000 96.281 173.6433
57.000000 96.251 173.2905
58.000000 96.218 172.9624
59.000000 96.187 172.6729
60.000000 96.165 172.3568
60.799999 96.147 172.0485
61.500000 96.127 171.7805
62.200001 96.105 171.5374
63.000000 96.080 171.2755
64.000000 96.050 170.9552
65.000000 96.022 170.6403
66.000000 95.994 170.3303
67.000000 95.966 170.0341
68.000000 95.937 169.7411
69.000000 95.906 169.4499
70.000000 95.872 169.1679
71.000000 95.838 168.8951
72.000000 95.804 168.6319
73.000000 95.774 168.3745
74.000000 95.741 168.1201
75.000000 95.708 167.8741
76.199997 95.667 167.5961
77.500000 95.624 167.3111
78.800003 95.581 167.0277
80.000000 95.538 166.7850
81.199997 95.498 166.5806
82.500000 95.461 166.3061
83.800003 95.418 166.0060
85.000000 95.380 165.7458
86.199997 95.342 165.4876
87.500000 95.302 165.2293
88.500000 95.271 165.0461
90.000000 95.224 164.7878
91.199997 95.186 164.5961
92.500000 95.146 164.3910
93.800003 95.107 164.1833
95.000000 95.068 163.9984
96.199997 95.029 163.8279
97.500000 94.988 163.6566
98.800003 94.946 163.4924
100.000000 94.906 163.3388
101.500000 94.856 163.1370
103.000000 94.808 162.9325
104.400002 94.762 162.7429
106.000000 94.709 162.5421
107.500000 94.660 162.3677
109.000000 94.612 162.2077
110.599998 94.560 162.0521
112.000000 94.516 161.9280
113.800003 94.460 161.7758
115.000000 94.421 161.6735
117.199997 94.349 161.4809
118.000000 94.323 161.4108
120.599998 94.241 161.2009
122.000000 94.200 161.1044
124.099998 94.141 160.9725
125.000000 94.115 160.9142
126.500000 94.071 160.8229
128.000000 94.027 160.7390
131.500000 93.929 160.5408
132.000000 93.916 160.5144
134.000000 93.862 160.4193
136.000000 93.810 160.3522
138.000000 93.758 160.2966
140.000000 93.705 160.2274
143.000000 93.629 160.1292
145.000000 93.580 160.0722
147.500000 93.517 160.0259
150.000000 93.456 160.0093
152.500000 93.395 160.0013
155.000000 93.333 159.9855
157.500000 93.270 159.9760
160.000000 93.208 159.9580
162.500000 93.149 159.9511
165.000000 93.092 159.9768
167.500000 93.036 160.0186
170.000000 92.975 160.0594
172.500000 92.915 160.0815
175.000000 92.857 160.0815
177.500000 92.796 160.1061
180.000000 92.735 160.1642
182.500000 92.676 160.2332
185.000000 92.619 160.2890
187.500000 92.565 160.3298
190.000000 92.511 160.3915
192.500000 92.459 160.4792
195.000000 92.406 160.5720
197.500000 92.354 160.6616
200.000000 92.306 160.7445
203.000000 92.251 160.8440
206.000000 92.194 160.9531
209.000000 92.135 161.0630
212.000000 92.080 161.1942
214.000000 92.043 161.2985
218.000000 91.968 161.4966
220.000000 91.931 161.5864
224.000000 91.861 161.7667
227.000000 91.809 161.9079
230.000000 91.756 162.0647
233.000000 91.707 162.2449
236.000000 91.660 162.4334
240.000000 91.599 162.6639
243.000000 91.553 162.8303
247.000000 91.494 163.0663
250.000000 91.451 163.2512
254.000000 91.394 163.5114
258.000000 91.338 163.7631
262.000000 91.286 163.9941
265.000000 91.249 164.1758
269.000000 91.201 164.4225
272.000000 91.166 164.6035
276.000000 91.120 164.8403
280.000000 91.075 165.0724
285.000000 91.020 165.3721
290.000000 90.967 165.6821
295.000000 90.914 166.0071
300.000000 90.861 166.3649
304.000000 90.817 166.6391
307.000000 90.788 166.8250
311.000000 90.752 167.0740
315.000000 90.719 167.3376
320.000000 90.679 167.6746
325.000000 90.634 168.0045
330.000000 90.591 168.3330
335.000000 90.552 168.6606
340.000000 90.514 169.0027
345.000000 90.474 169.3640
350.000000 90.433 169.7243
355.000000 90.395 170.0740
360.000000 90.354 170.4220
365.000000 90.316 170.7729
370.000000 90.279 171.1207
375.000000 90.242 171.4526
382.000000 90.196 171.9287
387.000000 90.163 172.2746
395.000000 90.110 172.8058
400.000000 90.078 173.1435
406.000000 90.039 173.5662
412.000000 90.004 173.9895
418.000000 89.969 174.4082
425.000000 89.931 174.8982
431.000000 89.898 175.3141
437.000000 89.865 175.7183
444.000000 89.831 176.1840
450.000000 89.802 176.5862
455.000000 89.778 176.9229
462.000000 89.745 177.3936
468.000000 89.718 177.8000
475.000000 89.686 178.2673
482.000000 89.655 178.7296
487.000000 89.634 179.0667
494.000000 89.606 179.5410
500.000000 89.583 179.9494
508.000000 89.552 -179.4893
515.000000 89.523 -178.9766
522.000000 89.497 -178.4540
530.000000 89.473 -177.8495
538.000000 89.452 -177.2459
545.000000 89.436 -176.7147
552.000000 89.421 -176.1735
560.000000 89.407 -175.5593
570.000000 89.393 -174.8131
580.000000 89.381 -174.0519
590.000000 89.370 -173.2855
600.000000 89.361 -172.5372
608.000000 89.354 -171.9393
615.000000 89.351 -171.4025
622.000000 89.350 -170.8579
630.000000 89.349 -170.2426
640.000000 89.347 -169.5038
650.000000 89.348 -168.7728
660.000000 89.351 -168.0304
670.000000 89.354 -167.2981
680.000000 89.361 -166.5724
690.000000 89.371 -165.8455
700.000000 89.383 -165.1213
710.000000 89.400 -164.3904
720.000000 89.418 -163.6624
730.000000 89.436 -162.9522
740.000000 89.457 -162.2430
750.000000 89.481 -161.5307
762.000000 89.511 -160.6818
775.000000 89.546 -159.7675
788.000000 89.584 -158.8633
800.000000 89.623 -158.0502
812.000000 89.664 -157.2353
825.000000 89.713 -156.3591
838.000000 89.764 -155.5055
850.000000 89.813 -154.7218
862.000000 89.867 -153.9482
875.000000 89.929 -153.1405
885.000000 89.976 -152.5332
900.000000 90.051 -151.6429
912.000000 90.116 -150.9406
925.000000 90.188 -150.2072
938.000000 90.262 -149.5044
950.000000 90.334 -148.8755
962.000000 90.409 -148.2694
975.000000 90.493 -147.6136
988.000000 90.583 -146.9728
1000.000000 90.666 -146.4249
1015.000000 90.757 -145.8050
1030.000000 90.846 -145.2227
1044.000000 90.934 -144.6952
1060.000000 91.037 -144.1147
1075.000000 91.131 -143.5965
1090.000000 91.229 -143.1188
1106.000000 91.342 -142.6469
1120.000000 91.444 -142.2624
1138.000000 91.575 -141.8097
1150.000000 91.661 -141.5246
1172.000000 91.815 -141.0328
1180.000000 91.869 -140.8618
1206.000000 92.043 -140.3560
1220.000000 92.138 -140.1179
1241.000000 92.280 -139.7751
1250.000000 92.341 -139.6281
1265.000000 92.440 -139.3921
1280.000000 92.535 -139.1613
1315.000000 92.745 -138.6567
1320.000000 92.774 -138.5900
1340.000000 92.882 -138.3236
1360.000000 92.969 -138.0450
1380.000000 93.050 -137.7600
1400.000000 93.142 -137.4736
1430.000000 93.283 -136.9954
1450.000000 93.382 -136.6371
1475.000000 93.516 -136.1525
1500.000000 93.666 -135.7091
1525.000000 93.821 -135.4001
1550.000000 93.961 -135.2092
1575.000000 94.088 -135.0702
1600.000000 94.202 -134.9311
1625.000000 94.310 -134.7759
1650.000000 94.416 -134.5916
1675.000000 94.522 -134.3964
1700.000000 94.627 -134.2120
1725.000000 94.727 -134.0229
1750.000000 94.828 -133.8447
1775.000000 94.929 -133.6737
1800.000000 95.029 -133.5029
1825.000000 95.127 -133.3471
1850.000000 95.224 -133.1961
1875.000000 95.322 -133.0409
1900.000000 95.418 -132.8773
1925.000000 95.511 -132.6956
1950.000000 95.607 -132.4989
1975.000000 95.709 -132.2936
2000.000000 95.817 -132.1057
2030.000000 95.941 -131.9184
2060.000000 96.073 -131.7386
2090.000000 96.220 -131.5647
2120.000000 96.381 -131.4150
2140.000000 96.497 -131.3697
2180.000000 96.742 -131.5336
2200.000000 96.859 -131.7570
2240.000000 97.067 -132.3923
2270.000000 97.197 -132.9399
2300.000000 97.308 -133.4977
2330.000000 97.406 -134.0546
2360.000000 97.495 -134.6117
2400.000000 97.603 -135.3458
2430.000000 97.674 -135.8873
2470.000000 97.760 -136.6195
2500.000000 97.816 -137.1710
2540.000000 97.879 -137.9057
2580.000000 97.932 -138.6189
2620.000000 97.978 -139.3129
2650.000000 98.008 -139.8403
2690.000000 98.042 -140.5579
2720.000000 98.058 -141.1022
2760.000000 98.067 -141.8314
2800.000000 98.061 -142.5526
2850.000000 98.038 -143.4337
2900.000000 97.999 -144.2712
2950.000000 97.939 -145.0346
3000.000000 97.861 -145.6859
3040.000000 97.791 -146.1398
3070.000000 97.736 -146.4345
3110.000000 97.664 -146.7649
3150.000000 97.592 -147.0438
3200.000000 97.502 -147.3445
3250.000000 97.407 -147.5894
3300.000000 97.307 -147.7612
3350.000000 97.209 -147.8750
3400.000000 97.113 -147.9466
3450.000000 97.019 -147.9818
3500.000000 96.927 -147.9831
3550.000000 96.833 -147.9284
3600.000000 96.735 -147.7851
3650.000000 96.637 -147.5359
3700.000000 96.545 -147.1971
3750.000000 96.461 -146.7968
3820.000000 96.358 -146.1869
3870.000000 96.292 -145.7566
3950.000000 96.189 -145.0859
4000.000000 96.125 -144.6734
4060.000000 96.050 -144.1787
4120.000000 95.972 -143.6504
4180.000000 95.892 -143.0536
4250.000000 95.804 -142.2057
4310.000000 95.749 -141.3594
4370.000000 95.721 -140.5530
4440.000000 95.704 -139.8518
4500.000000 95.676 -139.3989
4550.000000 95.641 -139.0342
4620.000000 95.586 -138.4911
4680.000000 95.539 -138.0104
4750.000000 95.485 -137.4540
4820.000000 95.429 -136.9134
4870.000000 95.387 -136.5294
4940.000000 95.326 -135.9976
5000.000000 95.272 -135.5466
5080.000000 95.201 -134.9396
5150.000000 95.135 -134.4167
5220.000000 95.066 -133.8938
5300.000000 94.984 -133.2814
5380.000000 94.900 -132.6465
5450.000000 94.826 -132.0765
5520.000000 94.750 -131.4911
5600.000000 94.662 -130.7796
5700.000000 94.547 -129.7951
5800.000000 94.434 -128.7207
5900.000000 94.329 -127.5473
6000.000000 94.238 -126.2814
6080.000000 94.179 -125.2046
6150.000000 94.138 -124.2182
6220.000000 94.107 -123.2002
6300.000000 94.085 -122.0102
6400.000000 94.079 -120.4859
6500.000000 94.100 -118.9442
6600.000000 94.149 -117.4187
6700.000000 94.224 -115.9497
6800.000000 94.334 -114.5558
6900.000000 94.500 -113.2429
7000.000000 94.725 -112.0575
7100.000000 94.995 -111.0764
7200.000000 95.305 -110.3711
7300.000000 95.652 -110.0406
7400.000000 96.029 -110.1794
7500.000000 96.428 -110.8644
7620.000000 96.931 -112.5431
7750.000000 97.456 -115.6068
7880.000000 97.807 -120.0934
8000.000000 97.921 -125.3728
8120.000000 97.791 -131.3377
8250.000000 97.343 -137.8262
8380.000000 96.594 -143.4752
8500.000000 95.698 -147.4098
8620.000000 94.679 -149.9358
8750.000000 93.514 -151.1360
8850.000000 92.616 -151.1065
9000.000000 91.315 -149.7995
9120.000000 90.336 -147.8981
9250.000000 89.355 -145.2074
9380.000000 88.459 -142.0215
9500.000000 87.703 -138.7396
9620.000000 87.010 -135.2229
9750.000000 86.328 -131.2279
9880.000000 85.714 -127.0756
10000.000000 85.201 -123.1357
10150.000000 84.625 -118.1099
10300.000000 84.108 -112.9978
10440.000000 83.674 -108.1685
10600.000000 83.229 -102.5999
10750.000000 82.864 -97.3425
10900.000000 82.549 -92.0471
11060.000000 82.270 -86.3865
11200.000000 82.070 -81.4761
11380.000000 81.864 -75.2546
11500.000000 81.757 -71.1474
11720.000000 81.622 -63.6868
11800.000000 81.591 -61.0023
12060.000000 81.558 -52.3810
12200.000000 81.579 -47.8073
12410.000000 81.664 -41.0298
12500.000000 81.724 -38.1599
12650.000000 81.859 -33.4524
12800.000000 82.043 -28.8820
13150.000000 82.655 -19.0923
13200.000000 82.762 -17.8250
13400.000000 83.235 -13.1586
13600.000000 83.773 -9.2193
13800.000000 84.372 -6.0877
14000.000000 85.013 -3.8669
14300.000000 85.973 -2.4306
14500.000000 86.561 -2.7600
14750.000000 87.186 -4.6179
15000.000000 87.624 -7.9605
15250.000000 87.839 -12.4097
15500.000000 87.844 -17.5225
15750.000000 87.634 -22.9331
16000.000000 87.183 -28.3563
16250.000000 86.500 -33.7009
16500.000000 85.594 -39.5381
16750.000000 84.314 -46.8661
17000.000000 82.033 -49.1875
17250.000000 79.056 -34.7229
17500.000000 77.871 -22.0858
17750.000000 77.264 -16.9456
18000.000000 76.366 -11.7812
18250.000000 75.379 -5.1241
18500.000000 74.440 2.5506
18750.000000 73.603 10.9155
19000.000000 72.860 19.7632
19250.000000 72.182 28.9758
19500.000000 71.552 38.5651
19750.000000 70.992 48.5536
20000.000000 70.472 58.8494
20300.000000 69.957 71.5931
20600.000000 69.747 84.7183
20900.000000 69.896 97.5472
21200.000000 70.372 109.1061
21400.000000 70.807 115.5931
21800.000000 71.646 124.3942
22000.000000 71.901 123.6626
22400.000000 71.399 -4.5078
22700.000000 68.887 121.2330
23000.000000 63.529 -67.4019
23300.000000 55.728 -9.1934
23600.000000 46.942 -31.1289
24000.000000 41.063 -132.8203
