* Measurement data measured by REW V5.20.13
* Source: Headset (DS by VECLAN.COM), MICROPHONE (Master Volume), L, volume: 0.710. Timing signal peak level -16.0 dBFS, measurement signal peak level -14.5 dBFS
* Format: 2M Log Swept Sine, 1 sweep at -12.0 dBFS using an acoustic timing reference
* Dated: Nov 12, 2023 5:08:12 PM
* REW Settings:
*  C-weighting compensation: Off
*  Target level: 75.0 dB
* Note: ; Delay -0.0607 ms (-21 mm, -0.82 in) using estimated IR delay relative to Acoustic reference played from HEADPHONE R with no timing offset
* Measurement: Moondrop Blessing 3 R
* Smoothing: 1/24 octave
* Frequency Step: 1/48 octave
* Start Frequency: 1.000 Hz
*
* Freq(Hz) SPL(dB) Phase(degrees)
1.000000 64.566 -159.9302
1.015000 65.282 -160.6347
1.030000 65.971 -161.3798
1.044000 66.583 -162.1112
1.060000 67.240 -162.9890
1.075000 67.808 -163.8520
1.090000 68.324 -164.7531
1.106000 68.815 -165.7657
1.120000 69.222 -166.7490
1.138000 69.724 -168.1503
1.150000 70.045 -169.1626
1.172000 70.610 -171.1615
1.180000 70.807 -171.9294
1.206000 71.423 -174.5524
1.220000 71.739 -176.0323
1.241000 72.194 -178.3190
1.250000 72.382 -179.3177
1.265000 72.688 179.0004
1.280000 72.984 177.3056
1.315000 73.644 173.3559
1.320000 73.735 172.7975
1.340000 74.092 170.5934
1.360000 74.440 168.4536
1.380000 74.779 166.4015
1.400000 75.112 164.4603
1.430000 75.604 161.8076
1.450000 75.930 160.2457
1.475000 76.336 158.5570
1.500000 76.722 157.0933
1.525000 77.088 155.8146
1.550000 77.433 154.6982
1.575000 77.761 153.7210
1.600000 78.073 152.8604
1.625000 78.371 152.0934
1.650000 78.656 151.3971
1.675000 78.932 150.7488
1.700000 79.200 150.1255
1.725000 79.462 149.5044
1.750000 79.719 148.8626
1.775000 79.974 148.1773
1.800000 80.229 147.4256
1.825000 80.485 146.5847
1.850000 80.741 145.6596
1.875000 80.990 144.7078
1.900000 81.233 143.7363
1.925000 81.469 142.7495
1.950000 81.700 141.7518
1.975000 81.925 140.7474
2.000000 82.144 139.7409
2.030000 82.402 138.5364
2.060000 82.653 137.3425
2.090000 82.898 136.1669
2.120000 83.139 135.0172
2.140000 83.297 134.2688
2.180000 83.608 132.8254
2.200000 83.761 132.1349
2.240000 84.062 130.8051
2.270000 84.280 129.8441
2.300000 84.493 128.9108
2.330000 84.700 128.0017
2.360000 84.902 127.1135
2.400000 85.164 125.9561
2.430000 85.355 125.1037
2.470000 85.603 123.9819
2.500000 85.783 123.1473
2.540000 86.018 122.0371
2.580000 86.246 120.9254
2.620000 86.464 119.8311
2.650000 86.622 119.0234
2.690000 86.826 117.9620
2.720000 86.973 117.1758
2.760000 87.163 116.1385
2.800000 87.346 115.1110
2.850000 87.567 113.8362
2.900000 87.779 112.5667
2.950000 87.983 111.2949
3.000000 88.176 110.0054
3.040000 88.324 108.9682
3.070000 88.430 108.1924
3.110000 88.566 107.1675
3.150000 88.698 106.1613
3.200000 88.855 104.9424
3.250000 89.007 103.7819
3.300000 89.153 102.6960
3.350000 89.293 101.6914
3.400000 89.424 100.7555
3.450000 89.547 99.8745
3.500000 89.665 99.0344
3.550000 89.778 98.2215
3.600000 89.888 97.4218
3.650000 89.996 96.6216
3.700000 90.101 95.8123
3.750000 90.201 95.0043
3.820000 90.333 93.8922
3.870000 90.424 93.1231
3.950000 90.566 91.9599
4.000000 90.655 91.2884
4.060000 90.764 90.5551
4.120000 90.870 89.9091
4.180000 90.974 89.3289
4.250000 91.095 88.7020
4.310000 91.200 88.1791
4.370000 91.306 87.6436
4.440000 91.432 86.9870
4.500000 91.542 86.4260
4.550000 91.635 85.9610
4.620000 91.765 85.3121
4.680000 91.878 84.7558
4.750000 92.008 84.1045
4.820000 92.140 83.4559
4.870000 92.235 82.9987
4.940000 92.369 82.3589
5.000000 92.483 81.8028
5.080000 92.631 81.0375
5.150000 92.756 80.3335
5.220000 92.878 79.5950
5.300000 93.014 78.7210
5.380000 93.145 77.8300
5.450000 93.254 77.0487
5.520000 93.355 76.2736
5.600000 93.463 75.3710
5.700000 93.587 74.2349
5.800000 93.700 73.1300
5.900000 93.802 72.0915
6.000000 93.889 71.0909
6.080000 93.951 70.3269
6.150000 94.002 69.6978
6.220000 94.053 69.1162
6.300000 94.109 68.5123
6.400000 94.171 67.8345
6.500000 94.235 67.2366
6.600000 94.310 66.7128
6.700000 94.393 66.2947
6.800000 94.484 65.9612
6.900000 94.587 65.6470
7.000000 94.709 65.3015
7.100000 94.849 64.9802
7.200000 95.004 64.6408
7.300000 95.169 64.2125
7.400000 95.344 63.6638
7.500000 95.535 63.0363
7.620000 95.768 62.1379
7.750000 96.010 60.9277
7.880000 96.251 59.4728
8.000000 96.459 57.9574
8.120000 96.639 56.3003
8.250000 96.811 54.3077
8.380000 96.950 52.2125
8.500000 97.040 50.2502
8.620000 97.098 48.2111
8.750000 97.124 46.0397
8.850000 97.116 44.4591
9.000000 97.058 42.1527
9.120000 96.982 40.4795
9.250000 96.876 38.9248
9.380000 96.739 37.5908
9.500000 96.606 36.6071
9.620000 96.472 35.9093
9.750000 96.320 35.4452
9.880000 96.187 35.2034
10.000000 96.087 35.1934
10.150000 95.988 35.4342
10.300000 95.936 35.6847
10.440000 95.935 35.9664
10.600000 95.973 36.1779
10.750000 96.041 36.1071
10.900000 96.137 35.8350
11.060000 96.228 35.2739
11.200000 96.304 34.5326
11.380000 96.374 33.4402
11.500000 96.395 32.6278
11.720000 96.391 31.1354
11.800000 96.376 30.6561
12.060000 96.288 29.2979
12.200000 96.236 28.8127
12.410000 96.159 28.3646
12.500000 96.139 28.2530
12.650000 96.120 28.2119
12.800000 96.125 28.2119
13.150000 96.249 28.0775
13.200000 96.274 28.0014
13.400000 96.397 27.5347
13.600000 96.518 26.7897
13.800000 96.624 25.7285
14.000000 96.693 24.5121
14.300000 96.718 22.5209
14.500000 96.678 21.2968
14.750000 96.589 20.0558
15.000000 96.473 19.2094
15.250000 96.373 18.7740
15.500000 96.309 18.5920
15.750000 96.290 18.5480
16.000000 96.313 18.4365
16.250000 96.357 18.1536
16.500000 96.408 17.6819
16.750000 96.447 17.0420
17.000000 96.467 16.3488
17.250000 96.470 15.6582
17.500000 96.460 15.0393
17.750000 96.450 14.4974
18.000000 96.443 14.0015
18.250000 96.444 13.5139
18.500000 96.450 12.9734
18.750000 96.454 12.3729
19.000000 96.451 11.7068
19.250000 96.435 11.0176
19.500000 96.404 10.3538
19.750000 96.360 9.7529
20.000000 96.310 9.2609
20.299999 96.252 8.8087
20.600000 96.206 8.4789
20.900000 96.179 8.2112
21.200001 96.172 7.9297
21.400000 96.176 7.7005
21.799999 96.192 7.1166
22.000000 96.199 6.7592
22.400000 96.202 5.9401
22.700001 96.191 5.2802
23.000000 96.166 4.6295
23.299999 96.131 4.0231
23.600000 96.088 3.4814
24.000000 96.028 2.8719
24.299999 95.987 2.4868
24.700001 95.939 2.0333
25.000000 95.909 1.7098
25.400000 95.874 1.2744
25.799999 95.839 0.8241
26.200001 95.803 0.3615
26.500000 95.774 0.0107
26.900000 95.730 -0.4524
27.200001 95.691 -0.7806
27.600000 95.634 -1.1575
28.000000 95.576 -1.4178
28.500000 95.524 -1.5665
29.000000 95.520 -1.6691
29.500000 95.563 -1.9918
30.000000 95.614 -2.7190
30.400000 95.631 -3.5444
30.700001 95.620 -4.2200
31.100000 95.576 -5.0684
31.500000 95.514 -5.7728
32.000000 95.433 -6.4310
32.500000 95.366 -6.9308
33.000000 95.316 -7.3807
33.500000 95.275 -7.8264
34.000000 95.240 -8.2732
34.500000 95.208 -8.7175
35.000000 95.174 -9.1522
35.500000 95.138 -9.5659
36.000000 95.101 -9.9568
36.500000 95.062 -10.3345
37.000000 95.019 -10.6971
37.500000 94.972 -11.0240
38.200001 94.905 -11.4022
38.700001 94.863 -11.6471
39.500000 94.800 -12.0609
40.000000 94.761 -12.3175
40.599998 94.719 -12.6188
41.200001 94.684 -12.9672
41.799999 94.645 -13.3870
42.500000 94.586 -13.8826
43.099998 94.532 -14.2389
43.700001 94.484 -14.5463
44.400002 94.434 -14.8823
45.000000 94.397 -15.1618
45.500000 94.370 -15.4048
46.200001 94.334 -15.7720
46.799999 94.301 -16.0822
47.500000 94.268 -16.4498
48.200001 94.232 -16.9150
48.700001 94.188 -17.2736
49.400002 94.100 -17.6145
50.000000 94.029 -17.6935
50.799999 93.968 -17.7346
51.500000 93.925 -17.8909
52.200001 93.873 -18.1121
53.000000 93.802 -18.3755
53.799999 93.722 -18.5907
54.500000 93.660 -18.7119
55.200001 93.616 -18.8932
56.000000 93.565 -19.2660
57.000000 93.474 -19.7548
58.000000 93.368 -20.0592
59.000000 93.281 -20.0695
60.000000 93.253 -20.1064
60.799999 93.228 -20.4000
61.500000 93.179 -20.6761
62.200001 93.119 -20.8701
63.000000 93.047 -21.0533
64.000000 92.949 -21.1676
65.000000 92.877 -21.1667
66.000000 92.826 -21.3251
67.000000 92.764 -21.5267
68.000000 92.709 -21.6533
69.000000 92.663 -21.8050
70.000000 92.611 -22.0122
71.000000 92.536 -22.2332
72.000000 92.444 -22.2847
73.000000 92.374 -22.2505
74.000000 92.313 -22.3622
75.000000 92.240 -22.5327
76.199997 92.151 -22.6747
77.500000 92.071 -22.7540
78.800003 92.011 -22.8454
80.000000 91.948 -23.0137
81.199997 91.859 -23.1103
82.500000 91.762 -23.0841
83.800003 91.661 -23.0710
85.000000 91.573 -23.0088
86.199997 91.498 -22.9518
87.500000 91.429 -22.9208
88.500000 91.374 -22.8995
90.000000 91.296 -22.7148
91.199997 91.265 -22.5646
92.500000 91.240 -22.7411
93.800003 91.164 -23.0084
95.000000 91.090 -23.0530
96.199997 91.026 -23.0387
97.500000 90.953 -22.8918
98.800003 90.890 -22.5599
100.000000 90.847 -22.2733
101.500000 90.778 -22.1358
103.000000 90.672 -22.1158
104.400002 90.570 -22.0302
106.000000 90.498 -21.9192
107.500000 90.462 -21.9126
109.000000 90.421 -21.8730
110.599998 90.357 -21.6951
112.000000 90.278 -21.4258
113.800003 90.169 -21.0397
115.000000 90.102 -20.8741
117.199997 89.989 -20.7153
118.000000 89.954 -20.6559
120.599998 89.869 -20.2861
122.000000 89.840 -20.0800
124.099998 89.783 -19.8740
125.000000 89.748 -19.7747
126.500000 89.688 -19.5181
128.000000 89.635 -19.1782
131.500000 89.513 -18.4175
132.000000 89.495 -18.3429
134.000000 89.426 -18.1672
136.000000 89.368 -18.0765
138.000000 89.331 -17.9212
140.000000 89.295 -17.6193
143.000000 89.234 -17.0635
145.000000 89.170 -16.8021
147.500000 89.080 -16.3706
150.000000 89.023 -15.8226
152.500000 88.991 -15.2745
155.000000 88.962 -14.7355
157.500000 88.921 -14.2163
160.000000 88.864 -13.7407
162.500000 88.826 -13.3553
165.000000 88.805 -13.0771
167.500000 88.772 -12.7491
170.000000 88.718 -12.3232
172.500000 88.661 -11.8606
175.000000 88.617 -11.3815
177.500000 88.576 -10.8696
180.000000 88.540 -10.3564
182.500000 88.516 -9.9238
185.000000 88.499 -9.5275
187.500000 88.478 -9.1360
190.000000 88.444 -8.8271
192.500000 88.408 -8.5441
195.000000 88.393 -8.1635
197.500000 88.389 -7.6595
200.000000 88.381 -7.1350
203.000000 88.367 -6.6808
206.000000 88.355 -6.3538
209.000000 88.341 -5.9565
212.000000 88.321 -5.4658
214.000000 88.309 -5.1195
218.000000 88.297 -4.4764
220.000000 88.292 -4.2241
224.000000 88.286 -3.7666
227.000000 88.291 -3.4019
230.000000 88.297 -3.0381
233.000000 88.298 -2.7062
236.000000 88.286 -2.3494
240.000000 88.265 -1.7236
243.000000 88.260 -1.2492
247.000000 88.266 -0.7271
250.000000 88.277 -0.3822
254.000000 88.287 0.0454
258.000000 88.282 0.4183
262.000000 88.282 0.7885
265.000000 88.285 1.1559
269.000000 88.280 1.6298
272.000000 88.284 1.9021
276.000000 88.310 2.2661
280.000000 88.340 2.6388
285.000000 88.356 3.1659
290.000000 88.364 3.6089
295.000000 88.370 4.0546
300.000000 88.372 4.5704
304.000000 88.380 4.9279
307.000000 88.393 5.1610
311.000000 88.415 5.4302
315.000000 88.442 5.6950
320.000000 88.475 6.0340
325.000000 88.487 6.4594
330.000000 88.491 6.9521
335.000000 88.503 7.3853
340.000000 88.526 7.7324
345.000000 88.549 8.0125
350.000000 88.564 8.2872
355.000000 88.578 8.6328
360.000000 88.597 9.0097
365.000000 88.611 9.4006
370.000000 88.635 9.7311
375.000000 88.666 9.9777
382.000000 88.704 10.3170
387.000000 88.722 10.6962
395.000000 88.693 11.2904
400.000000 88.687 11.4758
406.000000 88.720 11.7501
412.000000 88.742 12.0847
418.000000 88.752 12.4175
425.000000 88.757 12.7896
431.000000 88.761 13.1074
437.000000 88.772 13.4175
444.000000 88.794 13.7662
450.000000 88.807 14.1017
455.000000 88.814 14.3545
462.000000 88.814 14.6901
468.000000 88.813 15.0303
475.000000 88.821 15.4037
482.000000 88.834 15.7108
487.000000 88.844 15.9548
494.000000 88.870 16.3354
500.000000 88.901 16.6814
508.000000 88.921 17.1247
515.000000 88.908 17.4801
522.000000 88.891 17.7788
530.000000 88.888 18.1392
538.000000 88.895 18.6058
545.000000 88.907 18.9915
552.000000 88.922 19.3354
560.000000 88.935 19.7404
570.000000 88.944 20.2526
580.000000 88.953 20.8029
590.000000 88.977 21.4026
600.000000 88.984 22.0192
608.000000 88.989 22.5399
615.000000 88.992 22.9938
622.000000 88.988 23.3849
630.000000 88.982 23.7437
640.000000 88.990 24.2220
650.000000 88.997 24.7656
660.000000 88.997 25.4227
670.000000 89.007 26.1682
680.000000 89.027 26.7470
690.000000 89.045 27.2011
700.000000 89.067 27.7299
710.000000 89.088 28.3767
720.000000 89.109 28.9716
730.000000 89.134 29.5609
740.000000 89.157 30.1733
750.000000 89.177 30.8195
762.000000 89.196 31.5976
775.000000 89.221 32.4038
788.000000 89.255 33.1752
800.000000 89.289 33.9106
812.000000 89.326 34.6692
825.000000 89.369 35.5012
838.000000 89.418 36.3062
850.000000 89.469 37.0133
862.000000 89.522 37.7158
875.000000 89.577 38.5078
885.000000 89.616 39.1249
900.000000 89.679 40.0173
912.000000 89.737 40.6980
925.000000 89.811 41.4132
938.000000 89.895 42.0792
950.000000 89.971 42.6609
962.000000 90.039 43.2596
975.000000 90.102 43.9258
988.000000 90.162 44.5547
1000.000000 90.226 45.0920
1015.000000 90.318 45.7164
1030.000000 90.418 46.2812
1044.000000 90.509 46.7780
1060.000000 90.604 47.3431
1075.000000 90.682 47.8541
1090.000000 90.759 48.3289
1106.000000 90.851 48.8000
1120.000000 90.938 49.1829
1138.000000 91.054 49.6331
1150.000000 91.132 49.9114
1172.000000 91.272 50.4120
1180.000000 91.321 50.5857
1206.000000 91.470 51.1096
1220.000000 91.538 51.3948
1241.000000 91.628 51.8354
1250.000000 91.667 52.0215
1265.000000 91.736 52.3246
1280.000000 91.813 52.6164
1315.000000 91.991 53.2536
1320.000000 92.012 53.3552
1340.000000 92.081 53.7924
1360.000000 92.120 54.2344
1380.000000 92.159 54.6852
1400.000000 92.217 55.1378
1430.000000 92.332 55.7964
1450.000000 92.409 56.2544
1475.000000 92.487 56.8888
1500.000000 92.557 57.5489
1525.000000 92.635 58.1921
1550.000000 92.715 58.8373
1575.000000 92.787 59.5119
1600.000000 92.850 60.2023
1625.000000 92.917 60.9205
1650.000000 93.000 61.6509
1675.000000 93.091 62.3643
1700.000000 93.182 63.0825
1725.000000 93.263 63.7948
1750.000000 93.337 64.5287
1775.000000 93.411 65.2756
1800.000000 93.494 66.0141
1825.000000 93.590 66.7378
1850.000000 93.694 67.4528
1875.000000 93.800 68.1595
1900.000000 93.899 68.8594
1925.000000 93.993 69.5743
1950.000000 94.093 70.2743
1975.000000 94.201 70.9512
2000.000000 94.316 71.6129
2030.000000 94.460 72.3616
2060.000000 94.598 73.1066
2090.000000 94.729 73.8434
2120.000000 94.868 74.5448
2140.000000 94.967 74.9969
2180.000000 95.178 75.8295
2200.000000 95.285 76.2184
2240.000000 95.492 76.9682
2270.000000 95.647 77.4871
2300.000000 95.807 77.9510
2330.000000 95.972 78.3626
2360.000000 96.138 78.7308
2400.000000 96.356 79.1395
2430.000000 96.514 79.4012
2470.000000 96.726 79.6732
2500.000000 96.893 79.7936
2540.000000 97.117 79.8708
2580.000000 97.331 79.8495
2620.000000 97.528 79.7422
2650.000000 97.665 79.6059
2690.000000 97.839 79.3543
2720.000000 97.968 79.1093
2760.000000 98.136 78.7174
2800.000000 98.296 78.2828
2850.000000 98.474 77.6950
2900.000000 98.626 77.0619
2950.000000 98.762 76.3230
3000.000000 98.897 75.3841
3040.000000 98.993 74.4922
3070.000000 99.048 73.7816
3110.000000 99.091 72.8317
3150.000000 99.100 71.9119
3200.000000 99.076 70.8399
3250.000000 99.028 69.8759
3300.000000 98.960 69.0393
3350.000000 98.872 68.3483
3400.000000 98.771 67.7945
3450.000000 98.664 67.3754
3500.000000 98.552 67.0903
3550.000000 98.438 66.9224
3600.000000 98.320 66.8727
3650.000000 98.203 66.9256
3700.000000 98.092 67.0621
3750.000000 97.983 67.2890
3820.000000 97.833 67.7307
3870.000000 97.726 68.1265
3950.000000 97.550 68.8896
4000.000000 97.443 69.4312
4060.000000 97.324 70.1423
4120.000000 97.220 70.9024
4180.000000 97.127 71.7155
4250.000000 97.034 72.6971
4310.000000 96.954 73.5547
4370.000000 96.854 74.4341
4440.000000 96.727 75.4629
4500.000000 96.638 76.3160
4550.000000 96.587 76.9921
4620.000000 96.526 77.9012
4680.000000 96.457 78.6614
4750.000000 96.348 79.5276
4820.000000 96.223 80.3780
4870.000000 96.123 81.0104
4940.000000 95.972 82.0013
5000.000000 95.844 82.9753
5080.000000 95.697 84.4805
5150.000000 95.589 85.9955
5220.000000 95.506 87.6456
5300.000000 95.449 89.6182
5380.000000 95.443 91.5906
5450.000000 95.489 93.2164
5520.000000 95.589 94.6255
5600.000000 95.766 95.7422
5700.000000 96.030 95.9545
5800.000000 96.217 94.4752
5900.000000 96.147 91.7380
6000.000000 95.737 89.0685
6080.000000 95.201 87.9037
6150.000000 94.646 87.8741
6220.000000 94.063 88.7598
6300.000000 93.405 90.7661
6400.000000 92.652 94.5256
6500.000000 92.023 99.4343
6600.000000 91.573 105.1343
6700.000000 91.342 111.1690
6800.000000 91.316 117.1381
6900.000000 91.463 122.7898
7000.000000 91.742 128.0233
7100.000000 92.127 132.7722
7200.000000 92.614 136.9857
7300.000000 93.212 140.5569
7400.000000 93.914 143.3404
7500.000000 94.705 145.1599
7620.000000 95.754 145.7103
7750.000000 96.893 143.5795
7880.000000 97.757 138.0212
8000.000000 98.113 130.2557
8120.000000 97.913 121.6119
8250.000000 97.098 113.6919
8380.000000 95.863 108.8864
8500.000000 94.569 107.3572
8620.000000 93.280 108.1028
8750.000000 91.982 110.7697
8850.000000 91.072 113.7649
9000.000000 89.866 119.3241
9120.000000 89.052 124.3761
9250.000000 88.312 130.2289
9380.000000 87.701 136.3308
9500.000000 87.245 142.0726
9620.000000 86.884 147.8461
9750.000000 86.596 154.0599
9880.000000 86.409 160.1510
10000.000000 86.322 165.5945
10150.000000 86.321 172.0399
10300.000000 86.416 177.9554
10440.000000 86.563 -177.1266
10600.000000 86.776 -172.3725
10750.000000 86.994 -168.8539
10900.000000 87.176 -166.2220
11060.000000 87.260 -164.1696
11200.000000 87.206 -162.6926
11380.000000 86.974 -160.6741
11500.000000 86.740 -158.9914
11720.000000 86.215 -154.9819
11800.000000 86.014 -153.2611
12060.000000 85.401 -146.6469
12200.000000 85.146 -142.4659
12410.000000 84.857 -136.2079
12500.000000 84.741 -133.6787
12650.000000 84.535 -129.6058
12800.000000 84.309 -125.5145
13150.000000 83.769 -114.8027
13200.000000 83.704 -113.0884
13400.000000 83.513 -105.7925
13600.000000 83.472 -97.9415
13800.000000 83.620 -89.8017
14000.000000 83.981 -81.6765
14300.000000 84.981 -70.2031
14500.000000 85.996 -63.7079
14750.000000 87.600 -58.4224
15000.000000 89.281 -58.2218
15250.000000 90.532 -63.8174
15500.000000 90.947 -72.5707
15750.000000 90.522 -79.4717
16000.000000 89.670 -81.7296
16250.000000 88.892 -80.0532
16500.000000 88.463 -76.4160
16750.000000 88.428 -72.5807
17000.000000 88.702 -69.8702
17250.000000 89.132 -69.2491
17500.000000 89.527 -71.0787
17750.000000 89.715 -74.8563
18000.000000 89.619 -79.7183
18250.000000 89.193 -84.7549
18500.000000 88.484 -88.3854
18750.000000 87.804 -89.1197
19000.000000 87.540 -87.5675
19250.000000 87.593 -86.0910
19500.000000 87.513 -86.1701
19750.000000 87.062 -87.3958
20000.000000 86.213 -88.5965
20300.000000 84.832 -88.8588
20600.000000 83.330 -87.4659
20900.000000 81.771 -84.5630
21200.000000 80.200 -80.0362
21400.000000 79.227 -77.1919
21800.000000 77.282 -108.6387
22000.000000 75.743 122.7489
22400.000000 70.155 -5.7769
22700.000000 63.846 -112.2930
23000.000000 56.248 31.5566
23300.000000 48.966 51.5664
23600.000000 46.342 -143.3828
24000.000000 47.151 7.8281
