* Measurement data measured by REW V5.20.13
* Source: Microphone (Realtek(R) Audio), MICROPHONE (Master Volume), L, volume: 0.710. Timing signal peak level -39.7 dBFS, measurement signal peak level -36.8 dBFS
* Format: 2M Log Swept Sine, 1 sweep at -12.0 dBFS using an acoustic timing reference
* Dated: Sep 8, 2023 2:11:14 PM
* REW Settings:
*  C-weighting compensation: Off
*  Target level: 75.0 dB
* Note: ; Delay -0.0523 ms (-18 mm, -0.71 in) using estimated IR delay relative to Acoustic reference played from HEADPHONE R with no timing offset Clock adjustment: 120.0 ppm
* Measurement: Aria CP145 R
* Smoothing: 1/24 octave
* Frequency Step: 1/48 octave
* Start Frequency: 20.000 Hz
*
* Freq(Hz) SPL(dB) Phase(degrees)
20.000000 95.313 31.0451
20.299999 95.343 30.4100
20.600000 95.373 29.7867
20.900000 95.403 29.1677
21.200001 95.432 28.5440
21.400000 95.449 28.1236
21.799999 95.480 27.2764
22.000000 95.492 26.8548
22.400000 95.511 26.0312
22.700001 95.522 25.4434
23.000000 95.532 24.8867
23.299999 95.542 24.3540
23.600000 95.555 23.8350
24.000000 95.574 23.1473
24.299999 95.589 22.6265
24.700001 95.608 21.9271
25.000000 95.619 21.4083
25.400000 95.630 20.7396
25.799999 95.641 20.1078
26.200001 95.655 19.5082
26.500000 95.667 19.0699
26.900000 95.687 18.4869
27.200001 95.704 18.0424
27.600000 95.725 17.4333
28.000000 95.744 16.8059
28.500000 95.761 16.0104
29.000000 95.767 15.2399
29.500000 95.765 14.5382
30.000000 95.763 13.9207
30.400000 95.764 13.4620
30.700001 95.767 13.1171
31.100000 95.773 12.6333
31.500000 95.777 12.1198
32.000000 95.773 11.4666
32.500000 95.761 10.8474
33.000000 95.748 10.2771
33.500000 95.736 9.7332
34.000000 95.728 9.1936
34.500000 95.721 8.6581
35.000000 95.716 8.1300
35.500000 95.714 7.5973
36.000000 95.713 7.0462
36.500000 95.708 6.4829
37.000000 95.700 5.9274
37.500000 95.689 5.3897
38.200001 95.669 4.6782
38.700001 95.652 4.2258
39.500000 95.639 3.6122
40.000000 95.646 3.2023
40.599998 95.655 2.5723
41.200001 95.640 1.8488
41.799999 95.599 1.2153
42.500000 95.549 0.6930
43.099998 95.523 0.3164
43.700001 95.506 -0.1020
44.400002 95.483 -0.6398
45.000000 95.459 -1.1066
45.500000 95.435 -1.4855
46.200001 95.400 -1.9835
46.799999 95.374 -2.3893
47.500000 95.347 -2.8937
48.200001 95.316 -3.4280
48.700001 95.287 -3.7792
49.400002 95.250 -4.1852
50.000000 95.230 -4.4900
50.799999 95.219 -4.9398
51.500000 95.208 -5.4046
52.200001 95.186 -5.8654
53.000000 95.157 -6.3256
53.799999 95.125 -6.7761
54.500000 95.085 -7.1548
55.200001 95.042 -7.4755
56.000000 94.996 -7.8666
57.000000 94.929 -8.4824
58.000000 94.849 -9.3373
59.000000 94.669 -10.3638
60.000000 94.420 -10.1534
60.799999 94.399 -9.2837
61.500000 94.514 -9.1321
62.200001 94.619 -9.8026
63.000000 94.642 -10.8705
64.000000 94.594 -11.7678
65.000000 94.554 -12.2582
66.000000 94.524 -12.6599
67.000000 94.486 -12.9911
68.000000 94.447 -13.3087
69.000000 94.395 -13.6646
70.000000 94.333 -13.9567
71.000000 94.282 -14.2267
72.000000 94.235 -14.5582
73.000000 94.185 -14.8929
74.000000 94.135 -15.1964
75.000000 94.088 -15.4868
76.199997 94.029 -15.8231
77.500000 93.962 -16.1699
78.800003 93.897 -16.5040
80.000000 93.839 -16.8312
81.199997 93.782 -17.1658
82.500000 93.717 -17.5015
83.800003 93.654 -17.7856
85.000000 93.598 -18.0215
86.199997 93.543 -18.2278
87.500000 93.484 -18.4534
88.500000 93.439 -18.6317
90.000000 93.372 -18.9109
91.199997 93.317 -19.1298
92.500000 93.261 -19.3535
93.800003 93.206 -19.5767
95.000000 93.150 -19.7800
96.199997 93.089 -19.9531
97.500000 93.020 -20.1025
98.800003 92.956 -20.1948
100.000000 92.909 -20.3010
101.500000 92.849 -20.5339
103.000000 92.776 -20.7269
104.400002 92.709 -20.8387
106.000000 92.641 -20.9616
107.500000 92.579 -21.1638
109.000000 92.510 -21.3450
110.599998 92.450 -21.4307
112.000000 92.406 -21.4960
113.800003 92.328 -21.5972
115.000000 92.258 -21.6536
117.199997 92.113 -21.9812
118.000000 92.049 -22.1924
120.599998 91.855 -22.3562
122.000000 91.846 -22.2399
124.099998 91.854 -22.2778
125.000000 91.845 -22.2621
126.500000 91.817 -22.2128
128.000000 91.775 -22.2270
131.500000 91.640 -22.4906
132.000000 91.620 -22.5143
134.000000 91.545 -22.5263
136.000000 91.476 -22.4733
138.000000 91.408 -22.4520
140.000000 91.343 -22.4720
143.000000 91.255 -22.5038
145.000000 91.196 -22.4079
147.500000 91.133 -22.2648
150.000000 91.068 -22.2882
152.500000 90.983 -22.2755
155.000000 90.914 -22.1567
157.500000 90.847 -22.1158
160.000000 90.767 -22.0494
162.500000 90.691 -21.9506
165.000000 90.619 -21.8678
167.500000 90.560 -21.8007
170.000000 90.504 -21.7123
172.500000 90.433 -21.5330
175.000000 90.348 -21.4713
177.500000 90.260 -21.7957
180.000000 90.159 -22.0665
182.500000 90.100 -21.6445
185.000000 90.084 -21.1036
187.500000 90.044 -20.7928
190.000000 89.984 -20.6434
192.500000 89.921 -20.4626
195.000000 89.862 -20.2479
197.500000 89.801 -20.0863
200.000000 89.745 -19.9451
203.000000 89.688 -19.7645
206.000000 89.629 -19.6018
209.000000 89.562 -19.4331
212.000000 89.494 -19.2078
214.000000 89.451 -19.0620
218.000000 89.370 -18.8049
220.000000 89.336 -18.6697
224.000000 89.269 -18.3327
227.000000 89.219 -18.0826
230.000000 89.181 -17.8643
233.000000 89.141 -17.5790
236.000000 89.075 -17.1358
240.000000 88.981 -16.6687
243.000000 88.942 -16.6291
247.000000 88.894 -16.5454
250.000000 88.846 -16.3153
254.000000 88.776 -15.9891
258.000000 88.713 -15.6190
262.000000 88.659 -15.2404
265.000000 88.625 -14.9784
269.000000 88.586 -14.6656
272.000000 88.553 -14.4570
276.000000 88.504 -14.1292
280.000000 88.451 -13.7828
285.000000 88.393 -13.3342
290.000000 88.352 -12.8898
295.000000 88.310 -12.5837
300.000000 88.267 -12.4292
304.000000 88.224 -12.0546
307.000000 88.192 -11.6586
311.000000 88.151 -11.1479
315.000000 88.110 -10.7117
320.000000 88.062 -10.2626
325.000000 88.025 -9.8373
330.000000 87.995 -9.4315
335.000000 87.960 -8.9872
340.000000 87.924 -8.4859
345.000000 87.881 -8.0739
350.000000 87.842 -7.6970
355.000000 87.800 -7.3652
360.000000 87.758 -7.0708
365.000000 87.729 -6.6450
370.000000 87.707 -6.1388
375.000000 87.688 -5.6257
382.000000 87.650 -5.0300
387.000000 87.614 -4.6242
395.000000 87.567 -3.9074
400.000000 87.547 -3.4719
406.000000 87.516 -2.9742
412.000000 87.473 -2.5441
418.000000 87.434 -2.2659
425.000000 87.409 -1.6801
431.000000 87.389 -1.0263
437.000000 87.366 -0.4760
444.000000 87.340 0.1321
450.000000 87.322 0.6125
455.000000 87.304 0.9489
462.000000 87.280 1.4581
468.000000 87.259 1.9359
475.000000 87.234 2.4698
482.000000 87.218 3.0356
487.000000 87.203 3.4706
494.000000 87.170 4.0714
500.000000 87.155 4.5461
508.000000 87.144 5.1436
515.000000 87.132 5.6526
522.000000 87.127 6.1283
530.000000 87.127 6.7365
538.000000 87.135 7.4423
545.000000 87.125 7.9785
552.000000 87.098 8.4219
560.000000 87.077 8.9918
570.000000 87.064 9.7715
580.000000 87.053 10.4568
590.000000 87.040 11.2026
600.000000 87.039 11.9358
608.000000 87.044 12.5131
615.000000 87.043 13.0200
622.000000 87.038 13.5677
630.000000 87.031 14.2009
640.000000 87.030 14.9622
650.000000 87.036 15.6447
660.000000 87.048 16.3149
670.000000 87.044 17.0842
680.000000 87.040 17.8251
690.000000 87.043 18.5448
700.000000 87.055 19.3090
710.000000 87.064 20.0491
720.000000 87.069 20.7717
730.000000 87.080 21.5172
740.000000 87.092 22.2383
750.000000 87.102 22.9541
762.000000 87.118 23.8209
775.000000 87.146 24.7960
788.000000 87.172 25.7440
800.000000 87.201 26.5415
812.000000 87.229 27.4285
825.000000 87.267 28.4002
838.000000 87.315 29.2949
850.000000 87.355 30.1234
862.000000 87.396 31.0444
875.000000 87.449 32.0479
885.000000 87.488 32.7073
900.000000 87.541 33.6284
912.000000 87.602 34.4214
925.000000 87.674 35.2609
938.000000 87.737 36.0736
950.000000 87.800 36.8145
962.000000 87.866 37.5565
975.000000 87.942 38.3301
988.000000 88.020 39.0569
1000.000000 88.089 39.6903
1015.000000 88.171 40.4820
1030.000000 88.263 41.2666
1044.000000 88.361 41.9371
1060.000000 88.476 42.6677
1075.000000 88.587 43.3141
1090.000000 88.701 43.8904
1106.000000 88.823 44.4163
1120.000000 88.930 44.7966
1138.000000 89.064 45.2872
1150.000000 89.148 45.6093
1172.000000 89.301 46.1237
1180.000000 89.353 46.2737
1206.000000 89.513 46.6935
1220.000000 89.592 46.9868
1241.000000 89.706 47.4518
1250.000000 89.755 47.6736
1265.000000 89.838 48.0733
1280.000000 89.918 48.4532
1315.000000 90.116 49.2280
1320.000000 90.144 49.3399
1340.000000 90.254 49.8234
1360.000000 90.341 50.2811
1380.000000 90.422 50.6826
1400.000000 90.518 51.0995
1430.000000 90.668 51.6936
1450.000000 90.765 52.0614
1475.000000 90.889 52.5562
1500.000000 91.004 53.0507
1525.000000 91.117 53.5242
1550.000000 91.228 53.9482
1575.000000 91.334 54.4194
1600.000000 91.439 54.8929
1625.000000 91.538 55.3448
1650.000000 91.641 55.7394
1675.000000 91.743 56.1144
1700.000000 91.846 56.5297
1725.000000 91.944 56.9604
1750.000000 92.039 57.3883
1775.000000 92.134 57.7908
1800.000000 92.228 58.1800
1825.000000 92.324 58.5737
1850.000000 92.420 58.9508
1875.000000 92.514 59.3291
1900.000000 92.604 59.7180
1925.000000 92.695 60.1194
1950.000000 92.792 60.5395
1975.000000 92.893 60.9976
2000.000000 92.998 61.4623
2030.000000 93.133 61.9762
2060.000000 93.286 62.4243
2090.000000 93.451 62.7703
2120.000000 93.616 62.9671
2140.000000 93.723 63.0129
2180.000000 93.916 62.9615
2200.000000 94.000 62.9141
2240.000000 94.154 62.8152
2270.000000 94.259 62.7117
2300.000000 94.355 62.6026
2330.000000 94.443 62.5194
2360.000000 94.525 62.4455
2400.000000 94.628 62.3426
2430.000000 94.703 62.2929
2470.000000 94.797 62.2379
2500.000000 94.865 62.1925
2540.000000 94.957 62.1457
2580.000000 95.049 62.0602
2620.000000 95.136 61.8952
2650.000000 95.195 61.7537
2690.000000 95.262 61.5475
2720.000000 95.304 61.3784
2760.000000 95.347 61.1573
2800.000000 95.377 60.9824
2850.000000 95.406 60.8244
2900.000000 95.425 60.7393
2950.000000 95.438 60.7444
3000.000000 95.451 60.8194
3040.000000 95.465 60.9210
3070.000000 95.478 61.0087
3110.000000 95.498 61.1382
3150.000000 95.522 61.2816
3200.000000 95.558 61.4632
3250.000000 95.605 61.6209
3300.000000 95.656 61.7201
3350.000000 95.702 61.7614
3400.000000 95.746 61.7632
3450.000000 95.790 61.7449
3500.000000 95.836 61.7039
3550.000000 95.881 61.6488
3600.000000 95.923 61.5927
3650.000000 95.964 61.5169
3700.000000 96.004 61.4033
3750.000000 96.042 61.2519
3820.000000 96.086 60.9817
3870.000000 96.110 60.7648
3950.000000 96.134 60.3652
4000.000000 96.142 60.0689
4060.000000 96.144 59.6722
4120.000000 96.137 59.2434
4180.000000 96.123 58.7912
4250.000000 96.099 58.2151
4310.000000 96.068 57.6666
4370.000000 96.015 57.0538
4440.000000 95.927 56.2588
4500.000000 95.831 55.5350
4550.000000 95.735 54.9080
4620.000000 95.577 54.0358
4680.000000 95.418 53.3214
4750.000000 95.205 52.5280
4820.000000 94.964 51.8182
4870.000000 94.776 51.3803
4940.000000 94.492 50.8856
5000.000000 94.231 50.5977
5080.000000 93.860 50.4795
5150.000000 93.525 50.6411
5220.000000 93.191 51.0355
5300.000000 92.816 51.7149
5380.000000 92.451 52.6045
5450.000000 92.141 53.5517
5520.000000 91.840 54.6597
5600.000000 91.515 56.0939
5700.000000 91.137 58.1101
5800.000000 90.795 60.3745
5900.000000 90.484 62.8582
6000.000000 90.214 65.4741
6080.000000 90.026 67.6459
6150.000000 89.885 69.6193
6220.000000 89.766 71.6538
6300.000000 89.661 74.0413
6400.000000 89.579 77.1161
6500.000000 89.558 80.1787
6600.000000 89.590 83.0945
6700.000000 89.658 85.8935
6800.000000 89.774 88.6358
6900.000000 89.965 91.2724
7000.000000 90.232 93.7585
7100.000000 90.558 96.0007
7200.000000 90.945 97.8966
7300.000000 91.391 99.3656
7400.000000 91.889 100.2677
7500.000000 92.429 100.4349
7620.000000 93.117 99.4183
7750.000000 93.833 96.5442
7880.000000 94.314 91.6346
8000.000000 94.450 85.5333
8120.000000 94.220 78.7188
8250.000000 93.537 71.8549
8380.000000 92.479 66.7633
8500.000000 91.294 64.1669
8620.000000 90.024 63.5692
8750.000000 88.647 64.8154
8850.000000 87.627 66.8231
9000.000000 86.207 71.1201
9120.000000 85.179 75.3839
9250.000000 84.167 80.5676
9380.000000 83.261 86.1614
9500.000000 82.507 91.6055
9620.000000 81.818 97.2598
9750.000000 81.148 103.5797
9880.000000 80.554 110.0800
10000.000000 80.070 116.2041
10150.000000 79.541 123.8961
10300.000000 79.079 131.7343
10440.000000 78.716 139.1675
10600.000000 78.386 147.7047
10750.000000 78.159 155.8963
10900.000000 78.025 164.3286
11060.000000 78.010 173.6198
11200.000000 78.130 -177.9369
11380.000000 78.543 -166.6978
11500.000000 79.053 -159.1551
11720.000000 80.607 -146.3300
11800.000000 81.366 -142.4314
12060.000000 84.233 -134.6539
12200.000000 85.825 -133.9562
12410.000000 88.100 -136.9490
12500.000000 89.026 -139.6173
12650.000000 90.463 -146.1825
12800.000000 91.620 -155.9065
13150.000000 92.063 173.2645
13200.000000 91.824 169.2569
13400.000000 90.321 157.5543
13600.000000 88.430 152.9810
13800.000000 86.669 153.5758
14000.000000 85.250 157.2709
14300.000000 83.757 165.8954
14500.000000 83.126 172.7754
14750.000000 82.696 -178.0205
15000.000000 82.652 -168.7674
15250.000000 82.999 -160.2023
15500.000000 83.808 -153.3070
15750.000000 85.041 -149.9290
16000.000000 86.307 -153.0572
16250.000000 86.895 -164.1152
16500.000000 86.190 -178.9356
16750.000000 84.207 169.4241
17000.000000 81.530 156.1238
17250.000000 78.921 75.0904
17500.000000 77.183 63.5599
17750.000000 76.541 45.8798
18000.000000 75.880 49.3403
18250.000000 74.266 91.7891
18500.000000 72.240 -13.3362
18750.000000 70.828 -121.2739
19000.000000 69.889 -15.9160
19250.000000 69.511 -25.1914
19500.000000 69.613 148.5107
19750.000000 69.966 -2.6333
20000.000000 70.321 -131.1392
