* Measurement data measured by REW V5.20.13
* Source: Headset (DS by VECLAN.COM), MICROPHONE (Master Volume), L, volume: 0.720. Timing signal peak level -18.1 dBFS, measurement signal peak level -15.4 dBFS
* Format: 4M Log Swept Sine, 1 sweep at -12.0 dBFS using an acoustic timing reference
* Dated: Dec 6, 2023 3:17:53 PM
* REW Settings:
*  C-weighting compensation: Off
*  Target level: 75.0 dB
* Note: ; Apple + Abigail Delay -0.0675 ms (-23 mm, -0.91 in) using estimated IR delay relative to Acoustic reference played from  R with no timing offset
* Measurement: Brass Foam R
* Smoothing: 1/24 octave
* Frequency Step: 1/48 octave
* Start Frequency: 1.000 Hz
*
* Freq(Hz) SPL(dB) Phase(degrees)
1.000000 67.077 -8.2857
1.015000 67.309 -8.9914
1.030000 67.542 -9.6901
1.044000 67.760 -10.3339
1.060000 68.011 -11.0575
1.075000 68.247 -11.7216
1.090000 68.483 -12.3696
1.106000 68.737 -13.0439
1.120000 68.964 -13.6378
1.138000 69.264 -14.4107
1.150000 69.469 -14.9308
1.172000 69.851 -15.8918
1.180000 69.993 -16.2431
1.206000 70.458 -17.3885
1.220000 70.712 -18.0059
1.241000 71.095 -18.9301
1.250000 71.260 -19.3247
1.265000 71.535 -19.9796
1.280000 71.809 -20.6298
1.315000 72.442 -22.1214
1.320000 72.532 -22.3310
1.340000 72.886 -23.1583
1.360000 73.233 -23.9661
1.380000 73.572 -24.7516
1.400000 73.900 -25.5116
1.430000 74.368 -26.5975
1.450000 74.663 -27.2812
1.475000 75.009 -28.0852
1.500000 75.336 -28.8326
1.525000 75.648 -29.5287
1.550000 75.945 -30.1794
1.575000 76.228 -30.7904
1.600000 76.499 -31.3676
1.625000 76.760 -31.9168
1.650000 77.011 -32.4437
1.675000 77.254 -32.9543
1.700000 77.490 -33.4543
1.725000 77.720 -33.9494
1.750000 77.946 -34.4456
1.775000 78.169 -34.9487
1.800000 78.390 -35.4644
1.825000 78.611 -35.9985
1.850000 78.829 -36.5484
1.875000 79.040 -37.0970
1.900000 79.243 -37.6431
1.925000 79.439 -38.1868
1.950000 79.630 -38.7280
1.975000 79.815 -39.2664
2.000000 79.995 -39.8021
2.030000 80.207 -40.4410
2.060000 80.415 -41.0755
2.090000 80.619 -41.7055
2.120000 80.822 -42.3308
2.140000 80.957 -42.7449
2.180000 81.228 -43.5662
2.200000 81.365 -43.9734
2.240000 81.637 -44.7771
2.270000 81.840 -45.3708
2.300000 82.039 -45.9579
2.330000 82.237 -46.5397
2.360000 82.433 -47.1172
2.400000 82.689 -47.8825
2.430000 82.879 -48.4545
2.470000 83.128 -49.2167
2.500000 83.311 -49.7894
2.540000 83.551 -50.5566
2.580000 83.785 -51.3298
2.620000 84.014 -52.1051
2.650000 84.182 -52.6872
2.690000 84.403 -53.4635
2.720000 84.565 -54.0457
2.760000 84.777 -54.8215
2.800000 84.985 -55.5964
2.850000 85.238 -56.5631
2.900000 85.485 -57.5269
2.950000 85.726 -58.4876
3.000000 85.959 -59.4515
3.040000 86.141 -60.2238
3.070000 86.274 -60.8026
3.110000 86.449 -61.5721
3.150000 86.619 -62.3376
3.200000 86.827 -63.2857
3.250000 87.029 -64.2209
3.300000 87.227 -65.1394
3.350000 87.419 -66.0412
3.400000 87.605 -66.9292
3.450000 87.786 -67.8055
3.500000 87.961 -68.6718
3.550000 88.132 -69.5304
3.600000 88.298 -70.3830
3.650000 88.460 -71.2318
3.700000 88.619 -72.0786
3.750000 88.772 -72.9234
3.820000 88.979 -74.0978
3.870000 89.122 -74.9274
3.950000 89.343 -76.2318
4.000000 89.477 -77.0287
4.060000 89.633 -77.9633
4.120000 89.783 -78.8772
4.180000 89.927 -79.7725
4.250000 90.090 -80.7957
4.310000 90.225 -81.6561
4.370000 90.357 -82.5029
4.440000 90.507 -83.4746
4.500000 90.631 -84.2914
4.550000 90.731 -84.9609
4.620000 90.867 -85.8814
4.680000 90.981 -86.6551
4.750000 91.112 -87.5405
4.820000 91.241 -88.4046
4.870000 91.331 -89.0074
4.940000 91.454 -89.8346
5.000000 91.557 -90.5314
5.080000 91.691 -91.4485
5.150000 91.806 -92.2443
5.220000 91.918 -93.0305
5.300000 92.043 -93.9158
5.380000 92.164 -94.7877
5.450000 92.267 -95.5405
5.520000 92.368 -96.2842
5.600000 92.480 -97.1216
5.700000 92.616 -98.1507
5.800000 92.746 -99.1624
5.900000 92.873 -100.1586
6.000000 92.996 -101.1360
6.080000 93.092 -101.9066
6.150000 93.173 -102.5747
6.220000 93.252 -103.2390
6.300000 93.340 -103.9944
6.400000 93.446 -104.9306
6.500000 93.547 -105.8550
6.600000 93.644 -106.7644
6.700000 93.735 -107.6616
6.800000 93.822 -108.5456
6.900000 93.904 -109.4107
7.000000 93.983 -110.2522
7.100000 94.057 -111.0725
7.200000 94.128 -111.8717
7.300000 94.196 -112.6489
7.400000 94.263 -113.4024
7.500000 94.326 -114.1320
7.620000 94.400 -114.9818
7.750000 94.479 -115.8768
7.880000 94.555 -116.7411
8.000000 94.623 -117.5178
8.120000 94.690 -118.2802
8.250000 94.762 -119.0867
8.380000 94.831 -119.8765
8.500000 94.893 -120.5941
8.620000 94.954 -121.2989
8.750000 95.018 -122.0500
8.850000 95.067 -122.6202
9.000000 95.137 -123.4614
9.120000 95.192 -124.1249
9.250000 95.251 -124.8360
9.380000 95.309 -125.5379
9.500000 95.360 -126.1802
9.620000 95.407 -126.8190
9.750000 95.454 -127.5059
9.880000 95.493 -128.1854
10.000000 95.520 -128.8073
10.150000 95.544 -129.5754
10.300000 95.559 -130.3202
10.440000 95.563 -130.9935
10.600000 95.563 -131.7391
10.750000 95.563 -132.4130
10.900000 95.561 -133.0652
11.060000 95.560 -133.7471
11.200000 95.560 -134.3323
11.380000 95.560 -135.0615
11.500000 95.559 -135.5315
11.720000 95.558 -136.3624
11.800000 95.559 -136.6541
12.060000 95.564 -137.5693
12.200000 95.569 -138.0509
12.410000 95.580 -138.7577
12.500000 95.585 -139.0559
12.650000 95.594 -139.5461
12.800000 95.603 -140.0295
13.150000 95.624 -141.1362
13.200000 95.627 -141.2919
13.400000 95.640 -141.9102
13.600000 95.654 -142.5165
13.800000 95.668 -143.1091
14.000000 95.681 -143.6894
14.300000 95.701 -144.5379
14.500000 95.715 -145.0900
14.750000 95.732 -145.7739
15.000000 95.751 -146.4562
15.250000 95.771 -147.1503
15.500000 95.789 -147.8481
15.750000 95.804 -148.5419
16.000000 95.811 -149.2154
16.250000 95.813 -149.8539
16.500000 95.811 -150.4506
16.750000 95.809 -150.9969
17.000000 95.811 -151.5014
17.250000 95.816 -151.9751
17.500000 95.826 -152.4335
17.750000 95.839 -152.8988
18.000000 95.852 -153.3773
18.250000 95.864 -153.8753
18.500000 95.873 -154.3782
18.750000 95.879 -154.8725
19.000000 95.883 -155.3460
19.250000 95.886 -155.7897
19.500000 95.891 -156.2075
19.750000 95.898 -156.6031
20.000000 95.908 -156.9896
20.299999 95.922 -157.4556
20.600000 95.937 -157.9329
20.900000 95.951 -158.4220
21.200001 95.961 -158.9127
21.400000 95.965 -159.2316
21.799999 95.970 -159.8397
22.000000 95.972 -160.1273
22.400000 95.976 -160.6769
22.700001 95.981 -161.0788
23.000000 95.986 -161.4818
23.299999 95.991 -161.8878
23.600000 95.994 -162.2925
24.000000 95.995 -162.8191
24.299999 95.995 -163.1963
24.700001 95.994 -163.6729
25.000000 95.995 -164.0150
25.400000 95.998 -164.4612
25.799999 96.003 -164.9066
26.200001 96.007 -165.3554
26.500000 96.009 -165.6918
26.900000 96.010 -166.1334
27.200001 96.010 -166.4549
27.600000 96.009 -166.8690
28.000000 96.008 -167.2716
28.500000 96.009 -167.7703
29.000000 96.009 -168.2661
29.500000 96.008 -168.7478
30.000000 96.004 -169.2054
30.400000 96.001 -169.5574
30.700001 95.998 -169.8185
31.100000 95.996 -170.1698
31.500000 95.993 -170.5255
32.000000 95.987 -170.9649
32.500000 95.978 -171.3802
33.000000 95.968 -171.7668
33.500000 95.961 -172.1388
34.000000 95.955 -172.5150
34.500000 95.950 -172.8995
35.000000 95.945 -173.2832
35.500000 95.939 -173.6579
36.000000 95.933 -174.0201
36.500000 95.926 -174.3689
37.000000 95.918 -174.7089
37.500000 95.910 -175.0452
38.200001 95.899 -175.5107
38.700001 95.891 -175.8392
39.500000 95.876 -176.3529
40.000000 95.866 -176.6613
40.599998 95.855 -177.0196
41.200001 95.844 -177.3698
41.799999 95.834 -177.7112
42.500000 95.823 -178.1022
43.099998 95.814 -178.4417
43.700001 95.804 -178.7793
44.400002 95.790 -179.1507
45.000000 95.779 -179.4524
45.500000 95.771 -179.7039
46.200001 95.757 179.9418
46.799999 95.744 179.6465
47.500000 95.730 179.3133
48.200001 95.716 178.9848
48.700001 95.706 178.7523
49.400002 95.692 178.4276
50.000000 95.680 178.1456
50.799999 95.662 177.7707
51.500000 95.646 177.4591
52.200001 95.630 177.1643
53.000000 95.615 176.8326
53.799999 95.599 176.5014
54.500000 95.583 176.2171
55.200001 95.565 175.9398
56.000000 95.546 175.6272
57.000000 95.520 175.2406
58.000000 95.491 174.8843
59.000000 95.465 174.5396
60.000000 95.437 174.1740
60.799999 95.416 173.8884
61.500000 95.399 173.6528
62.200001 95.382 173.4206
63.000000 95.361 173.1572
64.000000 95.333 172.8368
65.000000 95.307 172.5245
66.000000 95.280 172.2221
67.000000 95.254 171.9197
68.000000 95.226 171.6245
69.000000 95.196 171.3465
70.000000 95.168 171.0715
71.000000 95.138 170.7927
72.000000 95.108 170.5138
73.000000 95.078 170.2504
74.000000 95.047 170.0031
75.000000 95.015 169.7547
76.199997 94.977 169.4656
77.500000 94.937 169.1711
78.800003 94.900 168.8801
80.000000 94.864 168.6271
81.199997 94.830 168.3826
82.500000 94.791 168.1031
83.800003 94.749 167.8350
85.000000 94.711 167.5982
86.199997 94.675 167.3629
87.500000 94.638 167.1147
88.500000 94.609 166.9284
90.000000 94.564 166.6704
91.199997 94.528 166.4879
92.500000 94.493 166.2846
93.800003 94.456 166.0741
95.000000 94.420 165.8833
96.199997 94.384 165.7015
97.500000 94.345 165.5186
98.800003 94.307 165.3499
100.000000 94.272 165.1903
101.500000 94.228 164.9709
103.000000 94.183 164.7545
104.400002 94.140 164.5581
106.000000 94.089 164.3540
107.500000 94.044 164.1861
109.000000 94.001 164.0194
110.599998 93.953 163.8585
112.000000 93.911 163.7275
113.800003 93.855 163.5771
115.000000 93.818 163.4786
117.199997 93.752 163.2666
118.000000 93.728 163.1878
120.599998 93.650 162.9677
122.000000 93.612 162.8656
124.099998 93.556 162.7115
125.000000 93.531 162.6440
126.500000 93.488 162.5398
128.000000 93.447 162.4540
131.500000 93.355 162.2935
132.000000 93.343 162.2726
134.000000 93.293 162.1723
136.000000 93.241 162.0624
138.000000 93.190 161.9686
140.000000 93.140 161.8722
143.000000 93.067 161.7639
145.000000 93.020 161.7109
147.500000 92.961 161.6496
150.000000 92.904 161.6011
152.500000 92.847 161.5592
155.000000 92.788 161.5135
157.500000 92.727 161.4849
160.000000 92.669 161.4697
162.500000 92.613 161.4586
165.000000 92.557 161.4564
167.500000 92.498 161.4668
170.000000 92.437 161.4856
172.500000 92.377 161.5074
175.000000 92.321 161.5320
177.500000 92.263 161.5668
180.000000 92.205 161.6004
182.500000 92.148 161.6318
185.000000 92.092 161.6704
187.500000 92.038 161.7173
190.000000 91.984 161.7768
192.500000 91.932 161.8502
195.000000 91.881 161.9252
197.500000 91.832 161.9969
200.000000 91.786 162.0653
203.000000 91.732 162.1583
206.000000 91.674 162.2585
209.000000 91.613 162.3480
212.000000 91.557 162.4612
214.000000 91.522 162.5577
218.000000 91.451 162.7318
220.000000 91.416 162.8101
224.000000 91.345 162.9796
227.000000 91.292 163.1119
230.000000 91.239 163.2554
233.000000 91.190 163.4127
236.000000 91.144 163.5675
240.000000 91.081 163.7697
243.000000 91.034 163.9361
247.000000 90.974 164.1653
250.000000 90.929 164.3310
254.000000 90.871 164.5543
258.000000 90.813 164.7946
262.000000 90.756 165.0520
265.000000 90.715 165.2391
269.000000 90.663 165.4798
272.000000 90.625 165.6668
276.000000 90.578 165.9313
280.000000 90.531 166.1937
285.000000 90.474 166.5119
290.000000 90.418 166.8408
295.000000 90.365 167.1737
300.000000 90.312 167.5362
304.000000 90.267 167.8268
307.000000 90.235 168.0240
311.000000 90.196 168.2931
315.000000 90.161 168.5837
320.000000 90.121 168.9216
325.000000 90.078 169.2397
330.000000 90.035 169.5980
335.000000 89.994 169.9601
340.000000 89.954 170.3041
345.000000 89.916 170.6602
350.000000 89.877 171.0158
355.000000 89.838 171.3708
360.000000 89.798 171.7330
365.000000 89.762 172.0824
370.000000 89.727 172.4227
375.000000 89.693 172.7617
382.000000 89.647 173.2417
387.000000 89.612 173.5922
395.000000 89.557 174.1510
400.000000 89.524 174.4904
406.000000 89.486 174.9243
412.000000 89.449 175.3675
418.000000 89.414 175.8047
425.000000 89.373 176.3188
431.000000 89.338 176.7580
437.000000 89.303 177.1850
444.000000 89.265 177.6822
450.000000 89.234 178.1138
455.000000 89.209 178.4739
462.000000 89.176 178.9780
468.000000 89.149 179.4185
475.000000 89.117 179.9293
482.000000 89.087 -179.5589
487.000000 89.069 -179.1877
494.000000 89.045 -178.6728
500.000000 89.026 -178.2317
508.000000 89.001 -177.6369
515.000000 88.978 -177.1130
522.000000 88.956 -176.5828
530.000000 88.934 -175.9802
538.000000 88.914 -175.3900
545.000000 88.898 -174.8664
552.000000 88.884 -174.3280
560.000000 88.868 -173.7118
570.000000 88.851 -172.9578
580.000000 88.835 -172.1915
590.000000 88.820 -171.4158
600.000000 88.804 -170.6425
608.000000 88.791 -170.0157
615.000000 88.783 -169.4491
622.000000 88.777 -168.8664
630.000000 88.771 -168.2010
640.000000 88.766 -167.3856
650.000000 88.766 -166.5683
660.000000 88.769 -165.7425
670.000000 88.775 -164.9306
680.000000 88.786 -164.1414
690.000000 88.803 -163.3642
700.000000 88.821 -162.6017
710.000000 88.844 -161.8492
720.000000 88.867 -161.1086
730.000000 88.888 -160.3898
740.000000 88.910 -159.6737
750.000000 88.934 -158.9528
762.000000 88.963 -158.0838
775.000000 88.995 -157.1379
788.000000 89.028 -156.1960
800.000000 89.063 -155.3343
812.000000 89.100 -154.4621
825.000000 89.145 -153.5243
838.000000 89.194 -152.6008
850.000000 89.241 -151.7427
862.000000 89.294 -150.8896
875.000000 89.354 -149.9901
885.000000 89.401 -149.3077
900.000000 89.476 -148.3022
912.000000 89.545 -147.5067
925.000000 89.621 -146.6697
938.000000 89.699 -145.8619
950.000000 89.774 -145.1391
962.000000 89.852 -144.4357
975.000000 89.941 -143.6815
988.000000 90.037 -142.9427
1000.000000 90.124 -142.2971
1015.000000 90.223 -141.5682
1030.000000 90.327 -140.8896
1044.000000 90.433 -140.2898
1060.000000 90.557 -139.6364
1075.000000 90.666 -139.0344
1090.000000 90.782 -138.4991
1106.000000 90.917 -137.9717
1120.000000 91.035 -137.5363
1138.000000 91.185 -137.0337
1150.000000 91.282 -136.7204
1172.000000 91.457 -136.1801
1180.000000 91.519 -135.9950
1206.000000 91.716 -135.4497
1220.000000 91.823 -135.1928
1241.000000 91.982 -134.8259
1250.000000 92.049 -134.6690
1265.000000 92.159 -134.4161
1280.000000 92.265 -134.1708
1315.000000 92.504 -133.6348
1320.000000 92.537 -133.5638
1340.000000 92.661 -133.2789
1360.000000 92.763 -132.9895
1380.000000 92.861 -132.7071
1400.000000 92.970 -132.4352
1430.000000 93.138 -132.0305
1450.000000 93.250 -131.7632
1475.000000 93.386 -131.4256
1500.000000 93.522 -131.0939
1525.000000 93.656 -130.7736
1550.000000 93.782 -130.4580
1575.000000 93.906 -130.1489
1600.000000 94.028 -129.8515
1625.000000 94.150 -129.5668
1650.000000 94.273 -129.2785
1675.000000 94.398 -129.0054
1700.000000 94.524 -128.7537
1725.000000 94.646 -128.5085
1750.000000 94.768 -128.2780
1775.000000 94.892 -128.0617
1800.000000 95.015 -127.8558
1825.000000 95.138 -127.6761
1850.000000 95.261 -127.5142
1875.000000 95.384 -127.3623
1900.000000 95.506 -127.2279
1925.000000 95.628 -127.1111
1950.000000 95.750 -127.0166
1975.000000 95.875 -126.9419
2000.000000 95.997 -126.8991
2030.000000 96.135 -126.8990
2060.000000 96.272 -126.9200
2090.000000 96.412 -126.9650
2120.000000 96.551 -127.0502
2140.000000 96.642 -127.1315
2180.000000 96.818 -127.3433
2200.000000 96.902 -127.4728
2240.000000 97.065 -127.7649
2270.000000 97.183 -128.0183
2300.000000 97.297 -128.3064
2330.000000 97.406 -128.6272
2360.000000 97.510 -128.9782
2400.000000 97.642 -129.4767
2430.000000 97.734 -129.8663
2470.000000 97.848 -130.4173
2500.000000 97.927 -130.8438
2540.000000 98.022 -131.4308
2580.000000 98.109 -132.0287
2620.000000 98.185 -132.6363
2650.000000 98.237 -133.0994
2690.000000 98.297 -133.7124
2720.000000 98.334 -134.1660
2760.000000 98.374 -134.7681
2800.000000 98.403 -135.3675
2850.000000 98.430 -136.0994
2900.000000 98.443 -136.7989
2950.000000 98.444 -137.4679
3000.000000 98.435 -138.0877
3040.000000 98.421 -138.5721
3070.000000 98.407 -138.9222
3110.000000 98.385 -139.3536
3150.000000 98.359 -139.7477
3200.000000 98.320 -140.2005
3250.000000 98.276 -140.6086
3300.000000 98.227 -140.9627
3350.000000 98.177 -141.2651
3400.000000 98.127 -141.5246
3450.000000 98.078 -141.7426
3500.000000 98.032 -141.9165
3550.000000 97.988 -142.0509
3600.000000 97.944 -142.1478
3650.000000 97.899 -142.2113
3700.000000 97.855 -142.2529
3750.000000 97.812 -142.2719
3820.000000 97.750 -142.2588
3870.000000 97.704 -142.2317
3950.000000 97.626 -142.1529
4000.000000 97.577 -142.0891
4060.000000 97.520 -142.0037
4120.000000 97.463 -141.8959
4180.000000 97.405 -141.7679
4250.000000 97.336 -141.6045
4310.000000 97.272 -141.4596
4370.000000 97.200 -141.3046
4440.000000 97.111 -141.1119
4500.000000 97.032 -140.9481
4550.000000 96.966 -140.8206
4620.000000 96.873 -140.6628
4680.000000 96.790 -140.5398
4750.000000 96.687 -140.3900
4820.000000 96.578 -140.2325
4870.000000 96.496 -140.1121
4940.000000 96.374 -139.9367
5000.000000 96.267 -139.7611
5080.000000 96.122 -139.4467
5150.000000 95.991 -139.1069
5220.000000 95.855 -138.7163
5300.000000 95.697 -138.2144
5380.000000 95.538 -137.6503
5450.000000 95.403 -137.1003
5520.000000 95.271 -136.5057
5600.000000 95.123 -135.7733
5700.000000 94.945 -134.7563
5800.000000 94.778 -133.6499
5900.000000 94.629 -132.4771
6000.000000 94.500 -131.2687
6080.000000 94.410 -130.2856
6150.000000 94.340 -129.4290
6220.000000 94.281 -128.6082
6300.000000 94.222 -127.7454
6400.000000 94.143 -126.8061
6500.000000 94.041 -126.0098
6600.000000 93.903 -125.2073
6700.000000 93.734 -124.1925
6800.000000 93.564 -122.8430
6900.000000 93.442 -121.1466
7000.000000 93.395 -119.2023
7100.000000 93.420 -117.1830
7200.000000 93.514 -115.2640
7300.000000 93.669 -113.6102
7400.000000 93.871 -112.3389
7500.000000 94.103 -111.5183
7620.000000 94.408 -111.1889
7750.000000 94.734 -111.6724
7880.000000 94.930 -112.9976
8000.000000 94.980 -114.8513
8120.000000 94.902 -117.0897
8250.000000 94.666 -119.6236
8380.000000 94.279 -121.8941
8500.000000 93.803 -123.4859
8620.000000 93.237 -124.4493
8750.000000 92.554 -124.7431
8850.000000 92.003 -124.4578
9000.000000 91.167 -123.2293
9120.000000 90.511 -121.6178
9250.000000 89.835 -119.3578
9380.000000 89.205 -116.6719
9500.000000 88.664 -113.8936
9620.000000 88.164 -110.8943
9750.000000 87.671 -107.4335
9880.000000 87.227 -103.7727
10000.000000 86.858 -100.2564
10150.000000 86.445 -95.7120
10300.000000 86.081 -91.0271
10440.000000 85.785 -86.5433
10600.000000 85.504 -81.2850
10750.000000 85.300 -76.2419
10900.000000 85.162 -71.1209
11060.000000 85.094 -65.6216
11200.000000 85.101 -60.8293
11380.000000 85.206 -54.7438
11500.000000 85.346 -50.7757
11720.000000 85.754 -43.8570
11800.000000 85.953 -41.5131
12060.000000 86.789 -34.8719
12200.000000 87.355 -32.1775
12410.000000 88.324 -29.8746
12500.000000 88.764 -29.7171
12650.000000 89.478 -30.8275
12800.000000 90.083 -33.8255
13150.000000 90.475 -46.4561
13200.000000 90.378 -48.4435
13400.000000 89.629 -55.2958
13600.000000 88.461 -59.3209
13800.000000 87.127 -60.2632
14000.000000 85.821 -58.7092
14300.000000 84.106 -53.3216
14500.000000 83.157 -48.4959
14750.000000 82.186 -41.6677
15000.000000 81.429 -34.3987
15250.000000 80.871 -27.0606
15500.000000 80.531 -19.8753
15750.000000 80.402 -13.0676
16000.000000 80.433 -6.9239
16250.000000 80.583 -1.9670
16500.000000 80.724 0.8918
16750.000000 80.500 1.8891
17000.000000 79.710 5.6766
17250.000000 79.247 14.3032
17500.000000 79.567 21.3352
17750.000000 79.950 24.6679
18000.000000 80.106 26.2871
18250.000000 80.062 27.4618
18500.000000 79.860 28.5551
18750.000000 79.518 29.6606
19000.000000 79.036 30.9223
19250.000000 78.396 32.5066
19500.000000 77.583 34.6383
19750.000000 76.620 37.5930
20000.000000 75.493 41.5866
20300.000000 73.986 48.0500
20600.000000 72.490 56.7444
20900.000000 71.120 67.8317
21200.000000 70.013 81.1276
21400.000000 69.508 90.8341
21800.000000 69.174 109.7190
22000.000000 69.266 114.7311
22400.000000 68.997 -1.4083
22700.000000 66.747 132.8066
23000.000000 61.560 -77.4453
23300.000000 53.884 22.1836
23600.000000 45.340 116.0801
24000.000000 39.717 -142.5195
