* Measurement data measured by REW V5.20.13
* Source: Headset (DS by VECLAN.COM), MICROPHONE (Master Volume), L, volume: 0.720. Timing signal peak level -15.4 dBFS, measurement signal peak level -15.4 dBFS
* Format: 4M Log Swept Sine, 1 sweep at -12.0 dBFS using an acoustic timing reference
* Dated: Dec 6, 2023 9:49:58 AM
* REW Settings:
*  C-weighting compensation: Off
*  Target level: 75.0 dB
* Note: ; Apple + Abigail Delay -0.0645 ms (-22 mm, -0.87 in) using estimated IR delay relative to Acoustic reference played from  L with no timing offset Clock adjustment: -0.3 ppm
* Measurement: Brass Silicone L
* Smoothing: 1/24 octave
* Frequency Step: 1/48 octave
* Start Frequency: 1.000 Hz
*
* Freq(Hz) SPL(dB) Phase(degrees)
1.000000 69.354 -12.4597
1.015000 69.571 -13.5606
1.030000 69.789 -14.6266
1.044000 69.994 -15.5859
1.060000 70.229 -16.6356
1.075000 70.450 -17.5697
1.090000 70.673 -18.4510
1.106000 70.912 -19.3301
1.120000 71.126 -20.0589
1.138000 71.409 -20.9472
1.150000 71.601 -21.5106
1.172000 71.961 -22.4879
1.180000 72.094 -22.8265
1.206000 72.532 -23.8708
1.220000 72.770 -24.4004
1.241000 73.130 -25.1567
1.250000 73.285 -25.4681
1.265000 73.542 -25.9721
1.280000 73.799 -26.4590
1.315000 74.394 -27.5414
1.320000 74.478 -27.6911
1.340000 74.810 -28.2807
1.360000 75.136 -28.8597
1.380000 75.453 -29.4332
1.400000 75.761 -30.0066
1.430000 76.201 -30.8779
1.450000 76.478 -31.4737
1.475000 76.804 -32.2403
1.500000 77.112 -32.9983
1.525000 77.406 -33.7394
1.550000 77.687 -34.4640
1.575000 77.955 -35.1725
1.600000 78.212 -35.8654
1.625000 78.459 -36.5429
1.650000 78.697 -37.2057
1.675000 78.927 -37.8539
1.700000 79.150 -38.4881
1.725000 79.368 -39.1087
1.750000 79.581 -39.7161
1.775000 79.791 -40.3107
1.800000 79.998 -40.8929
1.825000 80.204 -41.4631
1.850000 80.407 -42.0175
1.875000 80.602 -42.5479
1.900000 80.788 -43.0563
1.925000 80.968 -43.5456
1.950000 81.141 -44.0184
1.975000 81.309 -44.4773
2.000000 81.473 -44.9251
2.030000 81.664 -45.4516
2.060000 81.851 -45.9706
2.090000 82.037 -46.4867
2.120000 82.221 -47.0047
2.140000 82.344 -47.3532
2.180000 82.593 -48.0644
2.200000 82.720 -48.4298
2.240000 82.974 -49.1653
2.270000 83.163 -49.7160
2.300000 83.351 -50.2661
2.330000 83.538 -50.8155
2.360000 83.722 -51.3645
2.400000 83.966 -52.0960
2.430000 84.146 -52.6443
2.470000 84.383 -53.3753
2.500000 84.557 -53.9236
2.540000 84.784 -54.6548
2.580000 85.006 -55.3869
2.620000 85.222 -56.1222
2.650000 85.382 -56.6753
2.690000 85.589 -57.4137
2.720000 85.742 -57.9675
2.760000 85.943 -58.7044
2.800000 86.139 -59.4384
2.850000 86.379 -60.3494
2.900000 86.614 -61.2504
2.950000 86.844 -62.1388
3.000000 87.068 -63.0155
3.040000 87.242 -63.7101
3.070000 87.371 -64.2277
3.110000 87.539 -64.9141
3.150000 87.704 -65.5971
3.200000 87.905 -66.4474
3.250000 88.102 -67.2958
3.300000 88.294 -68.1441
3.350000 88.481 -68.9947
3.400000 88.662 -69.8464
3.450000 88.838 -70.6963
3.500000 89.009 -71.5413
3.550000 89.176 -72.3784
3.600000 89.339 -73.2045
3.650000 89.499 -74.0167
3.700000 89.655 -74.8129
3.750000 89.807 -75.5953
3.820000 90.013 -76.6714
3.870000 90.155 -77.4291
3.950000 90.376 -78.6279
4.000000 90.510 -79.3718
4.060000 90.666 -80.2624
4.120000 90.817 -81.1505
4.180000 90.963 -82.0326
4.250000 91.127 -83.0493
4.310000 91.263 -83.9059
4.370000 91.397 -84.7450
4.440000 91.548 -85.6977
4.500000 91.673 -86.4936
4.550000 91.775 -87.1444
4.620000 91.913 -88.0400
4.680000 92.028 -88.7962
4.750000 92.160 -89.6692
4.820000 92.289 -90.5328
4.870000 92.379 -91.1414
4.940000 92.502 -91.9823
5.000000 92.605 -92.6933
5.080000 92.739 -93.6282
5.150000 92.852 -94.4349
5.220000 92.962 -95.2302
5.300000 93.084 -96.1251
5.380000 93.202 -97.0052
5.450000 93.302 -97.7632
5.520000 93.400 -98.5102
5.600000 93.507 -99.3501
5.700000 93.636 -100.3794
5.800000 93.759 -101.3861
5.900000 93.880 -102.3702
6.000000 93.996 -103.3294
6.080000 94.085 -104.0811
6.150000 94.162 -104.7294
6.220000 94.237 -105.3705
6.300000 94.320 -106.0942
6.400000 94.421 -106.9834
6.500000 94.518 -107.8565
6.600000 94.612 -108.7148
6.700000 94.701 -109.5602
6.800000 94.787 -110.3909
6.900000 94.869 -111.2035
7.000000 94.949 -111.9950
7.100000 95.025 -112.7652
7.200000 95.099 -113.5167
7.300000 95.171 -114.2519
7.400000 95.242 -114.9712
7.500000 95.311 -115.6726
7.620000 95.391 -116.4963
7.750000 95.476 -117.3725
7.880000 95.559 -118.2286
8.000000 95.633 -119.0054
8.120000 95.705 -119.7746
8.250000 95.780 -120.5971
8.380000 95.853 -121.4080
8.500000 95.918 -122.1467
8.620000 95.979 -122.8761
8.750000 96.043 -123.6541
8.850000 96.091 -124.2431
9.000000 96.159 -125.1116
9.120000 96.211 -125.7939
9.250000 96.266 -126.5205
9.380000 96.319 -127.2338
9.500000 96.365 -127.8816
9.620000 96.407 -128.5202
9.750000 96.448 -129.2010
9.880000 96.482 -129.8686
10.000000 96.504 -130.4742
10.150000 96.522 -131.2150
10.300000 96.530 -131.9277
10.440000 96.531 -132.5654
10.600000 96.531 -133.2688
10.750000 96.530 -133.9044
10.900000 96.528 -134.5196
11.060000 96.529 -135.1705
11.200000 96.531 -135.7348
11.380000 96.535 -136.4496
11.500000 96.536 -136.9194
11.720000 96.540 -137.7657
11.800000 96.541 -138.0678
12.060000 96.546 -139.0310
12.200000 96.550 -139.5406
12.410000 96.556 -140.2899
12.500000 96.558 -140.6017
12.650000 96.560 -141.1102
12.800000 96.563 -141.6040
13.150000 96.569 -142.6964
13.200000 96.570 -142.8474
13.400000 96.578 -143.4382
13.600000 96.587 -144.0165
13.800000 96.600 -144.5847
14.000000 96.613 -145.1523
14.300000 96.632 -146.0049
14.500000 96.643 -146.5728
14.750000 96.654 -147.2738
15.000000 96.664 -147.9602
15.250000 96.673 -148.6255
15.500000 96.682 -149.2613
15.750000 96.691 -149.8646
16.000000 96.699 -150.4359
16.250000 96.709 -150.9880
16.500000 96.719 -151.5274
16.750000 96.730 -152.0620
17.000000 96.742 -152.5926
17.250000 96.754 -153.1169
17.500000 96.764 -153.6308
17.750000 96.771 -154.1295
18.000000 96.777 -154.6127
18.250000 96.782 -155.0802
18.500000 96.788 -155.5320
18.750000 96.794 -155.9706
19.000000 96.802 -156.3983
19.250000 96.812 -156.8224
19.500000 96.822 -157.2437
19.750000 96.831 -157.6627
20.000000 96.840 -158.0765
20.299999 96.850 -158.5634
20.600000 96.858 -159.0384
20.900000 96.866 -159.5014
21.200001 96.872 -159.9546
21.400000 96.876 -160.2522
21.799999 96.883 -160.8363
22.000000 96.885 -161.1228
22.400000 96.888 -161.6841
22.700001 96.890 -162.0952
23.000000 96.891 -162.4989
23.299999 96.892 -162.8976
23.600000 96.892 -163.2908
24.000000 96.890 -163.8010
24.299999 96.887 -164.1656
24.700001 96.884 -164.6192
25.000000 96.882 -164.9357
25.400000 96.885 -165.3377
25.799999 96.893 -165.7388
26.200001 96.904 -166.1584
26.500000 96.912 -166.4872
26.900000 96.919 -166.9357
27.200001 96.923 -167.2703
27.600000 96.925 -167.7064
28.000000 96.926 -168.1327
28.500000 96.926 -168.6621
29.000000 96.923 -169.1844
29.500000 96.916 -169.6778
30.000000 96.905 -170.1273
30.400000 96.897 -170.4625
30.700001 96.893 -170.7085
31.100000 96.887 -171.0394
31.500000 96.882 -171.3765
32.000000 96.875 -171.7966
32.500000 96.865 -172.1999
33.000000 96.855 -172.5839
33.500000 96.847 -172.9617
34.000000 96.840 -173.3472
34.500000 96.833 -173.7395
35.000000 96.826 -174.1261
35.500000 96.818 -174.4966
36.000000 96.811 -174.8490
36.500000 96.805 -175.1885
37.000000 96.798 -175.5256
37.500000 96.790 -175.8638
38.200001 96.779 -176.3249
38.700001 96.770 -176.6415
39.500000 96.757 -177.1418
40.000000 96.747 -177.4513
40.599998 96.735 -177.8110
41.200001 96.721 -178.1556
41.799999 96.708 -178.4900
42.500000 96.694 -178.8735
43.099998 96.682 -179.1995
43.700001 96.672 -179.5226
44.400002 96.659 -179.8965
45.000000 96.649 179.7837
45.500000 96.639 179.5192
46.200001 96.624 179.1591
46.799999 96.611 178.8635
47.500000 96.597 178.5294
48.200001 96.583 178.2047
48.700001 96.572 177.9797
49.400002 96.558 177.6738
50.000000 96.546 177.4163
50.799999 96.532 177.0678
51.500000 96.518 176.7522
52.200001 96.500 176.4395
53.000000 96.478 176.1053
53.799999 96.457 175.7906
54.500000 96.438 175.5200
55.200001 96.420 175.2510
56.000000 96.401 174.9360
57.000000 96.376 174.5348
58.000000 96.349 174.1601
59.000000 96.323 173.7755
60.000000 96.289 173.4007
60.799999 96.264 173.1476
61.500000 96.248 172.9391
62.200001 96.232 172.7198
63.000000 96.210 172.4634
64.000000 96.181 172.1523
65.000000 96.153 171.8460
66.000000 96.125 171.5395
67.000000 96.096 171.2381
68.000000 96.067 170.9500
69.000000 96.038 170.6678
70.000000 96.008 170.3913
71.000000 95.978 170.1256
72.000000 95.948 169.8619
73.000000 95.918 169.6087
74.000000 95.888 169.3661
75.000000 95.856 169.1196
76.199997 95.818 168.8264
77.500000 95.779 168.5120
78.800003 95.740 168.2004
80.000000 95.704 167.9136
81.199997 95.663 167.6531
82.500000 95.620 167.4187
83.800003 95.580 167.1816
85.000000 95.545 166.9631
86.199997 95.510 166.7386
87.500000 95.473 166.4910
88.500000 95.444 166.3024
90.000000 95.399 166.0300
91.199997 95.362 165.8248
92.500000 95.324 165.6099
93.800003 95.287 165.3998
95.000000 95.251 165.2138
96.199997 95.213 165.0369
97.500000 95.173 164.8600
98.800003 95.132 164.6946
100.000000 95.094 164.5371
101.500000 95.046 164.3162
103.000000 94.996 164.0989
104.400002 94.949 163.9474
106.000000 94.903 163.7983
107.500000 94.860 163.6240
109.000000 94.813 163.4538
110.599998 94.762 163.2804
112.000000 94.719 163.1365
113.800003 94.665 162.9740
115.000000 94.629 162.8809
117.199997 94.563 162.7198
118.000000 94.537 162.6639
120.599998 94.457 162.4719
122.000000 94.416 162.3433
124.099998 94.357 162.1581
125.000000 94.331 162.0864
126.500000 94.289 161.9853
128.000000 94.247 161.9047
131.500000 94.153 161.7322
132.000000 94.140 161.7076
134.000000 94.089 161.6083
136.000000 94.039 161.5261
138.000000 93.989 161.4529
140.000000 93.938 161.3738
143.000000 93.868 161.2686
145.000000 93.820 161.2004
147.500000 93.758 161.1193
150.000000 93.699 161.0590
152.500000 93.642 161.0369
155.000000 93.586 161.0276
157.500000 93.527 161.0054
160.000000 93.465 160.9692
162.500000 93.406 160.9595
165.000000 93.349 160.9637
167.500000 93.290 160.9694
170.000000 93.230 160.9832
172.500000 93.172 161.0104
175.000000 93.118 161.0582
177.500000 93.065 161.0894
180.000000 93.005 161.1066
182.500000 92.944 161.1369
185.000000 92.886 161.1750
187.500000 92.830 161.2319
190.000000 92.775 161.3132
192.500000 92.722 161.3976
195.000000 92.669 161.4640
197.500000 92.617 161.5318
200.000000 92.569 161.6094
203.000000 92.515 161.7129
206.000000 92.457 161.8201
209.000000 92.396 161.9212
212.000000 92.342 162.0385
214.000000 92.307 162.1310
218.000000 92.236 162.3113
220.000000 92.200 162.3996
224.000000 92.133 162.5642
227.000000 92.083 162.6790
230.000000 92.035 162.8124
233.000000 91.988 162.9769
236.000000 91.941 163.1461
240.000000 91.878 163.3455
243.000000 91.831 163.5026
247.000000 91.771 163.7296
250.000000 91.724 163.8917
254.000000 91.664 164.1075
258.000000 91.607 164.3417
262.000000 91.552 164.5760
265.000000 91.511 164.7569
269.000000 91.458 165.0074
272.000000 91.420 165.1946
276.000000 91.374 165.4497
280.000000 91.330 165.7093
285.000000 91.272 166.0153
290.000000 91.215 166.3375
295.000000 91.161 166.6796
300.000000 91.108 167.0399
304.000000 91.063 167.3117
307.000000 91.032 167.4937
311.000000 90.996 167.7431
315.000000 90.961 168.0168
320.000000 90.918 168.3672
325.000000 90.873 168.7045
330.000000 90.830 169.0396
335.000000 90.789 169.3810
340.000000 90.750 169.7338
345.000000 90.709 170.0970
350.000000 90.668 170.4567
355.000000 90.627 170.8187
360.000000 90.587 171.1853
365.000000 90.550 171.5526
370.000000 90.514 171.9199
375.000000 90.478 172.2798
382.000000 90.432 172.7732
387.000000 90.399 173.1316
395.000000 90.341 173.7106
400.000000 90.306 174.0643
406.000000 90.267 174.5102
412.000000 90.232 174.9584
418.000000 90.200 175.3910
425.000000 90.163 175.8992
431.000000 90.131 176.3320
437.000000 90.101 176.7470
444.000000 90.069 177.2278
450.000000 90.041 177.6444
455.000000 90.017 177.9935
462.000000 89.986 178.4814
468.000000 89.960 178.9046
475.000000 89.930 179.3927
482.000000 89.902 179.8716
487.000000 89.884 -179.7859
494.000000 89.860 -179.3094
500.000000 89.841 -178.9011
508.000000 89.814 -178.3494
515.000000 89.789 -177.8567
522.000000 89.763 -177.3545
530.000000 89.738 -176.7796
538.000000 89.715 -176.2083
545.000000 89.696 -175.6937
552.000000 89.680 -175.1602
560.000000 89.662 -174.5435
570.000000 89.645 -173.7872
580.000000 89.629 -173.0167
590.000000 89.615 -172.2396
600.000000 89.603 -171.4787
608.000000 89.593 -170.8661
615.000000 89.588 -170.3174
622.000000 89.584 -169.7585
630.000000 89.581 -169.1241
640.000000 89.578 -168.3559
650.000000 89.577 -167.5867
660.000000 89.579 -166.8108
670.000000 89.582 -166.0557
680.000000 89.589 -165.3095
690.000000 89.599 -164.5565
700.000000 89.609 -163.8047
710.000000 89.625 -163.0521
720.000000 89.643 -162.2995
730.000000 89.661 -161.5627
740.000000 89.682 -160.8270
750.000000 89.707 -160.0878
762.000000 89.737 -159.2047
775.000000 89.772 -158.2522
788.000000 89.811 -157.3044
800.000000 89.850 -156.4417
812.000000 89.891 -155.5884
825.000000 89.942 -154.6816
838.000000 89.997 -153.7913
850.000000 90.048 -152.9674
862.000000 90.104 -152.1556
875.000000 90.168 -151.3112
885.000000 90.217 -150.6776
900.000000 90.296 -149.7458
912.000000 90.365 -149.0103
925.000000 90.442 -148.2419
938.000000 90.520 -147.4976
950.000000 90.598 -146.8355
962.000000 90.681 -146.2014
975.000000 90.773 -145.5094
988.000000 90.866 -144.8320
1000.000000 90.949 -144.2482
1015.000000 91.041 -143.5904
1030.000000 91.135 -142.9741
1044.000000 91.227 -142.4141
1060.000000 91.336 -141.7953
1075.000000 91.435 -141.2423
1090.000000 91.539 -140.7326
1106.000000 91.660 -140.2269
1120.000000 91.769 -139.8103
1138.000000 91.908 -139.3143
1150.000000 91.999 -138.9969
1172.000000 92.164 -138.4426
1180.000000 92.223 -138.2487
1206.000000 92.411 -137.6656
1220.000000 92.514 -137.3848
1241.000000 92.669 -136.9795
1250.000000 92.736 -136.8072
1265.000000 92.846 -136.5318
1280.000000 92.953 -136.2651
1315.000000 93.195 -135.7005
1320.000000 93.229 -135.6275
1340.000000 93.357 -135.3393
1360.000000 93.465 -135.0510
1380.000000 93.571 -134.7780
1400.000000 93.687 -134.5316
1430.000000 93.863 -134.1864
1450.000000 93.980 -133.9688
1475.000000 94.123 -133.7024
1500.000000 94.264 -133.4498
1525.000000 94.402 -133.2090
1550.000000 94.531 -132.9751
1575.000000 94.656 -132.7469
1600.000000 94.779 -132.5306
1625.000000 94.901 -132.3250
1650.000000 95.023 -132.1138
1675.000000 95.146 -131.9116
1700.000000 95.268 -131.7317
1725.000000 95.386 -131.5638
1750.000000 95.505 -131.4149
1775.000000 95.624 -131.2832
1800.000000 95.742 -131.1668
1825.000000 95.860 -131.0785
1850.000000 95.977 -131.0141
1875.000000 96.093 -130.9627
1900.000000 96.208 -130.9244
1925.000000 96.323 -130.8996
1950.000000 96.438 -130.8910
1975.000000 96.556 -130.8991
2000.000000 96.673 -130.9421
2030.000000 96.803 -131.0571
2060.000000 96.933 -131.2089
2090.000000 97.063 -131.3906
2120.000000 97.189 -131.6143
2140.000000 97.270 -131.7850
2180.000000 97.425 -132.1707
2200.000000 97.497 -132.3849
2240.000000 97.635 -132.8432
2270.000000 97.734 -133.2201
2300.000000 97.825 -133.6255
2330.000000 97.911 -134.0528
2360.000000 97.991 -134.5009
2400.000000 98.089 -135.1184
2430.000000 98.154 -135.5902
2470.000000 98.229 -136.2365
2500.000000 98.278 -136.7265
2540.000000 98.332 -137.3913
2580.000000 98.375 -138.0455
2620.000000 98.408 -138.6816
2650.000000 98.425 -139.1521
2690.000000 98.438 -139.7593
2720.000000 98.440 -140.1946
2760.000000 98.431 -140.7531
2800.000000 98.412 -141.2865
2850.000000 98.377 -141.9033
2900.000000 98.331 -142.4432
2950.000000 98.274 -142.9000
3000.000000 98.208 -143.2713
3040.000000 98.150 -143.5388
3070.000000 98.102 -143.7122
3110.000000 98.036 -143.8891
3150.000000 97.968 -144.0080
3200.000000 97.878 -144.0879
3250.000000 97.785 -144.0961
3300.000000 97.689 -144.0222
3350.000000 97.594 -143.8654
3400.000000 97.501 -143.6301
3450.000000 97.417 -143.3089
3500.000000 97.342 -142.8958
3550.000000 97.276 -142.3978
3600.000000 97.219 -141.8130
3650.000000 97.172 -141.1407
3700.000000 97.143 -140.3998
3750.000000 97.137 -139.6250
3820.000000 97.167 -138.6174
3870.000000 97.204 -138.0564
3950.000000 97.258 -137.4533
4000.000000 97.282 -137.2070
4060.000000 97.299 -136.9751
4120.000000 97.300 -136.7555
4180.000000 97.289 -136.5115
4250.000000 97.265 -136.1368
4310.000000 97.240 -135.7062
4370.000000 97.224 -135.2042
4440.000000 97.231 -134.7046
4500.000000 97.240 -134.4682
4550.000000 97.236 -134.3639
4620.000000 97.210 -134.2268
4680.000000 97.181 -134.0657
4750.000000 97.151 -133.8499
4820.000000 97.126 -133.6742
4870.000000 97.105 -133.5998
4940.000000 97.063 -133.5736
5000.000000 97.011 -133.5859
5080.000000 96.917 -133.5459
5150.000000 96.812 -133.3896
5220.000000 96.698 -133.0624
5300.000000 96.578 -132.4798
5380.000000 96.482 -131.7699
5450.000000 96.421 -131.1391
5520.000000 96.376 -130.5599
5600.000000 96.337 -129.9885
5700.000000 96.295 -129.4206
5800.000000 96.253 -129.0276
5900.000000 96.200 -128.8109
6000.000000 96.124 -128.7784
6080.000000 96.035 -128.8600
6150.000000 95.928 -128.9684
6220.000000 95.788 -129.0464
6300.000000 95.581 -128.9747
6400.000000 95.264 -128.3932
6500.000000 94.925 -127.0560
6600.000000 94.626 -124.9487
6700.000000 94.416 -122.2711
6800.000000 94.326 -119.3159
6900.000000 94.372 -116.3280
7000.000000 94.545 -113.4903
7100.000000 94.818 -110.9445
7200.000000 95.177 -108.8043
7300.000000 95.611 -107.2077
7400.000000 96.107 -106.2904
7500.000000 96.649 -106.1727
7620.000000 97.342 -107.2913
7750.000000 98.063 -110.2985
7880.000000 98.557 -115.2550
8000.000000 98.725 -121.2423
8120.000000 98.567 -127.8147
8250.000000 98.025 -134.4580
8380.000000 97.173 -139.6315
8500.000000 96.217 -142.7256
8620.000000 95.189 -144.2594
8750.000000 94.067 -144.4521
8850.000000 93.229 -143.7750
9000.000000 92.044 -141.7027
9120.000000 91.164 -139.3172
9250.000000 90.284 -136.1770
9380.000000 89.482 -132.5846
9500.000000 88.805 -128.9387
9620.000000 88.186 -125.0423
9750.000000 87.583 -120.5934
9880.000000 87.049 -115.9383
10000.000000 86.616 -111.4992
10150.000000 86.147 -105.8121
10300.000000 85.755 -100.0009
10440.000000 85.456 -94.4863
10600.000000 85.192 -88.1211
10750.000000 85.020 -82.1425
10900.000000 84.922 -76.1838
11060.000000 84.900 -69.8741
11200.000000 84.949 -64.4008
11380.000000 85.111 -57.4432
11500.000000 85.287 -52.8890
11720.000000 85.756 -44.8413
11800.000000 85.978 -42.0399
12060.000000 86.910 -33.5588
12200.000000 87.554 -29.5546
12410.000000 88.721 -24.7244
12500.000000 89.299 -23.2696
12650.000000 90.353 -22.0184
12800.000000 91.468 -22.7182
13150.000000 93.544 -34.4032
13200.000000 93.689 -37.1437
13400.000000 93.720 -48.9455
13600.000000 92.930 -58.9684
13800.000000 91.632 -64.7746
14000.000000 90.206 -66.5045
14300.000000 88.331 -64.0660
14500.000000 87.368 -60.5953
14750.000000 86.488 -55.3806
15000.000000 85.928 -49.9802
15250.000000 85.654 -44.9963
15500.000000 85.667 -40.9599
15750.000000 85.923 -38.4447
16000.000000 86.306 -38.2131
16250.000000 86.648 -41.1566
16500.000000 86.690 -47.9158
16750.000000 86.097 -58.1929
17000.000000 84.339 -66.1765
17250.000000 81.438 -59.2409
17500.000000 79.599 -48.5888
17750.000000 78.641 -42.4613
18000.000000 77.682 -36.4046
18250.000000 76.793 -29.5480
18500.000000 76.042 -22.4137
18750.000000 75.419 -15.2913
19000.000000 74.895 -8.4060
19250.000000 74.409 -1.9160
19500.000000 73.902 4.1288
19750.000000 73.354 9.7999
20000.000000 72.681 15.3368
20300.000000 71.714 22.3201
20600.000000 70.735 30.3737
20900.000000 69.843 39.9836
21200.000000 69.183 50.9638
21400.000000 68.949 58.5656
21800.000000 69.024 71.6963
22000.000000 69.207 72.9415
22400.000000 68.848 -52.9136
22700.000000 66.423 72.1960
23000.000000 61.099 -101.1675
23300.000000 53.390 -86.9531
23600.000000 45.224 117.3359
24000.000000 40.539 153.0664
