* Measurement data measured by REW V5.20.13
* Source: Headset (DS by VECLAN.COM), MICROPHONE (Master Volume), L, volume: 0.930. Timing signal peak level -9.3 dBFS, measurement signal peak level -9.1 dBFS
* Format: 2M Log Swept Sine, 1 sweep at -12.0 dBFS using an acoustic timing reference
* Dated: Oct 5, 2023 3:11:25 PM
* REW Settings:
*  C-weighting compensation: Off
*  Target level: 75.0 dB
* Note: ; Delay -0.0681 ms (-23 mm, -0.92 in) using estimated IR delay relative to Acoustic reference played from HEADPHONE L with no timing offset
* Measurement: Moondrop Blessing 2 L
* Smoothing: 1/24 octave
* Frequency Step: 1/48 octave
* Start Frequency: 1.000 Hz
*
* Freq(Hz) SPL(dB) Phase(degrees)
1.000000 75.370 170.0323
1.015000 75.698 166.4516
1.030000 76.021 163.0236
1.044000 76.317 159.9777
1.060000 76.646 156.6976
1.075000 76.945 153.8359
1.090000 77.233 151.1990
1.106000 77.528 148.6458
1.120000 77.787 146.5901
1.138000 78.121 144.1660
1.150000 78.345 142.6791
1.172000 78.758 140.2027
1.180000 78.908 139.3774
1.206000 79.397 136.9486
1.220000 79.659 135.7883
1.241000 80.050 134.2198
1.250000 80.217 133.6051
1.265000 80.493 132.6494
1.280000 80.767 131.7712
1.315000 81.393 129.9691
1.320000 81.481 129.7345
1.340000 81.828 128.8392
1.360000 82.165 127.9950
1.380000 82.494 127.1789
1.400000 82.811 126.3677
1.430000 83.265 125.1097
1.450000 83.550 124.2097
1.475000 83.887 122.9998
1.500000 84.203 121.8823
1.525000 84.500 120.8927
1.550000 84.778 120.0159
1.575000 85.041 119.2366
1.600000 85.290 118.5396
1.625000 85.526 117.9094
1.650000 85.750 117.3311
1.675000 85.966 116.7892
1.700000 86.173 116.2684
1.725000 86.373 115.7537
1.750000 86.569 115.2296
1.775000 86.762 114.6809
1.800000 86.953 114.0924
1.825000 87.144 113.4489
1.850000 87.333 112.7544
1.875000 87.514 112.0494
1.900000 87.687 111.3378
1.925000 87.852 110.6219
1.950000 88.010 109.9040
1.975000 88.162 109.1862
2.000000 88.310 108.4709
2.030000 88.481 107.6188
2.060000 88.647 106.7773
2.090000 88.809 105.9503
2.120000 88.969 105.1415
2.140000 89.076 104.6145
2.180000 89.288 103.5945
2.200000 89.396 103.1039
2.240000 89.608 102.1642
2.270000 89.764 101.4918
2.300000 89.916 100.8425
2.330000 90.066 100.2122
2.360000 90.213 99.5969
2.400000 90.404 98.7927
2.430000 90.544 98.1964
2.470000 90.727 97.4025
2.500000 90.861 96.8028
2.540000 91.035 95.9897
2.580000 91.204 95.1541
2.620000 91.368 94.3065
2.650000 91.487 93.6669
2.690000 91.640 92.8115
2.720000 91.753 92.1696
2.760000 91.898 91.3162
2.800000 92.040 90.4682
2.850000 92.212 89.4209
2.900000 92.378 88.3935
2.950000 92.541 87.3916
3.000000 92.697 86.4110
3.040000 92.817 85.6393
3.070000 92.905 85.0670
3.110000 93.019 84.3115
3.150000 93.130 83.5632
3.200000 93.264 82.6360
3.250000 93.393 81.7152
3.300000 93.519 80.7981
3.350000 93.641 79.8844
3.400000 93.757 78.9764
3.450000 93.868 78.0756
3.500000 93.975 77.1838
3.550000 94.079 76.3026
3.600000 94.178 75.4334
3.650000 94.274 74.5782
3.700000 94.367 73.7376
3.750000 94.456 72.9099
3.820000 94.574 71.7716
3.870000 94.654 70.9724
3.950000 94.775 69.7159
4.000000 94.848 68.9438
4.060000 94.933 68.0297
4.120000 95.013 67.1302
4.180000 95.090 66.2456
4.250000 95.174 65.2328
4.310000 95.243 64.3813
4.370000 95.309 63.5457
4.440000 95.384 62.5913
4.500000 95.444 61.7916
4.550000 95.492 61.1373
4.620000 95.556 60.2386
4.680000 95.609 59.4832
4.750000 95.669 58.6177
4.820000 95.726 57.7700
4.870000 95.766 57.1768
4.940000 95.819 56.3620
5.000000 95.862 55.6769
5.080000 95.919 54.7799
5.150000 95.967 54.0089
5.220000 96.013 53.2540
5.300000 96.063 52.4101
5.380000 96.111 51.5832
5.450000 96.152 50.8710
5.520000 96.192 50.1676
5.600000 96.236 49.3780
5.700000 96.288 48.4111
5.800000 96.337 47.4628
5.900000 96.384 46.5294
6.000000 96.428 45.6118
6.080000 96.461 44.8900
6.150000 96.489 44.2679
6.220000 96.515 43.6548
6.300000 96.543 42.9650
6.400000 96.576 42.1184
6.500000 96.605 41.2908
6.600000 96.633 40.4839
6.700000 96.658 39.6961
6.800000 96.680 38.9279
6.900000 96.700 38.1827
7.000000 96.718 37.4632
7.100000 96.734 36.7682
7.200000 96.748 36.0973
7.300000 96.762 35.4506
7.400000 96.775 34.8290
7.500000 96.787 34.2330
7.620000 96.801 33.5471
7.750000 96.816 32.8362
7.880000 96.832 32.1627
8.000000 96.847 31.5662
8.120000 96.864 30.9866
8.250000 96.882 30.3829
8.380000 96.902 29.7964
8.500000 96.920 29.2637
8.620000 96.939 28.7426
8.750000 96.959 28.1878
8.850000 96.974 27.7657
9.000000 96.995 27.1410
9.120000 97.011 26.6514
9.250000 97.028 26.1327
9.380000 97.044 25.6251
9.500000 97.056 25.1694
9.620000 97.065 24.7274
9.750000 97.071 24.2628
9.880000 97.071 23.8150
10.000000 97.063 23.4171
10.150000 97.045 22.9402
10.300000 97.022 22.4888
10.440000 96.993 22.0940
10.600000 96.959 21.6606
10.750000 96.930 21.2653
10.900000 96.903 20.8793
11.060000 96.876 20.4564
11.200000 96.855 20.0779
11.380000 96.827 19.5836
11.500000 96.807 19.2477
11.720000 96.768 18.6278
11.800000 96.752 18.4031
12.060000 96.700 17.6775
12.200000 96.671 17.2971
12.410000 96.623 16.7440
12.500000 96.602 16.5210
12.650000 96.564 16.1655
12.800000 96.525 15.8325
13.150000 96.434 15.1494
13.200000 96.421 15.0602
13.400000 96.373 14.7255
13.600000 96.329 14.4135
13.800000 96.289 14.1208
14.000000 96.253 13.8357
14.300000 96.202 13.4186
14.500000 96.171 13.1469
14.750000 96.135 12.8159
15.000000 96.104 12.4935
15.250000 96.080 12.1711
15.500000 96.063 11.8411
15.750000 96.051 11.4968
16.000000 96.041 11.1266
16.250000 96.030 10.7244
16.500000 96.018 10.2939
16.750000 96.002 9.8451
17.000000 95.981 9.4037
17.250000 95.955 8.9856
17.500000 95.925 8.6107
17.750000 95.895 8.2911
18.000000 95.867 8.0225
18.250000 95.843 7.7993
18.500000 95.826 7.5997
18.750000 95.815 7.4083
19.000000 95.811 7.2106
19.250000 95.811 6.9915
19.500000 95.811 6.7523
19.750000 95.812 6.4943
20.000000 95.809 6.2271
20.299999 95.802 5.9061
20.600000 95.791 5.5973
20.900000 95.776 5.3119
21.200001 95.758 5.0569
21.400000 95.746 4.9050
21.799999 95.722 4.6400
22.000000 95.712 4.5220
22.400000 95.696 4.2991
22.700001 95.687 4.1296
23.000000 95.679 3.9482
23.299999 95.671 3.7541
23.600000 95.662 3.5557
24.000000 95.646 3.3043
24.299999 95.635 3.1387
24.700001 95.623 2.9478
25.000000 95.619 2.8106
25.400000 95.619 2.6038
25.799999 95.619 2.3431
26.200001 95.613 2.0370
26.500000 95.602 1.8053
26.900000 95.578 1.5364
27.200001 95.558 1.3848
27.600000 95.534 1.2484
28.000000 95.520 1.1486
28.500000 95.513 0.9980
29.000000 95.509 0.7731
29.500000 95.496 0.5029
30.000000 95.473 0.2497
30.400000 95.452 0.0799
30.700001 95.437 -0.0314
31.100000 95.419 -0.1699
31.500000 95.404 -0.3082
32.000000 95.389 -0.4922
32.500000 95.377 -0.6973
33.000000 95.364 -0.9237
33.500000 95.349 -1.1526
34.000000 95.334 -1.3556
34.500000 95.327 -1.5345
35.000000 95.326 -1.7332
35.500000 95.325 -1.9902
36.000000 95.310 -2.2725
36.500000 95.281 -2.4866
37.000000 95.249 -2.5644
37.500000 95.229 -2.5394
38.200001 95.227 -2.5214
38.700001 95.230 -2.5957
39.500000 95.225 -2.8016
40.000000 95.214 -2.9565
40.599998 95.192 -3.1710
41.200001 95.154 -3.3395
41.799999 95.116 -3.3567
42.500000 95.111 -3.2908
43.099998 95.140 -3.4532
43.700001 95.155 -3.9038
44.400002 95.118 -4.4687
45.000000 95.067 -4.6949
45.500000 95.043 -4.7330
46.200001 95.045 -4.8229
46.799999 95.052 -5.0500
47.500000 95.039 -5.3268
48.200001 95.022 -5.4382
48.700001 95.023 -5.4522
49.400002 95.043 -5.5413
50.000000 95.058 -5.7454
50.799999 95.046 -6.0743
51.500000 95.014 -6.2369
52.200001 94.985 -6.2436
53.000000 94.976 -6.2142
53.799999 94.981 -6.3530
54.500000 94.972 -6.6199
55.200001 94.940 -6.8714
56.000000 94.901 -7.0239
57.000000 94.875 -7.1544
58.000000 94.863 -7.3589
59.000000 94.852 -7.6277
60.000000 94.829 -7.9306
60.799999 94.799 -8.0752
61.500000 94.777 -8.1053
62.200001 94.768 -8.1077
63.000000 94.768 -8.1613
64.000000 94.767 -8.3546
65.000000 94.748 -8.5999
66.000000 94.719 -8.8030
67.000000 94.687 -8.9281
68.000000 94.668 -8.9880
69.000000 94.661 -9.1572
70.000000 94.636 -9.3902
71.000000 94.603 -9.5120
72.000000 94.580 -9.5981
73.000000 94.562 -9.6788
74.000000 94.554 -9.7636
75.000000 94.551 -9.9101
76.199997 94.545 -10.1534
77.500000 94.529 -10.4523
78.800003 94.497 -10.7681
80.000000 94.451 -10.9231
81.199997 94.425 -10.9213
82.500000 94.420 -10.9809
83.800003 94.413 -11.1012
85.000000 94.398 -11.1812
86.199997 94.382 -11.2092
87.500000 94.362 -11.2898
88.500000 94.337 -11.3748
90.000000 94.303 -11.5431
91.199997 94.275 -11.7686
92.500000 94.250 -11.9883
93.800003 94.237 -12.2437
95.000000 94.213 -12.4675
96.199997 94.182 -12.5791
97.500000 94.147 -12.6696
98.800003 94.107 -12.7286
100.000000 94.085 -12.7755
101.500000 94.079 -12.9985
103.000000 94.064 -13.3376
104.400002 94.033 -13.4543
106.000000 94.014 -13.3687
107.500000 93.994 -13.3741
109.000000 93.953 -13.4200
110.599998 93.924 -13.5535
112.000000 93.906 -13.8646
113.800003 93.869 -14.1779
115.000000 93.856 -14.2106
117.199997 93.844 -14.2887
118.000000 93.826 -14.3156
120.599998 93.757 -14.3766
122.000000 93.715 -14.4481
124.099998 93.673 -14.5165
125.000000 93.662 -14.5832
126.500000 93.637 -14.7479
128.000000 93.602 -14.9081
131.500000 93.515 -15.2137
132.000000 93.503 -15.2495
134.000000 93.463 -15.3329
136.000000 93.443 -15.3781
138.000000 93.422 -15.5020
140.000000 93.385 -15.5194
143.000000 93.345 -15.4033
145.000000 93.322 -15.4247
147.500000 93.281 -15.5381
150.000000 93.244 -15.6921
152.500000 93.188 -15.8992
155.000000 93.135 -15.9440
157.500000 93.101 -15.9633
160.000000 93.071 -15.9200
162.500000 93.042 -15.9544
165.000000 93.001 -16.0643
167.500000 92.964 -16.0944
170.000000 92.929 -16.1085
172.500000 92.870 -16.1757
175.000000 92.805 -16.2088
177.500000 92.763 -16.2618
180.000000 92.725 -16.3465
182.500000 92.680 -16.3472
185.000000 92.641 -16.2782
187.500000 92.599 -16.2504
190.000000 92.552 -16.2021
192.500000 92.518 -16.1344
195.000000 92.488 -16.0612
197.500000 92.446 -15.9663
200.000000 92.400 -15.9297
203.000000 92.362 -15.9956
206.000000 92.336 -16.0610
209.000000 92.295 -16.0293
212.000000 92.240 -15.9675
214.000000 92.204 -15.9480
218.000000 92.137 -15.9163
220.000000 92.111 -15.8546
224.000000 92.075 -15.7480
227.000000 92.039 -15.7383
230.000000 91.991 -15.6864
233.000000 91.940 -15.5847
236.000000 91.897 -15.4679
240.000000 91.854 -15.3260
243.000000 91.815 -15.1952
247.000000 91.754 -15.0823
250.000000 91.714 -14.9823
254.000000 91.681 -14.7680
258.000000 91.644 -14.6135
262.000000 91.605 -14.5326
265.000000 91.573 -14.4520
269.000000 91.520 -14.2929
272.000000 91.484 -14.1772
276.000000 91.447 -14.0220
280.000000 91.411 -13.8818
285.000000 91.366 -13.7662
290.000000 91.312 -13.5779
295.000000 91.260 -13.2679
300.000000 91.208 -12.9710
304.000000 91.172 -12.7955
307.000000 91.151 -12.6893
311.000000 91.124 -12.5566
315.000000 91.090 -12.3973
320.000000 91.046 -12.1398
325.000000 91.007 -11.8898
330.000000 90.965 -11.6465
335.000000 90.923 -11.4248
340.000000 90.888 -11.2069
345.000000 90.848 -10.9469
350.000000 90.806 -10.6602
355.000000 90.771 -10.3944
360.000000 90.738 -10.1606
365.000000 90.704 -9.9265
370.000000 90.667 -9.6714
375.000000 90.628 -9.4161
382.000000 90.574 -9.0305
387.000000 90.538 -8.7474
395.000000 90.489 -8.2998
400.000000 90.462 -8.0359
406.000000 90.425 -7.7192
412.000000 90.385 -7.3789
418.000000 90.343 -7.0530
425.000000 90.301 -6.6708
431.000000 90.266 -6.3608
437.000000 90.228 -6.0209
444.000000 90.180 -5.5768
450.000000 90.147 -5.1823
455.000000 90.123 -4.8687
462.000000 90.090 -4.4371
468.000000 90.063 -4.0546
475.000000 90.037 -3.6102
482.000000 90.014 -3.1830
487.000000 89.996 -2.8705
494.000000 89.972 -2.4292
500.000000 89.955 -2.0568
508.000000 89.933 -1.5787
515.000000 89.916 -1.1992
522.000000 89.898 -0.8200
530.000000 89.875 -0.3335
538.000000 89.853 0.1711
545.000000 89.834 0.5705
552.000000 89.818 0.9608
560.000000 89.805 1.4335
570.000000 89.789 2.0362
580.000000 89.767 2.6220
590.000000 89.750 3.2007
600.000000 89.736 3.8154
608.000000 89.725 4.3115
615.000000 89.713 4.7314
622.000000 89.701 5.1407
630.000000 89.687 5.6235
640.000000 89.672 6.2675
650.000000 89.662 6.8961
660.000000 89.654 7.5033
670.000000 89.645 8.1230
680.000000 89.638 8.7577
690.000000 89.633 9.3943
700.000000 89.633 10.0385
710.000000 89.637 10.6876
720.000000 89.643 11.3057
730.000000 89.651 11.9338
740.000000 89.660 12.5848
750.000000 89.669 13.2269
762.000000 89.687 13.9615
775.000000 89.710 14.7827
788.000000 89.733 15.6099
800.000000 89.758 16.3646
812.000000 89.790 17.0933
825.000000 89.827 17.8639
838.000000 89.865 18.6709
850.000000 89.901 19.3962
862.000000 89.944 20.0705
875.000000 89.996 20.7919
885.000000 90.038 21.3406
900.000000 90.103 22.1472
912.000000 90.155 22.7776
925.000000 90.214 23.4401
938.000000 90.275 24.0770
950.000000 90.335 24.6387
962.000000 90.393 25.1807
975.000000 90.456 25.7489
988.000000 90.520 26.2953
1000.000000 90.580 26.7808
1015.000000 90.656 27.3559
1030.000000 90.731 27.8977
1044.000000 90.801 28.3863
1060.000000 90.884 28.9086
1075.000000 90.962 29.3684
1090.000000 91.044 29.8047
1106.000000 91.143 30.2352
1120.000000 91.233 30.5800
1138.000000 91.345 31.0054
1150.000000 91.418 31.2784
1172.000000 91.555 31.7252
1180.000000 91.605 31.8683
1206.000000 91.764 32.2967
1220.000000 91.848 32.5095
1241.000000 91.974 32.7904
1250.000000 92.028 32.8976
1265.000000 92.116 33.0643
1280.000000 92.202 33.2167
1315.000000 92.389 33.5262
1320.000000 92.414 33.5649
1340.000000 92.504 33.7144
1360.000000 92.570 33.8671
1380.000000 92.630 34.0134
1400.000000 92.701 34.1572
1430.000000 92.810 34.3958
1450.000000 92.879 34.5652
1475.000000 92.962 34.7856
1500.000000 93.041 35.0257
1525.000000 93.115 35.2895
1550.000000 93.186 35.5624
1575.000000 93.252 35.8466
1600.000000 93.316 36.1572
1625.000000 93.383 36.4782
1650.000000 93.453 36.7949
1675.000000 93.524 37.1220
1700.000000 93.593 37.4637
1725.000000 93.661 37.8112
1750.000000 93.731 38.1525
1775.000000 93.803 38.4929
1800.000000 93.878 38.8358
1825.000000 93.957 39.1689
1850.000000 94.037 39.4948
1875.000000 94.117 39.8188
1900.000000 94.198 40.1364
1925.000000 94.281 40.4409
1950.000000 94.365 40.7309
1975.000000 94.450 41.0126
2000.000000 94.537 41.2814
2030.000000 94.645 41.5804
2060.000000 94.756 41.8511
2090.000000 94.867 42.1001
2120.000000 94.979 42.3276
2140.000000 95.054 42.4614
2180.000000 95.209 42.6829
2200.000000 95.286 42.7733
2240.000000 95.438 42.9104
2270.000000 95.553 42.9731
2300.000000 95.666 43.0021
2330.000000 95.779 42.9957
2360.000000 95.889 42.9554
2400.000000 96.034 42.8463
2430.000000 96.141 42.7197
2470.000000 96.278 42.5042
2500.000000 96.377 42.3084
2540.000000 96.506 41.9947
2580.000000 96.632 41.6227
2620.000000 96.750 41.1904
2650.000000 96.833 40.8207
2690.000000 96.935 40.2654
2720.000000 97.003 39.8127
2760.000000 97.080 39.1789
2800.000000 97.143 38.5195
2850.000000 97.206 37.6683
2900.000000 97.248 36.8116
2950.000000 97.267 35.9736
3000.000000 97.272 35.1522
3040.000000 97.269 34.5035
3070.000000 97.261 34.0167
3110.000000 97.242 33.3703
3150.000000 97.210 32.7377
3200.000000 97.151 31.9915
3250.000000 97.074 31.3197
3300.000000 96.983 30.7340
3350.000000 96.884 30.2328
3400.000000 96.781 29.8192
3450.000000 96.675 29.4954
3500.000000 96.566 29.2651
3550.000000 96.453 29.1287
3600.000000 96.338 29.0856
3650.000000 96.222 29.1423
3700.000000 96.109 29.2999
3750.000000 96.004 29.5488
3820.000000 95.871 30.0048
3870.000000 95.782 30.3556
3950.000000 95.641 30.8887
4000.000000 95.544 31.2457
4060.000000 95.423 31.7961
4120.000000 95.310 32.4363
4180.000000 95.202 33.1295
4250.000000 95.082 34.0440
4310.000000 94.983 34.9285
4370.000000 94.886 35.8887
4440.000000 94.785 37.0733
4500.000000 94.711 38.1166
4550.000000 94.660 38.9909
4620.000000 94.602 40.2152
4680.000000 94.564 41.2552
4750.000000 94.532 42.4550
4820.000000 94.507 43.6446
4870.000000 94.494 44.4918
4940.000000 94.482 45.6810
5000.000000 94.480 46.7179
5080.000000 94.490 48.1519
5150.000000 94.515 49.4715
5220.000000 94.565 50.8478
5300.000000 94.662 52.4552
5380.000000 94.807 54.0305
5450.000000 94.982 55.3087
5520.000000 95.207 56.4160
5600.000000 95.531 57.3506
5700.000000 96.020 57.5604
5800.000000 96.500 56.2263
5900.000000 96.847 53.3825
6000.000000 96.934 49.5673
6080.000000 96.777 46.5699
6150.000000 96.496 44.5146
6220.000000 96.127 43.2629
6300.000000 95.661 42.8989
6400.000000 95.108 43.8410
6500.000000 94.665 45.8970
6600.000000 94.361 48.6122
6700.000000 94.200 51.6392
6800.000000 94.183 54.7218
6900.000000 94.312 57.6895
7000.000000 94.575 60.4369
7100.000000 94.950 62.8498
7200.000000 95.426 64.7853
7300.000000 95.996 66.1229
7400.000000 96.645 66.7000
7500.000000 97.357 66.3487
7620.000000 98.289 64.4048
7750.000000 99.286 59.8205
7880.000000 100.004 52.3694
8000.000000 100.267 43.4599
8120.000000 100.069 33.8857
8250.000000 99.357 24.5253
8380.000000 98.278 17.4567
8500.000000 97.120 13.1948
8620.000000 95.928 10.7932
8750.000000 94.674 9.7812
8850.000000 93.758 9.8264
9000.000000 92.487 10.8337
9120.000000 91.558 12.2085
9250.000000 90.627 14.0859
9380.000000 89.761 16.2447
9500.000000 89.015 18.4042
9620.000000 88.310 20.6809
9750.000000 87.584 23.2539
9880.000000 86.884 25.9373
10000.000000 86.250 28.5582
10150.000000 85.473 32.1276
10300.000000 84.731 36.0372
10440.000000 84.076 39.9496
10600.000000 83.376 44.7001
10750.000000 82.769 49.3922
10900.000000 82.217 54.2701
11060.000000 81.697 59.6053
11200.000000 81.298 64.3175
11380.000000 80.854 70.3365
11500.000000 80.595 74.2781
11720.000000 80.168 81.3665
11800.000000 80.026 83.9557
12060.000000 79.670 92.4799
12200.000000 79.554 96.7997
12410.000000 79.394 102.6906
12500.000000 79.318 105.0830
12650.000000 79.183 109.0065
12800.000000 79.041 112.9246
13150.000000 78.718 122.2842
13200.000000 78.676 123.6570
13400.000000 78.532 129.2440
13600.000000 78.433 134.9752
13800.000000 78.395 140.8418
14000.000000 78.428 146.8683
14300.000000 78.638 156.3872
14500.000000 78.943 163.0645
14750.000000 79.603 171.4756
15000.000000 80.670 179.3186
15250.000000 82.250 -174.5490
15500.000000 84.350 -172.1089
15750.000000 86.562 -176.3416
16000.000000 88.058 170.9533
16250.000000 88.189 154.1217
16500.000000 87.054 141.5552
16750.000000 85.356 136.5488
17000.000000 83.786 136.9573
17250.000000 82.659 139.7773
17500.000000 81.957 142.9265
17750.000000 81.492 145.5696
18000.000000 81.114 147.8679
18250.000000 80.816 150.1597
18500.000000 80.709 152.5165
18750.000000 80.909 154.8881
19000.000000 81.359 157.2687
19250.000000 81.801 159.6672
19500.000000 82.009 161.9899
19750.000000 81.942 164.0613
20000.000000 81.589 165.5152
20300.000000 80.778 165.7752
20600.000000 79.474 164.0376
20900.000000 77.438 160.3154
21200.000000 74.482 155.0762
21400.000000 71.951 150.5836
21800.000000 65.457 124.6190
22000.000000 61.460 52.8111
22400.000000 51.931 75.5319
22700.000000 43.502 13.2100
23000.000000 34.121 155.2500
23300.000000 24.078 -28.6133
23600.000000 14.781 97.4492
24000.000000 9.995 -88.1641
