* Measurement data measured by REW V5.20.13
* Source: Headset (DS by VECLAN.COM), MICROPHONE (Master Volume), L, volume: 0.720. Timing signal peak level -17.6 dBFS, measurement signal peak level -15.8 dBFS
* Format: 4M Log Swept Sine, 1 sweep at -12.0 dBFS using an acoustic timing reference
* Dated: Dec 6, 2023 9:09:53 AM
* REW Settings:
*  C-weighting compensation: Off
*  Target level: 75.0 dB
* Note: ; Apple + Abigail Delay -0.0661 ms (-23 mm, -0.89 in) using estimated IR delay relative to Acoustic reference played from  L with no timing offset
* Measurement: Moondrop KATO S1 Foam L
* Smoothing: 1/24 octave
* Frequency Step: 1/48 octave
* Start Frequency: 1.000 Hz
*
* Freq(Hz) SPL(dB) Phase(degrees)
1.000000 64.998 -6.5576
1.015000 65.802 -7.7985
1.030000 66.571 -9.0025
1.044000 67.250 -10.0885
1.060000 67.974 -11.2798
1.075000 68.594 -12.3432
1.090000 69.149 -13.3498
1.106000 69.669 -14.3584
1.120000 70.091 -15.2009
1.138000 70.600 -16.2366
1.150000 70.920 -16.8988
1.172000 71.468 -18.0581
1.180000 71.655 -18.4631
1.206000 72.226 -19.7227
1.220000 72.509 -20.3678
1.241000 72.908 -21.2962
1.250000 73.070 -21.6809
1.265000 73.329 -22.3058
1.280000 73.574 -22.9124
1.315000 74.107 -24.2668
1.320000 74.179 -24.4545
1.340000 74.460 -25.1931
1.360000 74.730 -25.9164
1.380000 74.994 -26.6288
1.400000 75.255 -27.3351
1.430000 75.647 -28.3932
1.450000 75.914 -29.1044
1.475000 76.257 -30.0037
1.500000 76.582 -30.8820
1.525000 76.885 -31.7319
1.550000 77.168 -32.5549
1.575000 77.433 -33.3526
1.600000 77.682 -34.1266
1.625000 77.918 -34.8782
1.650000 78.141 -35.6090
1.675000 78.356 -36.3206
1.700000 78.563 -37.0145
1.725000 78.765 -37.6922
1.750000 78.963 -38.3551
1.775000 79.161 -39.0049
1.800000 79.360 -39.6431
1.825000 79.563 -40.2711
1.850000 79.767 -40.8844
1.875000 79.964 -41.4709
1.900000 80.156 -42.0328
1.925000 80.341 -42.5730
1.950000 80.522 -43.0943
1.975000 80.698 -43.5995
2.000000 80.870 -44.0916
2.030000 81.073 -44.6687
2.060000 81.271 -45.2360
2.090000 81.467 -45.7983
2.120000 81.661 -46.3607
2.140000 81.790 -46.7380
2.180000 82.048 -47.5051
2.200000 82.178 -47.8978
2.240000 82.436 -48.6849
2.270000 82.627 -49.2714
2.300000 82.816 -49.8548
2.330000 83.002 -50.4356
2.360000 83.187 -51.0141
2.400000 83.429 -51.7824
2.430000 83.608 -52.3568
2.470000 83.843 -53.1210
2.500000 84.016 -53.6931
2.540000 84.243 -54.4555
2.580000 84.465 -55.2181
2.620000 84.683 -55.9819
2.650000 84.844 -56.5549
2.690000 85.054 -57.3181
2.720000 85.208 -57.8893
2.760000 85.411 -58.6483
2.800000 85.609 -59.4030
2.850000 85.851 -60.3385
2.900000 86.088 -61.2630
2.950000 86.318 -62.1742
3.000000 86.542 -63.0729
3.040000 86.716 -63.7840
3.070000 86.844 -64.3134
3.110000 87.012 -65.0147
3.150000 87.175 -65.7115
3.200000 87.375 -66.5775
3.250000 87.571 -67.4396
3.300000 87.762 -68.2993
3.350000 87.947 -69.1587
3.400000 88.128 -70.0169
3.450000 88.303 -70.8710
3.500000 88.474 -71.7187
3.550000 88.640 -72.5573
3.600000 88.802 -73.3842
3.650000 88.961 -74.1968
3.700000 89.116 -74.9935
3.750000 89.267 -75.7757
3.820000 89.472 -76.8503
3.870000 89.613 -77.6059
3.950000 89.832 -78.7992
4.000000 89.965 -79.5383
4.060000 90.121 -80.4213
4.120000 90.271 -81.2995
4.180000 90.416 -82.1698
4.250000 90.579 -83.1714
4.310000 90.715 -84.0145
4.370000 90.848 -84.8403
4.440000 90.999 -85.7781
4.500000 91.125 -86.5609
4.550000 91.226 -87.2006
4.620000 91.365 -88.0805
4.680000 91.480 -88.8233
4.750000 91.613 -89.6810
4.820000 91.743 -90.5295
4.870000 91.834 -91.1269
4.940000 91.958 -91.9524
5.000000 92.062 -92.6506
5.080000 92.197 -93.5698
5.150000 92.312 -94.3642
5.220000 92.424 -95.1485
5.300000 92.548 -96.0320
5.380000 92.668 -96.9021
5.450000 92.769 -97.6527
5.520000 92.869 -98.3935
5.600000 92.978 -99.2278
5.700000 93.109 -100.2523
5.800000 93.235 -101.2563
5.900000 93.358 -102.2396
6.000000 93.476 -103.2002
6.080000 93.567 -103.9542
6.150000 93.645 -104.6053
6.220000 93.720 -105.2498
6.300000 93.805 -105.9781
6.400000 93.907 -106.8744
6.500000 94.005 -107.7555
6.600000 94.099 -108.6221
6.700000 94.189 -109.4761
6.800000 94.275 -110.3160
6.900000 94.357 -111.1381
7.000000 94.437 -111.9391
7.100000 94.513 -112.7193
7.200000 94.586 -113.4809
7.300000 94.657 -114.2263
7.400000 94.727 -114.9557
7.500000 94.794 -115.6672
7.620000 94.873 -116.5027
7.750000 94.956 -117.3911
7.880000 95.036 -118.2591
8.000000 95.108 -119.0457
8.120000 95.177 -119.8225
8.250000 95.249 -120.6516
8.380000 95.318 -121.4663
8.500000 95.379 -122.2050
8.620000 95.438 -122.9314
8.750000 95.498 -123.7025
8.850000 95.543 -124.2831
9.000000 95.607 -125.1341
9.120000 95.657 -125.7994
9.250000 95.710 -126.5049
9.380000 95.763 -127.1939
9.500000 95.809 -127.8193
9.620000 95.851 -128.4362
9.750000 95.895 -129.0936
9.880000 95.931 -129.7415
10.000000 95.956 -130.3332
10.150000 95.979 -131.0616
10.300000 95.994 -131.7701
10.440000 95.999 -132.4119
10.600000 96.002 -133.1272
10.750000 96.004 -133.7810
10.900000 96.006 -134.4199
11.060000 96.009 -135.0965
11.200000 96.013 -135.6849
11.380000 96.016 -136.4259
11.500000 96.017 -136.9091
11.720000 96.019 -137.7704
11.800000 96.020 -138.0739
12.060000 96.024 -139.0293
12.200000 96.028 -139.5293
12.410000 96.036 -140.2593
12.500000 96.039 -140.5647
12.650000 96.045 -141.0629
12.800000 96.052 -141.5511
13.150000 96.068 -142.6584
13.200000 96.070 -142.8144
13.400000 96.082 -143.4335
13.600000 96.094 -144.0448
13.800000 96.106 -144.6484
14.000000 96.117 -145.2430
14.300000 96.131 -146.1148
14.500000 96.137 -146.6752
14.750000 96.145 -147.3501
15.000000 96.153 -147.9970
15.250000 96.164 -148.6257
15.500000 96.178 -149.2395
15.750000 96.192 -149.8407
16.000000 96.205 -150.4321
16.250000 96.215 -151.0146
16.500000 96.223 -151.5856
16.750000 96.230 -152.1389
17.000000 96.236 -152.6676
17.250000 96.242 -153.1712
17.500000 96.250 -153.6494
17.750000 96.258 -154.1135
18.000000 96.268 -154.5715
18.250000 96.278 -155.0327
18.500000 96.288 -155.4980
18.750000 96.298 -155.9630
19.000000 96.306 -156.4234
19.250000 96.314 -156.8727
19.500000 96.322 -157.3077
19.750000 96.329 -157.7266
20.000000 96.338 -158.1314
20.299999 96.349 -158.6076
20.600000 96.362 -159.0827
20.900000 96.374 -159.5638
21.200001 96.384 -160.0511
21.400000 96.388 -160.3740
21.799999 96.392 -161.0015
22.000000 96.391 -161.3002
22.400000 96.389 -161.8617
22.700001 96.388 -162.2554
23.000000 96.389 -162.6340
23.299999 96.390 -163.0060
23.600000 96.393 -163.3756
24.000000 96.397 -163.8664
24.299999 96.399 -164.2307
24.700001 96.402 -164.7087
25.000000 96.405 -165.0620
25.400000 96.408 -165.5291
25.799999 96.411 -165.9949
26.200001 96.412 -166.4577
26.500000 96.410 -166.7985
26.900000 96.407 -167.2375
27.200001 96.403 -167.5511
27.600000 96.399 -167.9481
28.000000 96.395 -168.3286
28.500000 96.395 -168.8002
29.000000 96.395 -169.2812
29.500000 96.394 -169.7655
30.000000 96.389 -170.2340
30.400000 96.383 -170.5888
30.700001 96.378 -170.8454
31.100000 96.373 -171.1844
31.500000 96.370 -171.5293
32.000000 96.364 -171.9677
32.500000 96.354 -172.3926
33.000000 96.343 -172.7829
33.500000 96.333 -173.1462
34.000000 96.328 -173.5138
34.500000 96.326 -173.9047
35.000000 96.320 -174.3073
35.500000 96.312 -174.6953
36.000000 96.303 -175.0537
36.500000 96.294 -175.3876
37.000000 96.286 -175.7151
37.500000 96.278 -176.0454
38.200001 96.265 -176.5012
38.700001 96.255 -176.8159
39.500000 96.238 -177.3061
40.000000 96.228 -177.6037
40.599998 96.215 -177.9525
41.200001 96.203 -178.2990
41.799999 96.189 -178.6415
42.500000 96.174 -179.0257
43.099998 96.164 -179.3469
43.700001 96.154 -179.6740
44.400002 96.142 179.9397
45.000000 96.129 179.6215
45.500000 96.119 179.3697
46.200001 96.105 179.0239
46.799999 96.093 178.7228
47.500000 96.076 178.3761
48.200001 96.059 178.0505
48.700001 96.047 177.8258
49.400002 96.030 177.5074
50.000000 96.016 177.2317
50.799999 95.996 176.8671
51.500000 95.979 176.5505
52.200001 95.962 176.2428
53.000000 95.944 175.9031
53.799999 95.926 175.5647
54.500000 95.907 175.2795
55.200001 95.887 175.0161
56.000000 95.865 174.7308
57.000000 95.838 174.3742
58.000000 95.803 174.0223
59.000000 95.763 173.7525
60.000000 95.742 173.5047
60.799999 95.734 173.1856
61.500000 95.718 172.8670
62.200001 95.695 172.5882
63.000000 95.669 172.3096
64.000000 95.640 171.9734
65.000000 95.612 171.6628
66.000000 95.586 171.3624
67.000000 95.559 171.0661
68.000000 95.528 170.7891
69.000000 95.496 170.5281
70.000000 95.466 170.2693
71.000000 95.436 169.9992
72.000000 95.405 169.7250
73.000000 95.375 169.4678
74.000000 95.344 169.2254
75.000000 95.312 168.9879
76.199997 95.272 168.7074
77.500000 95.230 168.4017
78.800003 95.190 168.0753
80.000000 95.151 167.7495
81.199997 95.105 167.4595
82.500000 95.060 167.2497
83.800003 95.027 167.0471
85.000000 94.997 166.8361
86.199997 94.963 166.6193
87.500000 94.924 166.3908
88.500000 94.893 166.2142
90.000000 94.843 165.9539
91.199997 94.806 165.7483
92.500000 94.767 165.5283
93.800003 94.729 165.3229
95.000000 94.694 165.1408
96.199997 94.657 164.9652
97.500000 94.616 164.7872
98.800003 94.575 164.6329
100.000000 94.538 164.4887
101.500000 94.493 164.2839
103.000000 94.448 164.0717
104.400002 94.402 163.8889
106.000000 94.348 163.6938
107.500000 94.297 163.5174
109.000000 94.246 163.3594
110.599998 94.196 163.2289
112.000000 94.156 163.1227
113.800003 94.105 162.9930
115.000000 94.069 162.8960
117.199997 93.993 162.6711
118.000000 93.964 162.5935
120.599998 93.876 162.4059
122.000000 93.840 162.3268
124.099998 93.790 162.1951
125.000000 93.766 162.1407
126.500000 93.725 162.0608
128.000000 93.683 161.9877
131.500000 93.583 161.8357
132.000000 93.569 161.8157
134.000000 93.513 161.7355
136.000000 93.459 161.6641
138.000000 93.412 161.5788
140.000000 93.367 161.4749
143.000000 93.298 161.4016
145.000000 93.250 161.3640
147.500000 93.180 161.2531
150.000000 93.114 161.1895
152.500000 93.062 161.1833
155.000000 93.011 161.2012
157.500000 92.951 161.2172
160.000000 92.891 161.2064
162.500000 92.836 161.1939
165.000000 92.782 161.2259
167.500000 92.728 161.2729
170.000000 92.669 161.3096
172.500000 92.608 161.3392
175.000000 92.546 161.3834
177.500000 92.485 161.4451
180.000000 92.431 161.5114
182.500000 92.379 161.5666
185.000000 92.322 161.6249
187.500000 92.263 161.6797
190.000000 92.206 161.7361
192.500000 92.154 161.8162
195.000000 92.105 161.8992
197.500000 92.053 161.9783
200.000000 92.003 162.0860
203.000000 91.952 162.2017
206.000000 91.895 162.2916
209.000000 91.836 162.3923
212.000000 91.784 162.5360
214.000000 91.751 162.6572
218.000000 91.683 162.8614
220.000000 91.650 162.9270
224.000000 91.580 163.0833
227.000000 91.527 163.2753
230.000000 91.481 163.4612
233.000000 91.439 163.5946
236.000000 91.396 163.6949
240.000000 91.341 163.8917
243.000000 91.301 164.1221
247.000000 91.245 164.3948
250.000000 91.208 164.5463
254.000000 91.167 164.7770
258.000000 91.124 165.0123
262.000000 91.081 165.2281
265.000000 91.049 165.4093
269.000000 91.002 165.6690
272.000000 90.962 165.8511
276.000000 90.899 166.0909
280.000000 90.823 166.3758
285.000000 90.718 166.7974
290.000000 90.623 167.2112
295.000000 90.561 167.5443
300.000000 90.523 167.8559
304.000000 90.493 168.1016
307.000000 90.472 168.2836
311.000000 90.445 168.5424
315.000000 90.418 168.8211
320.000000 90.381 169.1776
325.000000 90.342 169.5163
330.000000 90.307 169.8602
335.000000 90.277 170.1991
340.000000 90.247 170.5524
345.000000 90.214 170.9180
350.000000 90.179 171.2657
355.000000 90.141 171.6134
360.000000 90.099 171.9877
365.000000 90.060 172.3597
370.000000 90.024 172.7095
375.000000 89.991 173.0370
382.000000 89.948 173.5132
387.000000 89.916 173.8813
395.000000 89.863 174.4583
400.000000 89.833 174.8024
406.000000 89.798 175.2381
412.000000 89.765 175.6826
418.000000 89.732 176.1149
425.000000 89.696 176.6214
431.000000 89.664 177.0557
437.000000 89.633 177.4741
444.000000 89.600 177.9621
450.000000 89.573 178.3848
455.000000 89.550 178.7356
462.000000 89.520 179.2256
468.000000 89.496 179.6492
475.000000 89.468 -179.8616
482.000000 89.442 -179.3805
487.000000 89.425 -179.0374
494.000000 89.402 -178.5580
500.000000 89.385 -178.1464
508.000000 89.360 -177.5917
515.000000 89.337 -177.0979
522.000000 89.314 -176.5948
530.000000 89.291 -176.0117
538.000000 89.269 -175.4297
545.000000 89.252 -174.9140
552.000000 89.237 -174.3824
560.000000 89.221 -173.7665
570.000000 89.205 -173.0113
580.000000 89.192 -172.2356
590.000000 89.179 -171.4563
600.000000 89.169 -170.6971
608.000000 89.161 -170.0896
615.000000 89.156 -169.5420
622.000000 89.153 -168.9805
630.000000 89.150 -168.3416
640.000000 89.148 -167.5702
650.000000 89.150 -166.8040
660.000000 89.154 -166.0255
670.000000 89.158 -165.2614
680.000000 89.166 -164.5139
690.000000 89.176 -163.7618
700.000000 89.187 -163.0080
710.000000 89.203 -162.2542
720.000000 89.221 -161.4999
730.000000 89.239 -160.7611
740.000000 89.260 -160.0251
750.000000 89.285 -159.2855
762.000000 89.316 -158.4019
775.000000 89.351 -157.4422
788.000000 89.389 -156.4930
800.000000 89.429 -155.6389
812.000000 89.472 -154.7849
825.000000 89.525 -153.8688
838.000000 89.582 -152.9806
850.000000 89.636 -152.1613
862.000000 89.693 -151.3482
875.000000 89.756 -150.4968
885.000000 89.804 -149.8546
900.000000 89.883 -148.9101
912.000000 89.953 -148.1629
925.000000 90.030 -147.3854
938.000000 90.108 -146.6331
950.000000 90.182 -145.9594
962.000000 90.259 -145.3050
975.000000 90.344 -144.6004
988.000000 90.435 -143.9094
1000.000000 90.521 -143.3141
1015.000000 90.618 -142.6489
1030.000000 90.715 -142.0199
1044.000000 90.809 -141.4488
1060.000000 90.917 -140.8101
1075.000000 91.016 -140.2409
1090.000000 91.120 -139.7166
1106.000000 91.240 -139.1918
1120.000000 91.348 -138.7580
1138.000000 91.487 -138.2451
1150.000000 91.578 -137.9172
1172.000000 91.742 -137.3361
1180.000000 91.800 -137.1325
1206.000000 91.990 -136.5213
1220.000000 92.093 -136.2258
1241.000000 92.250 -135.7986
1250.000000 92.316 -135.6163
1265.000000 92.427 -135.3231
1280.000000 92.534 -135.0428
1315.000000 92.776 -134.4489
1320.000000 92.810 -134.3727
1340.000000 92.937 -134.0781
1360.000000 93.044 -133.7908
1380.000000 93.147 -133.5141
1400.000000 93.261 -133.2568
1430.000000 93.435 -132.8849
1450.000000 93.551 -132.6488
1475.000000 93.693 -132.3628
1500.000000 93.832 -132.0888
1525.000000 93.968 -131.8273
1550.000000 94.095 -131.5749
1575.000000 94.219 -131.3273
1600.000000 94.341 -131.0907
1625.000000 94.463 -130.8683
1650.000000 94.584 -130.6433
1675.000000 94.706 -130.4288
1700.000000 94.825 -130.2338
1725.000000 94.940 -130.0439
1750.000000 95.057 -129.8702
1775.000000 95.174 -129.7123
1800.000000 95.291 -129.5690
1825.000000 95.407 -129.4520
1850.000000 95.522 -129.3537
1875.000000 95.636 -129.2693
1900.000000 95.750 -129.2033
1925.000000 95.862 -129.1514
1950.000000 95.974 -129.1169
1975.000000 96.088 -129.0997
2000.000000 96.200 -129.1117
2030.000000 96.323 -129.1748
2060.000000 96.446 -129.2589
2090.000000 96.571 -129.3636
2120.000000 96.693 -129.5026
2140.000000 96.773 -129.6148
2180.000000 96.927 -129.8794
2200.000000 97.000 -130.0305
2240.000000 97.138 -130.3638
2270.000000 97.237 -130.6455
2300.000000 97.331 -130.9529
2330.000000 97.420 -131.2824
2360.000000 97.505 -131.6355
2400.000000 97.609 -132.1318
2430.000000 97.680 -132.5173
2470.000000 97.766 -133.0491
2500.000000 97.823 -133.4521
2540.000000 97.889 -134.0002
2580.000000 97.946 -134.5511
2620.000000 97.994 -135.1015
2650.000000 98.023 -135.5137
2690.000000 98.053 -136.0508
2720.000000 98.068 -136.4394
2760.000000 98.079 -136.9448
2800.000000 98.080 -137.4324
2850.000000 98.072 -138.0058
2900.000000 98.052 -138.5289
2950.000000 98.020 -138.9981
3000.000000 97.981 -139.3940
3040.000000 97.944 -139.6859
3070.000000 97.914 -139.8819
3110.000000 97.871 -140.0982
3150.000000 97.826 -140.2670
3200.000000 97.766 -140.4229
3250.000000 97.703 -140.5232
3300.000000 97.640 -140.5623
3350.000000 97.577 -140.5438
3400.000000 97.518 -140.4757
3450.000000 97.463 -140.3581
3500.000000 97.416 -140.1930
3550.000000 97.374 -139.9862
3600.000000 97.336 -139.7429
3650.000000 97.301 -139.4737
3700.000000 97.270 -139.1886
3750.000000 97.243 -138.8852
3820.000000 97.208 -138.4320
3870.000000 97.184 -138.1046
3950.000000 97.147 -137.5782
4000.000000 97.125 -137.2546
4060.000000 97.103 -136.8821
4120.000000 97.080 -136.5111
4180.000000 97.055 -136.1381
4250.000000 97.021 -135.6740
4310.000000 96.989 -135.2017
4370.000000 96.966 -134.6444
4440.000000 96.971 -134.0617
4500.000000 96.989 -133.7979
4550.000000 96.994 -133.7259
4620.000000 96.977 -133.7003
4680.000000 96.946 -133.6692
4750.000000 96.898 -133.5941
4820.000000 96.843 -133.4937
4870.000000 96.799 -133.4202
4940.000000 96.732 -133.3459
5000.000000 96.669 -133.3059
5080.000000 96.576 -133.2463
5150.000000 96.479 -133.1877
5220.000000 96.369 -133.1117
5300.000000 96.232 -132.9772
5380.000000 96.082 -132.7601
5450.000000 95.944 -132.4831
5520.000000 95.802 -132.1230
5600.000000 95.635 -131.6097
5700.000000 95.423 -130.8122
5800.000000 95.213 -129.8541
5900.000000 95.009 -128.7503
6000.000000 94.815 -127.4942
6080.000000 94.672 -126.3868
6150.000000 94.556 -125.3520
6220.000000 94.452 -124.2605
6300.000000 94.345 -122.9559
6400.000000 94.232 -121.2568
6500.000000 94.146 -119.5049
6600.000000 94.087 -117.7095
6700.000000 94.059 -115.8936
6800.000000 94.068 -114.0963
6900.000000 94.130 -112.3587
7000.000000 94.246 -110.7153
7100.000000 94.400 -109.2034
7200.000000 94.591 -107.8808
7300.000000 94.814 -106.8441
7400.000000 95.061 -106.1673
7500.000000 95.325 -105.8919
7620.000000 95.663 -106.1506
7750.000000 96.023 -107.2138
7880.000000 96.255 -109.1337
8000.000000 96.333 -111.6122
8120.000000 96.268 -114.5774
8250.000000 96.012 -117.9849
8380.000000 95.556 -121.1237
8500.000000 94.978 -123.3840
8620.000000 94.284 -124.7837
8750.000000 93.449 -125.2214
8850.000000 92.784 -124.8245
9000.000000 91.797 -123.1803
9120.000000 91.042 -121.0892
9250.000000 90.279 -118.2010
9380.000000 89.585 -114.8271
9500.000000 89.006 -111.3747
9620.000000 88.487 -107.6630
9750.000000 87.991 -103.4168
9880.000000 87.563 -98.9904
10000.000000 87.225 -94.7812
10150.000000 86.873 -89.3965
10300.000000 86.595 -83.9168
10440.000000 86.399 -78.7426
10600.000000 86.250 -72.7832
10750.000000 86.183 -67.1956
10900.000000 86.192 -61.6595
11060.000000 86.287 -55.8316
11200.000000 86.441 -50.8028
11380.000000 86.745 -44.4720
11500.000000 87.022 -40.3836
11720.000000 87.699 -33.2993
11800.000000 88.006 -30.9105
12060.000000 89.255 -24.2129
12200.000000 90.097 -21.6027
12410.000000 91.579 -19.8527
12500.000000 92.269 -20.2439
12650.000000 93.406 -22.9844
12800.000000 94.372 -28.8036
13150.000000 94.909 -51.1693
13200.000000 94.738 -54.4043
13400.000000 93.556 -64.7033
13600.000000 91.915 -69.8776
13800.000000 90.234 -70.8183
14000.000000 88.745 -69.0882
14300.000000 86.978 -63.8490
14500.000000 86.074 -59.4923
14750.000000 85.196 -53.7197
15000.000000 84.543 -48.0793
15250.000000 84.067 -42.9588
15500.000000 83.754 -38.5566
15750.000000 83.562 -34.9687
16000.000000 83.405 -32.2853
16250.000000 83.236 -30.6956
16500.000000 83.014 -30.8257
16750.000000 82.544 -33.8824
17000.000000 81.149 -35.1213
17250.000000 79.148 -21.9797
17500.000000 78.863 -9.5035
17750.000000 78.997 -5.2652
18000.000000 78.809 -2.4087
18250.000000 78.487 0.8052
18500.000000 78.138 4.1668
18750.000000 77.766 7.3655
19000.000000 77.337 10.2161
19250.000000 76.783 12.7397
19500.000000 76.041 15.2046
19750.000000 75.107 18.0746
20000.000000 73.947 21.9533
20300.000000 72.319 28.6600
20600.000000 70.683 38.0494
20900.000000 69.210 50.0841
21200.000000 68.061 64.2846
21400.000000 67.550 74.4546
21800.000000 67.229 93.8871
22000.000000 67.342 98.3423
22400.000000 67.135 -38.9662
22700.000000 64.915 -1.0897
23000.000000 59.762 -6.8647
23300.000000 52.246 49.6875
23600.000000 44.943 96.2871
24000.000000 42.945 -178.6289
