* Measurement data measured by REW V5.20.13
* Source: Microphone (Realtek(R) Audio), MICROPHONE (Master Volume), L, volume: 0.710. Timing signal peak level -38.0 dBFS, measurement signal peak level -37.8 dBFS
* Format: 2M Log Swept Sine, 1 sweep at -12.0 dBFS using an acoustic timing reference
* Dated: Sep 21, 2023 6:47:05 AM
* REW Settings:
*  C-weighting compensation: Off
*  Target level: 75.0 dB
* Note: ; Delay -0.0535 ms (-18 mm, -0.72 in) using estimated IR delay relative to Acoustic reference played from HEADPHONE L with no timing offset Clock adjustment: 120.1 ppm
* Measurement: Moondrop Chu L
* Smoothing: 1/24 octave
* Frequency Step: 1/48 octave
* Start Frequency: 1.000 Hz
*
* Freq(Hz) SPL(dB) Phase(degrees)
1.000000 59.024 147.7816
1.015000 58.903 149.4948
1.030000 58.825 151.0764
1.044000 58.796 152.4245
1.060000 58.821 153.8021
1.075000 58.907 154.9246
1.090000 59.058 155.8725
1.106000 59.299 156.6758
1.120000 59.574 157.1820
1.138000 60.007 157.5759
1.150000 60.342 157.6893
1.172000 61.043 157.6152
1.180000 61.323 157.5052
1.206000 62.312 156.8767
1.220000 62.888 156.3863
1.241000 63.797 155.4835
1.250000 64.200 155.0437
1.265000 64.886 154.2520
1.280000 65.584 153.3994
1.315000 67.236 151.2557
1.320000 67.471 150.9398
1.340000 68.404 149.6734
1.360000 69.313 148.4289
1.380000 70.187 147.2408
1.400000 71.012 146.1437
1.430000 72.132 144.7448
1.450000 72.783 144.0270
1.475000 73.474 143.4097
1.500000 74.086 142.9385
1.525000 74.640 142.5560
1.550000 75.142 142.2488
1.575000 75.596 142.0032
1.600000 76.009 141.8056
1.625000 76.385 141.6425
1.650000 76.729 141.5003
1.675000 77.048 141.3654
1.700000 77.346 141.2242
1.725000 77.629 141.0632
1.750000 77.902 140.8687
1.775000 78.171 140.6273
1.800000 78.440 140.3253
1.825000 78.715 139.9491
1.850000 78.992 139.4959
1.875000 79.247 138.9886
1.900000 79.483 138.4350
1.925000 79.701 137.8419
1.950000 79.903 137.2163
1.975000 80.092 136.5651
2.000000 80.269 135.8952
2.030000 80.469 135.0764
2.060000 80.660 134.2527
2.090000 80.844 133.4360
2.120000 81.026 132.6382
2.140000 81.148 132.1228
2.180000 81.396 131.1474
2.200000 81.525 130.6943
2.240000 81.780 129.8289
2.270000 81.963 129.2023
2.300000 82.142 128.5925
2.330000 82.315 127.9972
2.360000 82.484 127.4141
2.400000 82.704 126.6519
2.430000 82.866 126.0887
2.470000 83.079 125.3447
2.500000 83.237 124.7891
2.540000 83.447 124.0472
2.580000 83.657 123.3018
2.620000 83.866 122.5714
2.650000 84.020 122.0339
2.690000 84.224 121.3269
2.720000 84.374 120.8012
2.760000 84.572 120.1020
2.800000 84.765 119.4003
2.850000 85.002 118.5117
2.900000 85.231 117.6012
2.950000 85.453 116.6574
3.000000 85.668 115.6674
3.040000 85.834 114.8512
3.070000 85.956 114.2310
3.110000 86.116 113.4009
3.150000 86.272 112.5759
3.200000 86.462 111.5659
3.250000 86.647 110.5966
3.300000 86.829 109.6864
3.350000 87.005 108.8442
3.400000 87.176 108.0561
3.450000 87.343 107.3053
3.500000 87.504 106.5748
3.550000 87.661 105.8479
3.600000 87.815 105.1074
3.650000 87.964 104.3367
3.700000 88.110 103.5231
3.750000 88.252 102.6761
3.820000 88.442 101.4604
3.870000 88.574 100.5898
3.950000 88.778 99.2309
4.000000 88.902 98.4247
4.060000 89.046 97.5209
4.120000 89.186 96.6775
4.180000 89.321 95.8768
4.250000 89.473 94.9742
4.310000 89.599 94.2084
4.370000 89.722 93.4322
4.440000 89.863 92.4980
4.500000 89.980 91.6846
4.550000 90.075 91.0047
4.620000 90.204 90.0594
4.680000 90.312 89.2640
4.750000 90.435 88.3647
4.820000 90.555 87.5042
4.870000 90.639 86.9091
4.940000 90.753 86.0961
5.000000 90.849 85.4117
5.080000 90.973 84.5066
5.150000 91.079 83.7125
5.220000 91.183 82.9202
5.300000 91.297 82.0222
5.380000 91.408 81.1346
5.450000 91.502 80.3687
5.520000 91.594 79.6145
5.600000 91.696 78.7654
5.700000 91.818 77.7221
5.800000 91.936 76.6987
5.900000 92.049 75.6953
6.000000 92.157 74.7129
6.080000 92.240 73.9412
6.150000 92.311 73.2750
6.220000 92.380 72.6166
6.300000 92.456 71.8719
6.400000 92.547 70.9541
6.500000 92.634 70.0561
6.600000 92.719 69.1837
6.700000 92.801 68.3402
6.800000 92.879 67.5214
6.900000 92.956 66.7213
7.000000 93.031 65.9351
7.100000 93.104 65.1654
7.200000 93.176 64.4121
7.300000 93.247 63.6740
7.400000 93.317 62.9523
7.500000 93.386 62.2487
7.620000 93.468 61.4187
7.750000 93.556 60.5264
7.880000 93.642 59.6455
8.000000 93.720 58.8396
8.120000 93.796 58.0365
8.250000 93.878 57.1718
8.380000 93.956 56.3112
8.500000 94.026 55.5183
8.620000 94.093 54.7268
8.750000 94.162 53.8756
8.850000 94.212 53.2269
9.000000 94.282 52.2604
9.120000 94.336 51.5005
9.250000 94.391 50.6970
9.380000 94.443 49.9108
9.500000 94.488 49.2007
9.620000 94.528 48.5062
9.750000 94.568 47.7712
9.880000 94.601 47.0531
10.000000 94.623 46.4040
10.150000 94.641 45.6128
10.300000 94.653 44.8495
10.440000 94.656 44.1646
10.600000 94.656 43.4057
10.750000 94.657 42.7144
10.900000 94.657 42.0410
11.060000 94.659 41.3258
11.200000 94.661 40.7023
11.380000 94.663 39.9158
11.500000 94.663 39.4029
11.720000 94.664 38.4852
11.800000 94.665 38.1603
12.060000 94.669 37.1294
12.200000 94.674 36.5803
12.410000 94.683 35.7656
12.500000 94.687 35.4187
12.650000 94.693 34.8441
12.800000 94.698 34.2731
13.150000 94.705 32.9521
13.200000 94.705 32.7662
13.400000 94.705 32.0269
13.600000 94.703 31.3114
13.800000 94.699 30.6252
14.000000 94.693 29.9750
14.300000 94.684 29.0688
14.500000 94.680 28.5121
14.750000 94.681 27.8470
15.000000 94.690 27.2020
15.250000 94.707 26.5391
15.500000 94.728 25.8503
15.750000 94.750 25.1342
16.000000 94.765 24.3995
16.250000 94.775 23.6676
16.500000 94.779 22.9524
16.750000 94.781 22.2746
17.000000 94.783 21.6357
17.250000 94.787 21.0273
17.500000 94.795 20.4364
17.750000 94.804 19.8410
18.000000 94.813 19.2361
18.250000 94.819 18.6165
18.500000 94.819 18.0012
18.750000 94.814 17.4085
19.000000 94.805 16.8552
19.250000 94.795 16.3564
19.500000 94.787 15.9057
19.750000 94.783 15.4967
20.000000 94.785 15.1040
20.299999 94.793 14.6252
20.600000 94.804 14.1186
20.900000 94.813 13.5805
21.200001 94.816 13.0286
21.400000 94.814 12.6690
21.799999 94.805 11.9861
22.000000 94.800 11.6642
22.400000 94.792 11.0421
22.700001 94.789 10.5696
23.000000 94.785 10.0753
23.299999 94.775 9.5658
23.600000 94.760 9.0625
24.000000 94.731 8.4424
24.299999 94.709 8.0359
24.700001 94.684 7.5603
25.000000 94.673 7.2198
25.400000 94.667 6.7369
25.799999 94.662 6.1930
26.200001 94.650 5.6096
26.500000 94.636 5.1778
26.900000 94.612 4.6432
27.200001 94.594 4.2790
27.600000 94.574 3.8259
28.000000 94.559 3.3780
28.500000 94.544 2.7957
29.000000 94.527 2.1970
29.500000 94.508 1.6015
30.000000 94.486 1.0054
30.400000 94.464 0.5222
30.700001 94.443 0.1628
31.100000 94.409 -0.2899
31.500000 94.374 -0.6920
32.000000 94.334 -1.1257
32.500000 94.303 -1.5381
33.000000 94.277 -1.9866
33.500000 94.245 -2.4576
34.000000 94.208 -2.8875
34.500000 94.176 -3.2561
35.000000 94.155 -3.6200
35.500000 94.137 -4.0477
36.000000 94.110 -4.5271
36.500000 94.069 -4.9784
37.000000 94.023 -5.3399
37.500000 93.984 -5.6323
38.200001 93.942 -6.0500
38.700001 93.914 -6.3922
39.500000 93.859 -6.9360
40.000000 93.825 -7.2365
40.599998 93.791 -7.5780
41.200001 93.764 -7.9494
41.799999 93.735 -8.3693
42.500000 93.693 -8.8670
43.099998 93.651 -9.2318
43.700001 93.614 -9.5349
44.400002 93.576 -9.8699
45.000000 93.544 -10.1638
45.500000 93.516 -10.4011
46.200001 93.474 -10.7231
46.799999 93.436 -11.0049
47.500000 93.387 -11.3158
48.200001 93.340 -11.5844
48.700001 93.311 -11.7829
49.400002 93.273 -12.1185
50.000000 93.236 -12.4344
50.799999 93.183 -12.8304
51.500000 93.139 -13.1483
52.200001 93.096 -13.4284
53.000000 93.053 -13.7032
53.799999 93.014 -13.9932
54.500000 92.972 -14.2369
55.200001 92.927 -14.4316
56.000000 92.874 -14.6509
57.000000 92.798 -14.9456
58.000000 92.712 -15.3242
59.000000 92.582 -15.6194
60.000000 92.490 -15.4003
60.799999 92.505 -15.4101
61.500000 92.520 -15.8392
62.200001 92.495 -16.3763
63.000000 92.440 -16.7971
64.000000 92.381 -17.0638
65.000000 92.337 -17.2442
66.000000 92.289 -17.4206
67.000000 92.231 -17.5184
68.000000 92.180 -17.6115
69.000000 92.123 -17.8021
70.000000 92.056 -18.0016
71.000000 91.995 -18.1907
72.000000 91.939 -18.3970
73.000000 91.884 -18.5927
74.000000 91.832 -18.7478
75.000000 91.783 -18.8924
76.199997 91.718 -19.0377
77.500000 91.648 -19.1551
78.800003 91.579 -19.2793
80.000000 91.520 -19.4326
81.199997 91.460 -19.6380
82.500000 91.386 -19.8314
83.800003 91.313 -19.9039
85.000000 91.259 -19.9106
86.199997 91.213 -19.9527
87.500000 91.154 -20.0191
88.500000 91.105 -20.0276
90.000000 91.042 -20.0292
91.199997 90.993 -20.0930
92.500000 90.937 -20.1588
93.800003 90.884 -20.2076
95.000000 90.837 -20.2421
96.199997 90.795 -20.2688
97.500000 90.749 -20.3459
98.800003 90.690 -20.4234
100.000000 90.629 -20.4405
101.500000 90.555 -20.3810
103.000000 90.495 -20.3384
104.400002 90.441 -20.3739
106.000000 90.370 -20.4280
107.500000 90.297 -20.4755
109.000000 90.220 -20.4641
110.599998 90.155 -20.3838
112.000000 90.120 -20.3483
113.800003 90.069 -20.3427
115.000000 90.022 -20.2277
117.199997 89.918 -19.8239
118.000000 89.872 -19.6464
120.599998 89.770 -19.1768
122.000000 89.746 -19.3788
124.099998 89.695 -19.7914
125.000000 89.680 -19.8958
126.500000 89.655 -19.9816
128.000000 89.615 -19.9065
131.500000 89.508 -19.5222
132.000000 89.493 -19.5046
134.000000 89.436 -19.4821
136.000000 89.392 -19.4133
138.000000 89.351 -19.2641
140.000000 89.294 -19.0303
143.000000 89.192 -18.6951
145.000000 89.131 -18.5576
147.500000 89.073 -18.4648
150.000000 89.021 -18.3615
152.500000 88.969 -18.1696
155.000000 88.927 -17.8864
157.500000 88.896 -17.6449
160.000000 88.846 -17.5319
162.500000 88.766 -17.4045
165.000000 88.697 -17.2230
167.500000 88.648 -17.0394
170.000000 88.608 -16.8110
172.500000 88.558 -16.5534
175.000000 88.501 -16.2914
177.500000 88.444 -16.0660
180.000000 88.394 -15.8185
182.500000 88.358 -15.5917
185.000000 88.321 -15.4045
187.500000 88.284 -15.1915
190.000000 88.243 -14.9982
192.500000 88.191 -14.7604
195.000000 88.146 -14.4796
197.500000 88.111 -14.2399
200.000000 88.077 -14.0176
203.000000 88.032 -13.7232
206.000000 87.986 -13.4737
209.000000 87.946 -13.2441
212.000000 87.914 -12.9190
214.000000 87.892 -12.6975
218.000000 87.833 -12.3355
220.000000 87.806 -12.1765
224.000000 87.765 -11.8227
227.000000 87.740 -11.5102
230.000000 87.708 -11.2136
233.000000 87.668 -10.9982
236.000000 87.635 -10.8848
240.000000 87.599 -10.6960
243.000000 87.557 -10.3116
247.000000 87.500 -9.7052
250.000000 87.467 -9.3532
254.000000 87.436 -9.0186
258.000000 87.416 -8.6707
262.000000 87.396 -8.2472
265.000000 87.365 -7.9565
269.000000 87.317 -7.6383
272.000000 87.288 -7.3920
276.000000 87.258 -7.0206
280.000000 87.227 -6.6762
285.000000 87.188 -6.2497
290.000000 87.164 -5.8980
295.000000 87.149 -5.5494
300.000000 87.127 -5.0960
304.000000 87.110 -4.6934
307.000000 87.094 -4.3940
311.000000 87.071 -4.0501
315.000000 87.052 -3.7468
320.000000 87.029 -3.3386
325.000000 87.007 -2.9225
330.000000 86.983 -2.4620
335.000000 86.957 -1.9864
340.000000 86.947 -1.5309
345.000000 86.935 -1.0825
350.000000 86.924 -0.6611
355.000000 86.918 -0.2659
360.000000 86.904 0.1487
365.000000 86.869 0.5499
370.000000 86.845 0.9111
375.000000 86.830 1.2633
382.000000 86.805 1.8341
387.000000 86.794 2.2502
395.000000 86.782 2.8249
400.000000 86.780 3.2490
406.000000 86.767 3.7092
412.000000 86.753 4.1113
418.000000 86.754 4.5482
425.000000 86.739 5.0366
431.000000 86.719 5.5026
437.000000 86.699 5.9262
444.000000 86.667 6.4420
450.000000 86.652 6.9152
455.000000 86.644 7.2766
462.000000 86.627 7.8017
468.000000 86.614 8.3031
475.000000 86.602 8.8781
482.000000 86.596 9.4267
487.000000 86.589 9.7571
494.000000 86.577 10.1813
500.000000 86.569 10.5786
508.000000 86.569 11.1856
515.000000 86.567 11.7485
522.000000 86.556 12.3062
530.000000 86.545 12.8610
538.000000 86.542 13.3528
545.000000 86.546 13.8598
552.000000 86.547 14.3905
560.000000 86.550 14.9031
570.000000 86.553 15.5745
580.000000 86.558 16.3031
590.000000 86.552 16.9954
600.000000 86.545 17.6497
608.000000 86.551 18.2330
615.000000 86.559 18.7753
622.000000 86.567 19.3048
630.000000 86.571 19.9200
640.000000 86.582 20.6832
650.000000 86.586 21.3850
660.000000 86.584 22.1026
670.000000 86.605 22.8299
680.000000 86.617 23.5153
690.000000 86.622 24.2390
700.000000 86.643 24.9497
710.000000 86.662 25.6747
720.000000 86.670 26.4660
730.000000 86.687 27.2046
740.000000 86.713 27.8733
750.000000 86.747 28.5439
762.000000 86.789 29.3703
775.000000 86.832 30.3230
788.000000 86.860 31.2707
800.000000 86.888 32.0691
812.000000 86.929 32.9141
825.000000 86.977 33.8991
838.000000 87.026 34.8692
850.000000 87.077 35.6644
862.000000 87.126 36.4975
875.000000 87.178 37.4835
885.000000 87.221 38.2077
900.000000 87.289 39.3256
912.000000 87.375 40.3236
925.000000 87.523 41.3475
938.000000 87.687 41.8722
950.000000 87.774 41.9871
962.000000 87.810 42.2822
975.000000 87.857 42.8984
988.000000 87.922 43.5973
1000.000000 87.994 44.2480
1015.000000 88.102 44.9620
1030.000000 88.216 45.5170
1044.000000 88.312 45.9921
1060.000000 88.407 46.5464
1075.000000 88.488 47.0675
1090.000000 88.577 47.5479
1106.000000 88.684 48.0307
1120.000000 88.780 48.4597
1138.000000 88.903 48.9711
1150.000000 88.979 49.2707
1172.000000 89.118 49.8009
1180.000000 89.170 49.9932
1206.000000 89.327 50.5983
1220.000000 89.410 50.9112
1241.000000 89.538 51.3683
1250.000000 89.591 51.5775
1265.000000 89.679 51.9268
1280.000000 89.764 52.2438
1315.000000 89.970 53.0160
1320.000000 89.999 53.1186
1340.000000 90.107 53.4979
1360.000000 90.201 53.8549
1380.000000 90.292 54.1897
1400.000000 90.386 54.5376
1430.000000 90.525 55.0637
1450.000000 90.615 55.4070
1475.000000 90.718 55.8548
1500.000000 90.823 56.3334
1525.000000 90.924 56.8743
1550.000000 91.030 57.4638
1575.000000 91.138 58.0299
1600.000000 91.249 58.5461
1625.000000 91.370 59.0273
1650.000000 91.499 59.5006
1675.000000 91.617 59.9403
1700.000000 91.723 60.3165
1725.000000 91.825 60.6905
1750.000000 91.933 61.0483
1775.000000 92.041 61.4020
1800.000000 92.146 61.7752
1825.000000 92.249 62.1275
1850.000000 92.352 62.4650
1875.000000 92.453 62.7625
1900.000000 92.550 63.0413
1925.000000 92.649 63.3143
1950.000000 92.743 63.5907
1975.000000 92.837 63.8689
2000.000000 92.932 64.1541
2030.000000 93.048 64.5094
2060.000000 93.158 64.8320
2090.000000 93.265 65.1435
2120.000000 93.376 65.4975
2140.000000 93.455 65.7476
2180.000000 93.626 66.2425
2200.000000 93.718 66.4511
2240.000000 93.909 66.7391
2270.000000 94.055 66.8597
2300.000000 94.194 66.8757
2330.000000 94.318 66.7954
2360.000000 94.429 66.6699
2400.000000 94.565 66.5264
2430.000000 94.659 66.4352
2470.000000 94.780 66.3055
2500.000000 94.873 66.1919
2540.000000 94.997 66.0021
2580.000000 95.114 65.7316
2620.000000 95.222 65.3859
2650.000000 95.294 65.0838
2690.000000 95.374 64.6483
2720.000000 95.425 64.3251
2760.000000 95.479 63.9126
2800.000000 95.519 63.5051
2850.000000 95.550 63.0378
2900.000000 95.564 62.6569
2950.000000 95.565 62.3282
3000.000000 95.555 62.0472
3040.000000 95.541 61.9029
3070.000000 95.528 61.8455
3110.000000 95.507 61.8349
3150.000000 95.489 61.8808
3200.000000 95.474 62.0157
3250.000000 95.471 62.2069
3300.000000 95.482 62.3636
3350.000000 95.499 62.4216
3400.000000 95.516 62.3818
3450.000000 95.528 62.2611
3500.000000 95.527 62.1030
3550.000000 95.511 61.9584
3600.000000 95.482 61.8700
3650.000000 95.445 61.8709
3700.000000 95.403 61.9411
3750.000000 95.358 62.0713
3820.000000 95.292 62.3655
3870.000000 95.243 62.6103
3950.000000 95.162 63.0573
4000.000000 95.110 63.3595
4060.000000 95.050 63.7568
4120.000000 94.993 64.1911
4180.000000 94.939 64.6527
4250.000000 94.881 65.2200
4310.000000 94.830 65.7403
4370.000000 94.770 66.2793
4440.000000 94.697 66.9097
4500.000000 94.636 67.4686
4550.000000 94.587 67.9413
4620.000000 94.520 68.6103
4680.000000 94.462 69.1801
4750.000000 94.399 69.8509
4820.000000 94.338 70.5564
4870.000000 94.295 71.0493
4940.000000 94.239 71.7308
5000.000000 94.194 72.3263
5080.000000 94.137 73.1085
5150.000000 94.088 73.7926
5220.000000 94.039 74.4630
5300.000000 93.987 75.1927
5380.000000 93.933 75.9110
5450.000000 93.888 76.5497
5520.000000 93.844 77.1877
5600.000000 93.792 77.9046
5700.000000 93.726 78.8103
5800.000000 93.659 79.7773
5900.000000 93.599 80.8473
6000.000000 93.567 81.9783
6080.000000 93.563 82.8302
6150.000000 93.563 83.4980
6220.000000 93.563 84.1277
6300.000000 93.561 84.8415
6400.000000 93.566 85.7454
6500.000000 93.582 86.6486
6600.000000 93.613 87.5310
6700.000000 93.662 88.3529
6800.000000 93.741 89.1038
6900.000000 93.862 89.7633
7000.000000 94.024 90.2757
7100.000000 94.212 90.6246
7200.000000 94.422 90.7699
7300.000000 94.652 90.6464
7400.000000 94.895 90.2177
7500.000000 95.149 89.4142
7620.000000 95.477 87.8713
7750.000000 95.842 85.3351
7880.000000 96.103 81.6500
8000.000000 96.212 76.9958
8120.000000 96.129 71.1137
8250.000000 95.707 63.8972
8380.000000 94.874 57.0225
8500.000000 93.772 52.1339
8620.000000 92.451 49.2666
8750.000000 90.910 48.5191
8850.000000 89.722 49.3562
9000.000000 88.024 52.3552
9120.000000 86.767 55.9566
9250.000000 85.512 60.7952
9380.000000 84.363 66.4107
9500.000000 83.394 72.2212
9620.000000 82.509 78.6199
9750.000000 81.660 86.1430
9880.000000 80.954 94.3269
10000.000000 80.448 102.4145
10150.000000 80.062 112.7627
10300.000000 80.003 122.8375
10440.000000 80.216 131.3634
10600.000000 80.658 139.3740
10750.000000 81.108 144.8309
10900.000000 81.464 148.6115
11060.000000 81.660 151.7077
11200.000000 81.676 154.1819
11380.000000 81.550 157.6884
11500.000000 81.414 160.4510
11720.000000 81.116 166.4312
11800.000000 81.013 168.8279
12060.000000 80.789 177.2139
12200.000000 80.736 -178.0139
12410.000000 80.744 -170.6287
12500.000000 80.784 -167.4336
12650.000000 80.908 -162.1733
12800.000000 81.105 -156.9934
13150.000000 81.892 -145.3093
13200.000000 82.048 -143.7249
13400.000000 82.786 -137.7490
13600.000000 83.731 -132.4666
13800.000000 84.915 -128.2211
14000.000000 86.357 -125.6091
14300.000000 88.878 -126.6528
14500.000000 90.545 -132.3524
14750.000000 92.004 -146.3670
15000.000000 92.219 -164.4670
15250.000000 91.248 -179.4463
15500.000000 89.733 171.7077
15750.000000 88.246 167.2871
16000.000000 86.917 164.8963
16250.000000 85.655 163.1891
16500.000000 84.320 162.0883
16750.000000 82.820 161.9834
17000.000000 81.147 163.3553
17250.000000 79.374 165.3527
17500.000000 77.729 150.6838
17750.000000 76.674 7.5356
18000.000000 76.182 -140.9656
18250.000000 75.016 150.9165
18500.000000 72.782 13.6646
18750.000000 70.262 -157.7024
19000.000000 68.200 -126.2913
19250.000000 66.551 -52.9077
19500.000000 65.815 179.9360
19750.000000 66.823 -125.6016
20000.000000 67.859 -34.4883
20300.000000 66.596 95.4160
20600.000000 63.250 -126.3301
20900.000000 60.911 168.1230
21200.000000 59.740 26.5127
21400.000000 59.024 58.6025
21800.000000 58.499 -76.0996
22000.000000 60.309 -165.4268
22400.000000 67.377 -40.8574
22700.000000 70.768 122.8711
23000.000000 71.714 171.7539
23300.000000 71.329 107.4219
23600.000000 70.939 -127.4375
24000.000000 71.156 70.7188
