* Measurement data measured by REW V5.20.13
* Source: Microphone (Realtek(R) Audio), MICROPHONE (Master Volume), L, volume: 0.710. Timing signal peak level -37.0 dBFS, measurement signal peak level -37.1 dBFS
* Format: 2M Log Swept Sine, 1 sweep at -12.0 dBFS using an acoustic timing reference
* Dated: Sep 21, 2023 7:21:24 AM
* REW Settings:
*  C-weighting compensation: Off
*  Target level: 75.0 dB
* Note: ; Delay -0.0522 ms (-18 mm, -0.7 in) using estimated IR delay relative to Acoustic reference played from HEADPHONE R with no timing offset Clock adjustment: 120.5 ppm
* Measurement: Moondrop Chu W1 R
* Smoothing: 1/24 octave
* Frequency Step: 1/48 octave
* Start Frequency: 1.000 Hz
*
* Freq(Hz) SPL(dB) Phase(degrees)
1.000000 57.209 -170.8661
1.015000 57.045 -172.6301
1.030000 56.929 -174.3417
1.044000 56.870 -175.8855
1.060000 56.867 -177.5787
1.075000 56.933 -179.0897
1.090000 57.070 179.4807
1.106000 57.304 178.0486
1.120000 57.582 176.8486
1.138000 58.036 175.3679
1.150000 58.392 174.4178
1.172000 59.148 172.7487
1.180000 59.453 172.1640
1.206000 60.537 170.3402
1.220000 61.171 169.4036
1.241000 62.178 168.0535
1.250000 62.625 167.4937
1.265000 63.388 166.5840
1.280000 64.166 165.7014
1.315000 66.008 163.7355
1.320000 66.270 163.4641
1.340000 67.312 162.3988
1.360000 68.326 161.3620
1.380000 69.299 160.3486
1.400000 70.217 159.3531
1.430000 71.457 157.8822
1.450000 72.171 156.9087
1.475000 72.922 155.6967
1.500000 73.582 154.5368
1.525000 74.175 153.4370
1.550000 74.707 152.3926
1.575000 75.185 151.3987
1.600000 75.615 150.4506
1.625000 76.004 149.5435
1.650000 76.357 148.6725
1.675000 76.681 147.8329
1.700000 76.983 147.0200
1.725000 77.269 146.2289
1.750000 77.545 145.4549
1.775000 77.818 144.6931
1.800000 78.093 143.9388
1.825000 78.378 143.1872
1.850000 78.666 142.4446
1.875000 78.932 141.7336
1.900000 79.178 141.0522
1.925000 79.406 140.3974
1.950000 79.617 139.7661
1.975000 79.814 139.1553
2.000000 80.000 138.5620
2.030000 80.209 137.8688
2.060000 80.408 137.1910
2.090000 80.600 136.5235
2.120000 80.789 135.8609
2.140000 80.915 135.4193
2.180000 81.173 134.5295
2.200000 81.306 134.0782
2.240000 81.568 133.1825
2.270000 81.757 132.5226
2.300000 81.940 131.8719
2.330000 82.117 131.2293
2.360000 82.289 130.5940
2.400000 82.513 129.7563
2.430000 82.678 129.1340
2.470000 82.894 128.3102
2.500000 83.054 127.6957
2.540000 83.267 126.8787
2.580000 83.480 126.0630
2.620000 83.691 125.2515
2.650000 83.847 124.6465
2.690000 84.052 123.8452
2.720000 84.204 123.2484
2.760000 84.403 122.4586
2.800000 84.597 121.6761
2.850000 84.835 120.7091
2.900000 85.067 119.7551
2.950000 85.291 118.8156
3.000000 85.507 117.8930
3.040000 85.675 117.1660
3.070000 85.799 116.6263
3.110000 85.960 115.9129
3.150000 86.117 115.2053
3.200000 86.309 114.3268
3.250000 86.497 113.4525
3.300000 86.681 112.5795
3.350000 86.861 111.7070
3.400000 87.035 110.8373
3.450000 87.204 109.9724
3.500000 87.369 109.1143
3.550000 87.530 108.2653
3.600000 87.687 107.4274
3.650000 87.841 106.6025
3.700000 87.991 105.7925
3.750000 88.136 104.9962
3.820000 88.333 103.9009
3.870000 88.470 103.1301
3.950000 88.681 101.9118
4.000000 88.810 101.1569
4.060000 88.960 100.2552
4.120000 89.106 99.3600
4.180000 89.247 98.4731
4.250000 89.405 97.4507
4.310000 89.538 96.5866
4.370000 89.667 95.7353
4.440000 89.814 94.7603
4.500000 89.936 93.9402
4.550000 90.036 93.2665
4.620000 90.171 92.3355
4.680000 90.284 91.5465
4.750000 90.412 90.6336
4.820000 90.537 89.7280
4.870000 90.624 89.0871
4.940000 90.743 88.1987
5.000000 90.842 87.4456
5.080000 90.970 86.4540
5.150000 91.079 85.5984
5.220000 91.185 84.7543
5.300000 91.302 83.8032
5.380000 91.415 82.8659
5.450000 91.511 82.0566
5.520000 91.604 81.2570
5.600000 91.707 80.3559
5.700000 91.831 79.2483
5.800000 91.949 78.1607
5.900000 92.064 77.0925
6.000000 92.173 76.0439
6.080000 92.258 75.2194
6.150000 92.329 74.5084
6.220000 92.399 73.8072
6.300000 92.477 73.0183
6.400000 92.571 72.0507
6.500000 92.661 71.1023
6.600000 92.748 70.1716
6.700000 92.832 69.2595
6.800000 92.914 68.3658
6.900000 92.993 67.4889
7.000000 93.071 66.6276
7.100000 93.146 65.7838
7.200000 93.219 64.9556
7.300000 93.291 64.1403
7.400000 93.361 63.3367
7.500000 93.429 62.5468
7.620000 93.509 61.6142
7.750000 93.593 60.6200
7.880000 93.674 59.6442
8.000000 93.746 58.7577
8.120000 93.816 57.8829
8.250000 93.890 56.9492
8.380000 93.962 56.0299
8.500000 94.025 55.1933
8.620000 94.085 54.3683
8.750000 94.148 53.4890
8.850000 94.194 52.8232
9.000000 94.260 51.8409
9.120000 94.311 51.0717
9.250000 94.364 50.2576
9.380000 94.416 49.4625
9.500000 94.461 48.7427
9.620000 94.503 48.0356
9.750000 94.545 47.2847
9.880000 94.580 46.5464
10.000000 94.605 45.8733
10.150000 94.627 45.0465
10.300000 94.641 44.2436
10.440000 94.646 43.5175
10.600000 94.648 42.7090
10.750000 94.649 41.9700
10.900000 94.649 41.2484
11.060000 94.648 40.4866
11.200000 94.648 39.8256
11.380000 94.645 39.0002
11.500000 94.642 38.4679
11.720000 94.636 37.5306
11.800000 94.634 37.2053
12.060000 94.630 36.1957
12.200000 94.632 35.6726
12.410000 94.639 34.9128
12.500000 94.644 34.5918
12.650000 94.652 34.0665
12.800000 94.663 33.5419
13.150000 94.691 32.2953
13.200000 94.695 32.1125
13.400000 94.712 31.3660
13.600000 94.726 30.6060
13.800000 94.737 29.8328
14.000000 94.740 29.0679
14.300000 94.734 27.9531
14.500000 94.722 27.2613
14.750000 94.705 26.4667
15.000000 94.688 25.7519
15.250000 94.681 25.0952
15.500000 94.681 24.4659
15.750000 94.690 23.8431
16.000000 94.702 23.1945
16.250000 94.712 22.5110
16.500000 94.718 21.7992
16.750000 94.717 21.0781
17.000000 94.710 20.3857
17.250000 94.697 19.7391
17.500000 94.682 19.1586
17.750000 94.671 18.6375
18.000000 94.665 18.1553
18.250000 94.667 17.6883
18.500000 94.675 17.1971
18.750000 94.687 16.6696
19.000000 94.699 16.0946
19.250000 94.706 15.4821
19.500000 94.706 14.8577
19.750000 94.697 14.2418
20.000000 94.682 13.6678
20.299999 94.660 13.0429
20.600000 94.639 12.4823
20.900000 94.624 11.9607
21.200001 94.613 11.4396
21.400000 94.607 11.0774
21.799999 94.590 10.3240
22.000000 94.578 9.9458
22.400000 94.542 9.2360
22.700001 94.512 8.7831
23.000000 94.486 8.4090
23.299999 94.471 8.0807
23.600000 94.468 7.7510
24.000000 94.478 7.2375
24.299999 94.487 6.7725
24.700001 94.488 6.0779
25.000000 94.478 5.5566
25.400000 94.455 4.9298
25.799999 94.433 4.3963
26.200001 94.423 3.8937
26.500000 94.420 3.4846
26.900000 94.415 2.8672
27.200001 94.401 2.3708
27.600000 94.367 1.7321
28.000000 94.320 1.1980
28.500000 94.263 0.7032
29.000000 94.227 0.2905
29.500000 94.205 -0.1694
30.000000 94.179 -0.7030
30.400000 94.150 -1.1362
30.700001 94.124 -1.4403
31.100000 94.088 -1.8091
31.500000 94.057 -2.1475
32.000000 94.025 -2.5601
32.500000 94.000 -2.9965
33.000000 93.976 -3.4832
33.500000 93.948 -4.0218
34.000000 93.910 -4.5713
34.500000 93.862 -5.0637
35.000000 93.813 -5.4612
35.500000 93.773 -5.7908
36.000000 93.743 -6.1169
36.500000 93.716 -6.4757
37.000000 93.686 -6.8539
37.500000 93.653 -7.2236
38.200001 93.606 -7.7206
38.700001 93.572 -8.0763
39.500000 93.514 -8.6423
40.000000 93.476 -8.9882
40.599998 93.430 -9.4040
41.200001 93.378 -9.8045
41.799999 93.324 -10.1478
42.500000 93.270 -10.4771
43.099998 93.235 -10.7672
43.700001 93.200 -11.1000
44.400002 93.153 -11.5005
45.000000 93.107 -11.8120
45.500000 93.069 -12.0481
46.200001 93.015 -12.3584
46.799999 92.968 -12.6094
47.500000 92.912 -12.8654
48.200001 92.863 -13.0624
48.700001 92.838 -13.1964
49.400002 92.815 -13.4727
50.000000 92.791 -13.8209
50.799999 92.736 -14.2950
51.500000 92.682 -14.5966
52.200001 92.637 -14.8610
53.000000 92.585 -15.2090
53.799999 92.518 -15.5039
54.500000 92.461 -15.6483
55.200001 92.419 -15.7732
56.000000 92.380 -16.0273
57.000000 92.316 -16.4418
58.000000 92.248 -16.8867
59.000000 92.154 -17.4377
60.000000 92.028 -17.5895
60.799999 91.982 -17.4487
61.500000 91.980 -17.4949
62.200001 91.971 -17.7352
63.000000 91.938 -18.0251
64.000000 91.883 -18.2661
65.000000 91.824 -18.3911
66.000000 91.772 -18.4537
67.000000 91.720 -18.5527
68.000000 91.660 -18.6674
69.000000 91.597 -18.7690
70.000000 91.537 -18.8928
71.000000 91.476 -19.0640
72.000000 91.408 -19.2111
73.000000 91.346 -19.2901
74.000000 91.297 -19.3646
75.000000 91.253 -19.4891
76.199997 91.194 -19.6815
77.500000 91.121 -19.8246
78.800003 91.051 -19.9449
80.000000 90.983 -20.0752
81.199997 90.911 -20.1725
82.500000 90.837 -20.2396
83.800003 90.772 -20.3066
85.000000 90.713 -20.3958
86.199997 90.652 -20.4474
87.500000 90.595 -20.4530
88.500000 90.559 -20.5079
90.000000 90.496 -20.6620
91.199997 90.439 -20.7285
92.500000 90.385 -20.7382
93.800003 90.334 -20.7412
95.000000 90.278 -20.7043
96.199997 90.216 -20.6014
97.500000 90.153 -20.4631
98.800003 90.094 -20.4108
100.000000 90.037 -20.4246
101.500000 89.971 -20.4799
103.000000 89.906 -20.5386
104.400002 89.849 -20.4966
106.000000 89.797 -20.4087
107.500000 89.748 -20.3594
109.000000 89.692 -20.3260
110.599998 89.634 -20.2595
112.000000 89.587 -20.1957
113.800003 89.516 -20.1185
115.000000 89.458 -20.0652
117.199997 89.329 -20.1299
118.000000 89.268 -20.1836
120.599998 89.119 -19.8081
122.000000 89.127 -19.6648
124.099998 89.137 -19.6521
125.000000 89.131 -19.6044
126.500000 89.107 -19.4840
128.000000 89.065 -19.3562
131.500000 88.939 -19.1742
132.000000 88.921 -19.1494
134.000000 88.859 -19.0201
136.000000 88.808 -18.8019
138.000000 88.768 -18.5934
140.000000 88.722 -18.4330
143.000000 88.648 -18.1992
145.000000 88.599 -18.0683
147.500000 88.531 -17.9066
150.000000 88.478 -17.6913
152.500000 88.434 -17.5391
155.000000 88.382 -17.3513
157.500000 88.328 -17.1401
160.000000 88.277 -16.8615
162.500000 88.241 -16.5514
165.000000 88.198 -16.3883
167.500000 88.131 -16.2310
170.000000 88.078 -15.9462
172.500000 88.044 -15.6545
175.000000 87.997 -15.4288
177.500000 87.932 -15.2528
180.000000 87.868 -15.0645
182.500000 87.829 -14.8230
185.000000 87.802 -14.5927
187.500000 87.767 -14.3124
190.000000 87.727 -13.9619
192.500000 87.688 -13.6425
195.000000 87.650 -13.4387
197.500000 87.615 -13.2839
200.000000 87.586 -13.0730
203.000000 87.549 -12.7348
206.000000 87.501 -12.4054
209.000000 87.447 -12.1190
212.000000 87.405 -11.8069
214.000000 87.384 -11.6239
218.000000 87.339 -11.3336
220.000000 87.317 -11.1859
224.000000 87.272 -10.8553
227.000000 87.242 -10.5629
230.000000 87.220 -10.2129
233.000000 87.195 -9.8755
236.000000 87.167 -9.6552
240.000000 87.137 -9.4662
243.000000 87.108 -9.1288
247.000000 87.067 -8.6340
250.000000 87.026 -8.3219
254.000000 86.980 -7.8373
258.000000 86.953 -7.4564
262.000000 86.914 -7.1153
265.000000 86.882 -6.8442
269.000000 86.844 -6.4411
272.000000 86.818 -6.1213
276.000000 86.789 -5.7677
280.000000 86.784 -5.5043
285.000000 86.785 -5.1252
290.000000 86.745 -4.6306
295.000000 86.699 -4.2357
300.000000 86.689 -3.8746
304.000000 86.677 -3.5165
307.000000 86.656 -3.2199
311.000000 86.625 -2.8175
315.000000 86.601 -2.3876
320.000000 86.590 -1.8732
325.000000 86.590 -1.4352
330.000000 86.571 -1.0525
335.000000 86.547 -0.6274
340.000000 86.535 -0.2116
345.000000 86.530 0.1799
350.000000 86.521 0.5475
355.000000 86.491 0.8877
360.000000 86.454 1.2612
365.000000 86.444 1.7610
370.000000 86.440 2.1954
375.000000 86.433 2.6018
382.000000 86.413 3.2142
387.000000 86.396 3.5983
395.000000 86.375 4.2237
400.000000 86.363 4.6373
406.000000 86.349 5.1609
412.000000 86.325 5.6775
418.000000 86.301 6.1744
425.000000 86.300 6.6982
431.000000 86.286 7.0806
437.000000 86.273 7.4833
444.000000 86.266 8.0271
450.000000 86.256 8.5485
455.000000 86.247 8.9473
462.000000 86.237 9.4606
468.000000 86.229 9.8624
475.000000 86.213 10.3928
482.000000 86.190 10.9471
487.000000 86.183 11.2889
494.000000 86.189 11.7354
500.000000 86.192 12.1339
508.000000 86.188 12.7370
515.000000 86.187 13.2741
522.000000 86.187 13.7706
530.000000 86.183 14.3165
538.000000 86.175 14.8625
545.000000 86.183 15.4163
552.000000 86.192 15.9257
560.000000 86.197 16.4914
570.000000 86.208 17.3115
580.000000 86.207 18.0096
590.000000 86.205 18.6816
600.000000 86.216 19.4640
608.000000 86.229 20.0627
615.000000 86.233 20.5570
622.000000 86.230 21.0234
630.000000 86.230 21.5750
640.000000 86.243 22.2521
650.000000 86.244 22.9310
660.000000 86.252 23.6716
670.000000 86.264 24.4473
680.000000 86.283 25.1932
690.000000 86.298 25.9130
700.000000 86.299 26.6049
710.000000 86.317 27.3124
720.000000 86.350 28.0097
730.000000 86.381 28.7462
740.000000 86.407 29.5101
750.000000 86.428 30.2693
762.000000 86.454 31.1617
775.000000 86.499 32.0801
788.000000 86.540 33.0205
800.000000 86.580 33.8806
812.000000 86.624 34.7139
825.000000 86.667 35.6780
838.000000 86.715 36.6403
850.000000 86.760 37.4731
862.000000 86.810 38.2914
875.000000 86.873 39.2072
885.000000 86.924 39.9002
900.000000 87.003 40.8912
912.000000 87.070 41.7320
925.000000 87.157 42.6385
938.000000 87.256 43.3121
950.000000 87.334 43.8466
962.000000 87.402 44.4397
975.000000 87.480 45.1247
988.000000 87.557 45.8031
1000.000000 87.632 46.3895
1015.000000 87.725 47.1422
1030.000000 87.820 47.8673
1044.000000 87.909 48.4305
1060.000000 88.007 49.0243
1075.000000 88.102 49.5881
1090.000000 88.202 50.1005
1106.000000 88.315 50.6167
1120.000000 88.411 51.0273
1138.000000 88.531 51.5092
1150.000000 88.606 51.7841
1172.000000 88.731 52.2477
1180.000000 88.772 52.4070
1206.000000 88.870 52.8163
1220.000000 88.881 53.0810
1241.000000 88.845 54.1507
1250.000000 88.848 55.0404
1265.000000 88.973 56.8790
1280.000000 89.246 58.2219
1315.000000 89.772 58.3721
1320.000000 89.815 58.3101
1340.000000 89.947 58.1869
1360.000000 90.032 58.2983
1380.000000 90.108 58.5381
1400.000000 90.200 58.8138
1430.000000 90.341 59.2830
1450.000000 90.438 59.6429
1475.000000 90.567 60.1041
1500.000000 90.693 60.5396
1525.000000 90.807 60.9893
1550.000000 90.916 61.4482
1575.000000 91.022 61.9116
1600.000000 91.127 62.3409
1625.000000 91.235 62.7683
1650.000000 91.339 63.2178
1675.000000 91.440 63.6688
1700.000000 91.543 64.1373
1725.000000 91.650 64.6055
1750.000000 91.756 65.0495
1775.000000 91.864 65.4699
1800.000000 91.966 65.8808
1825.000000 92.067 66.2890
1850.000000 92.173 66.6732
1875.000000 92.276 67.0326
1900.000000 92.374 67.3768
1925.000000 92.471 67.7305
1950.000000 92.562 68.0774
1975.000000 92.651 68.4113
2000.000000 92.743 68.7595
2030.000000 92.851 69.2103
2060.000000 92.958 69.6725
2090.000000 93.068 70.1727
2120.000000 93.188 70.7421
2140.000000 93.275 71.1382
2180.000000 93.474 71.8732
2200.000000 93.585 72.1729
2240.000000 93.815 72.5394
2270.000000 93.977 72.5884
2300.000000 94.123 72.5328
2330.000000 94.249 72.4589
2360.000000 94.360 72.3867
2400.000000 94.499 72.3160
2430.000000 94.600 72.2909
2470.000000 94.733 72.2748
2500.000000 94.832 72.2429
2540.000000 94.964 72.1428
2580.000000 95.089 71.9684
2620.000000 95.199 71.7313
2650.000000 95.273 71.5377
2690.000000 95.360 71.2717
2720.000000 95.417 71.0695
2760.000000 95.481 70.8027
2800.000000 95.536 70.5610
2850.000000 95.592 70.2932
2900.000000 95.637 70.0436
2950.000000 95.676 69.8103
3000.000000 95.705 69.6063
3040.000000 95.721 69.4746
3070.000000 95.730 69.3871
3110.000000 95.739 69.2714
3150.000000 95.743 69.1640
3200.000000 95.738 69.0593
3250.000000 95.724 69.0037
3300.000000 95.704 68.9860
3350.000000 95.677 69.0146
3400.000000 95.643 69.0812
3450.000000 95.612 69.2119
3500.000000 95.579 69.4190
3550.000000 95.542 69.7051
3600.000000 95.507 70.0767
3650.000000 95.476 70.5512
3700.000000 95.452 71.1282
3750.000000 95.442 71.7567
3820.000000 95.453 72.6284
3870.000000 95.474 73.1952
3950.000000 95.519 73.9826
4000.000000 95.548 74.3865
4060.000000 95.577 74.8166
4120.000000 95.600 75.2147
4180.000000 95.618 75.5905
4250.000000 95.633 76.0102
4310.000000 95.642 76.3575
4370.000000 95.644 76.6973
4440.000000 95.644 77.0972
4500.000000 95.642 77.4313
4550.000000 95.640 77.6833
4620.000000 95.638 77.9751
4680.000000 95.638 78.1773
4750.000000 95.631 78.3760
4820.000000 95.621 78.5253
4870.000000 95.610 78.6063
4940.000000 95.587 78.6778
5000.000000 95.559 78.6970
5080.000000 95.510 78.6949
5150.000000 95.456 78.6769
5220.000000 95.392 78.6492
5300.000000 95.306 78.6386
5380.000000 95.204 78.6530
5450.000000 95.106 78.6998
5520.000000 95.003 78.7959
5600.000000 94.879 78.9668
5700.000000 94.708 79.2794
5800.000000 94.527 79.7329
5900.000000 94.339 80.3310
6000.000000 94.146 81.0726
6080.000000 93.997 81.8082
6150.000000 93.877 82.5475
6220.000000 93.768 83.3326
6300.000000 93.656 84.2534
6400.000000 93.525 85.4651
6500.000000 93.405 86.7990
6600.000000 93.308 88.2400
6700.000000 93.238 89.7390
6800.000000 93.205 91.2538
6900.000000 93.227 92.7319
7000.000000 93.304 94.1363
7100.000000 93.418 95.4280
7200.000000 93.560 96.5627
7300.000000 93.731 97.4891
7400.000000 93.928 98.1181
7500.000000 94.144 98.3699
7620.000000 94.426 98.1290
7750.000000 94.738 97.1313
7880.000000 94.944 95.2147
8000.000000 95.011 92.5428
8120.000000 94.928 89.0398
8250.000000 94.600 84.6136
8380.000000 93.965 80.2076
8500.000000 93.097 76.9776
8620.000000 92.002 75.2537
8750.000000 90.650 75.5074
8850.000000 89.564 77.2356
9000.000000 87.968 82.1131
9120.000000 86.784 87.7425
9250.000000 85.648 95.3494
9380.000000 84.726 104.3105
9500.000000 84.126 113.5412
9620.000000 83.831 123.2714
9750.000000 83.909 133.6563
9880.000000 84.367 142.8351
10000.000000 85.013 149.3973
10150.000000 85.877 154.5249
10300.000000 86.559 156.7137
10440.000000 86.915 157.2830
10600.000000 87.000 157.7217
10750.000000 86.863 158.8734
10900.000000 86.630 161.0665
11060.000000 86.381 164.4841
11200.000000 86.213 168.2004
11380.000000 86.118 173.6604
11500.000000 86.148 177.5308
11720.000000 86.422 -175.2199
11800.000000 86.598 -172.6020
12060.000000 87.485 -164.4645
12200.000000 88.192 -160.5513
12410.000000 89.625 -155.9277
12500.000000 90.399 -154.6960
12650.000000 91.904 -154.3025
12800.000000 93.578 -157.1315
13150.000000 96.319 176.8288
13200.000000 96.373 171.3218
13400.000000 95.554 150.8802
13600.000000 93.525 138.7362
13800.000000 91.166 135.1714
14000.000000 89.093 136.7910
14300.000000 86.805 143.8504
14500.000000 85.737 150.0493
14750.000000 84.806 158.5446
15000.000000 84.261 167.1496
15250.000000 84.022 175.2869
15500.000000 84.056 -177.4588
15750.000000 84.316 -171.4350
16000.000000 84.712 -167.3319
16250.000000 85.116 -165.9796
16500.000000 85.322 -167.9892
16750.000000 85.092 -172.8797
17000.000000 84.269 -179.6458
17250.000000 82.863 166.1032
17500.000000 81.140 99.2649
17750.000000 79.715 -112.9747
18000.000000 78.954 -142.1523
18250.000000 77.704 38.5840
18500.000000 75.855 -105.7937
18750.000000 73.837 -156.2678
19000.000000 72.197 -78.8813
19250.000000 71.302 173.3699
19500.000000 71.020 153.1462
19750.000000 71.456 153.3596
20000.000000 72.010 158.4407
20300.000000 71.501 168.1431
20600.000000 70.436 -179.6348
20900.000000 70.018 -165.9319
21200.000000 69.966 -150.6260
21400.000000 69.988 -139.9290
21800.000000 70.245 -131.9043
22000.000000 70.532 173.7454
22400.000000 71.148 43.8223
22700.000000 70.682 -45.4893
23000.000000 69.299 144.0273
23300.000000 68.241 174.3672
23600.000000 67.941 -174.7539
24000.000000 68.061 -69.7773
