* Measurement data measured by REW V5.20.13
* Source: Headset (DS by VECLAN.COM), MICROPHONE (Master Volume), L, volume: 0.880. Timing signal peak level -16.8 dBFS, measurement signal peak level -14.2 dBFS
* Format: 2M Log Swept Sine, 1 sweep at -12.0 dBFS using an acoustic timing reference
* Dated: Nov 11, 2023 5:44:03 PM
* REW Settings:
*  C-weighting compensation: Off
*  Target level: 75.0 dB
* Note: ; Delay -0.0554 ms (-19 mm, -0.75 in) using estimated IR delay relative to Acoustic reference played from HEADPHONE L with no timing offset
* Measurement: Moondrop Variations S2 S&S L
* Smoothing: 1/24 octave
* Frequency Step: 1/48 octave
* Start Frequency: 1.000 Hz
*
* Freq(Hz) SPL(dB) Phase(degrees)
1.000000 78.249 -104.4517
1.015000 78.216 -104.7608
1.030000 78.171 -104.9670
1.044000 78.117 -105.0517
1.060000 78.039 -105.0036
1.075000 77.951 -104.8008
1.090000 77.848 -104.4282
1.106000 77.717 -103.8563
1.120000 77.580 -103.3710
1.138000 77.371 -102.7983
1.150000 77.213 -102.4368
1.172000 76.891 -101.7870
1.180000 76.764 -101.5473
1.206000 76.320 -100.7190
1.220000 76.065 -100.2215
1.241000 75.665 -99.3742
1.250000 75.489 -98.9651
1.265000 75.190 -98.2097
1.280000 74.886 -97.3493
1.315000 74.174 -94.8484
1.320000 74.073 -94.4265
1.340000 73.674 -92.5549
1.360000 73.286 -90.3621
1.380000 72.915 -87.8120
1.400000 72.565 -84.8688
1.430000 72.092 -79.6382
1.450000 71.820 -75.5549
1.475000 71.528 -69.6657
1.500000 71.242 -62.4747
1.525000 70.954 -54.0612
1.550000 70.670 -44.6301
1.575000 70.395 -34.3864
1.600000 70.138 -23.5353
1.625000 69.902 -12.2817
1.650000 69.695 -0.8305
1.675000 69.522 10.6133
1.700000 69.390 21.8447
1.725000 69.305 32.6585
1.750000 69.273 42.8500
1.775000 69.299 52.2140
1.800000 69.391 60.5456
1.825000 69.554 67.6398
1.850000 69.805 73.5243
1.875000 70.162 78.6810
1.900000 70.613 83.1834
1.925000 71.143 87.0836
1.950000 71.738 90.4339
1.975000 72.384 93.2866
2.000000 73.066 95.6939
2.030000 73.913 98.0683
2.060000 74.767 99.9668
2.090000 75.604 101.4797
2.120000 76.399 102.6972
2.140000 76.893 103.3894
2.180000 77.764 104.6073
2.200000 78.126 105.1829
2.240000 78.759 105.5538
2.270000 79.184 105.0393
2.300000 79.570 103.9823
2.330000 79.923 102.5060
2.360000 80.249 100.7337
2.400000 80.647 98.1228
2.430000 80.926 96.1386
2.470000 81.281 93.6927
2.500000 81.541 92.1675
2.540000 81.890 90.7808
2.580000 82.246 90.3557
2.620000 82.585 90.6478
2.650000 82.825 91.2109
2.690000 83.127 92.3099
2.720000 83.343 93.3200
2.760000 83.618 94.8040
2.800000 83.883 96.3185
2.850000 84.203 98.0447
2.900000 84.518 99.3342
2.950000 84.832 99.9557
3.000000 85.134 100.1016
3.040000 85.367 99.9871
3.070000 85.536 99.8007
3.110000 85.756 99.4600
3.150000 85.971 99.0620
3.200000 86.233 98.5637
3.250000 86.491 98.1599
3.300000 86.745 97.9522
3.350000 86.995 97.9072
3.400000 87.238 97.9369
3.450000 87.474 98.0165
3.500000 87.705 98.1213
3.550000 87.931 98.2263
3.600000 88.153 98.3068
3.650000 88.370 98.3380
3.700000 88.584 98.3216
3.750000 88.793 98.3024
3.820000 89.079 98.2533
3.870000 89.277 98.1867
3.950000 89.585 97.9936
4.000000 89.771 97.8009
4.060000 89.990 97.4726
4.120000 90.202 97.0190
4.180000 90.408 96.4757
4.250000 90.640 95.7841
4.310000 90.832 95.1893
4.370000 91.018 94.6367
4.440000 91.226 94.0883
4.500000 91.397 93.6792
4.550000 91.535 93.3581
4.620000 91.720 92.9043
4.680000 91.871 92.4799
4.750000 92.041 91.9020
4.820000 92.202 91.1984
4.870000 92.311 90.6295
4.940000 92.457 89.7783
5.000000 92.576 89.0320
5.080000 92.727 88.0697
5.150000 92.851 87.3084
5.220000 92.968 86.6091
5.300000 93.091 85.8515
5.380000 93.207 85.1126
5.450000 93.303 84.4604
5.520000 93.395 83.7847
5.600000 93.492 82.9842
5.700000 93.605 81.9731
5.800000 93.711 80.9902
5.900000 93.814 80.0755
6.000000 93.910 79.2243
6.080000 93.984 78.5734
6.150000 94.048 78.0169
6.220000 94.113 77.4652
6.300000 94.187 76.8440
6.400000 94.278 76.0905
6.500000 94.369 75.3483
6.600000 94.462 74.6018
6.700000 94.558 73.8544
6.800000 94.655 73.1088
6.900000 94.754 72.3555
7.000000 94.853 71.5872
7.100000 94.953 70.8120
7.200000 95.054 70.0237
7.300000 95.153 69.2121
7.400000 95.250 68.3675
7.500000 95.346 67.4932
7.620000 95.457 66.4237
7.750000 95.570 65.2600
7.880000 95.676 64.0796
8.000000 95.768 62.9900
8.120000 95.852 61.9139
8.250000 95.935 60.7505
8.380000 96.011 59.6168
8.500000 96.075 58.6181
8.620000 96.134 57.6549
8.750000 96.193 56.6597
8.850000 96.238 55.9346
9.000000 96.302 54.9103
9.120000 96.353 54.1377
9.250000 96.412 53.3466
9.380000 96.473 52.6055
9.500000 96.530 51.9459
9.620000 96.588 51.3029
9.750000 96.653 50.6315
9.880000 96.713 49.9642
10.000000 96.762 49.3430
10.150000 96.819 48.5680
10.300000 96.867 47.7914
10.440000 96.904 47.0635
10.600000 96.940 46.2338
10.750000 96.969 45.4587
10.900000 96.994 44.6889
11.060000 97.016 43.8878
11.200000 97.031 43.2000
11.380000 97.046 42.3578
11.500000 97.052 41.8286
11.720000 97.061 40.9182
11.800000 97.065 40.6090
12.060000 97.081 39.6690
12.200000 97.095 39.1824
12.410000 97.122 38.4720
12.500000 97.134 38.1614
12.650000 97.158 37.6423
12.800000 97.183 37.1059
13.150000 97.238 35.7487
13.200000 97.245 35.5435
13.400000 97.270 34.6884
13.600000 97.288 33.8063
13.800000 97.297 32.9025
14.000000 97.296 32.0089
14.300000 97.280 30.7073
14.500000 97.261 29.8950
14.750000 97.236 28.9438
15.000000 97.214 28.0609
15.250000 97.202 27.2155
15.500000 97.199 26.3803
15.750000 97.203 25.5385
16.000000 97.210 24.6708
16.250000 97.216 23.7788
16.500000 97.219 22.8714
16.750000 97.219 21.9672
17.000000 97.215 21.0941
17.250000 97.208 20.2658
17.500000 97.199 19.4983
17.750000 97.190 18.7998
18.000000 97.185 18.1688
18.250000 97.183 17.6028
18.500000 97.188 17.0900
18.750000 97.200 16.6171
19.000000 97.220 16.1716
19.250000 97.247 15.7312
19.500000 97.279 15.2848
19.750000 97.315 14.8234
20.000000 97.351 14.3401
20.299999 97.391 13.7317
20.600000 97.426 13.0937
20.900000 97.453 12.4296
21.200001 97.470 11.7432
21.400000 97.475 11.2782
21.799999 97.465 10.3549
22.000000 97.451 9.9142
22.400000 97.407 9.1169
22.700001 97.368 8.6123
23.000000 97.333 8.1738
23.299999 97.306 7.7478
23.600000 97.284 7.2844
24.000000 97.252 6.5727
24.299999 97.216 6.0111
24.700001 97.151 5.3558
25.000000 97.104 5.0079
25.400000 97.075 4.6938
25.799999 97.104 4.2787
26.200001 97.162 3.4346
26.500000 97.186 2.4771
26.900000 97.148 0.9968
27.200001 97.060 0.0418
27.600000 96.901 -0.6582
28.000000 96.783 -0.6499
28.500000 96.795 -0.3494
29.000000 96.928 -0.8234
29.500000 97.013 -2.2804
30.000000 96.955 -3.8613
30.400000 96.844 -4.6256
30.700001 96.767 -4.8562
31.100000 96.710 -4.9539
31.500000 96.701 -5.1195
32.000000 96.703 -5.6343
32.500000 96.668 -6.2857
33.000000 96.608 -6.7763
33.500000 96.554 -7.0968
34.000000 96.517 -7.3906
34.500000 96.486 -7.7031
35.000000 96.462 -8.0102
35.500000 96.449 -8.3685
36.000000 96.438 -8.8690
36.500000 96.408 -9.4848
37.000000 96.356 -10.0766
37.500000 96.296 -10.5636
38.200001 96.225 -11.1725
38.700001 96.182 -11.6555
39.500000 96.106 -12.5141
40.000000 96.053 -13.0758
40.599998 95.978 -13.7424
41.200001 95.895 -14.3119
41.799999 95.819 -14.7481
42.500000 95.755 -15.2249
43.099998 95.703 -15.6934
43.700001 95.641 -16.1032
44.400002 95.575 -16.3880
45.000000 95.545 -16.5773
45.500000 95.530 -16.8111
46.200001 95.503 -17.2509
46.799999 95.469 -17.6548
47.500000 95.419 -18.1389
48.200001 95.352 -18.6192
48.700001 95.296 -18.9097
49.400002 95.221 -19.2423
50.000000 95.164 -19.5437
50.799999 95.082 -20.0042
51.500000 95.002 -20.3726
52.200001 94.926 -20.6777
53.000000 94.855 -20.9843
53.799999 94.808 -21.3416
54.500000 94.770 -21.8007
55.200001 94.710 -22.3017
56.000000 94.622 -22.6309
57.000000 94.562 -22.7431
58.000000 94.537 -23.1771
59.000000 94.436 -23.6995
60.000000 94.317 -23.6669
60.799999 94.271 -23.6384
61.500000 94.227 -23.8755
62.200001 94.148 -24.1553
63.000000 94.049 -24.2968
64.000000 93.964 -24.5164
65.000000 93.871 -24.9833
66.000000 93.776 -25.2530
67.000000 93.733 -25.5856
68.000000 93.671 -26.1486
69.000000 93.579 -26.5126
70.000000 93.486 -26.6912
71.000000 93.401 -26.6775
72.000000 93.349 -26.7466
73.000000 93.275 -27.0598
74.000000 93.167 -27.2577
75.000000 93.068 -27.2665
76.199997 92.980 -27.2276
77.500000 92.906 -27.2614
78.800003 92.836 -27.4148
80.000000 92.748 -27.7036
81.199997 92.636 -27.8768
82.500000 92.534 -28.0278
83.800003 92.432 -28.2130
85.000000 92.345 -28.2391
86.199997 92.278 -28.2081
87.500000 92.200 -28.2429
88.500000 92.123 -28.2614
90.000000 91.981 -28.2418
91.199997 91.875 -28.0518
92.500000 91.819 -28.0383
93.800003 91.753 -28.3520
95.000000 91.674 -28.4843
96.199997 91.608 -28.4740
97.500000 91.534 -28.3865
98.800003 91.452 -28.2275
100.000000 91.372 -28.0590
101.500000 91.276 -27.9110
103.000000 91.183 -27.9367
104.400002 91.094 -27.9855
106.000000 91.002 -27.9836
107.500000 90.921 -27.8762
109.000000 90.848 -27.6303
110.599998 90.779 -27.3741
112.000000 90.711 -27.2471
113.800003 90.600 -27.2101
115.000000 90.513 -27.1890
117.199997 90.365 -26.9696
118.000000 90.321 -26.8547
120.599998 90.199 -26.2668
122.000000 90.156 -25.9427
124.099998 90.067 -25.6916
125.000000 90.020 -25.5824
126.500000 89.951 -25.3973
128.000000 89.897 -25.2968
131.500000 89.745 -24.8669
132.000000 89.725 -24.7323
134.000000 89.659 -24.2047
136.000000 89.595 -23.8833
138.000000 89.520 -23.6265
140.000000 89.469 -23.2874
143.000000 89.399 -22.6367
145.000000 89.334 -21.8389
147.500000 89.287 -20.7721
150.000000 89.253 -20.2095
152.500000 89.191 -20.1394
155.000000 89.114 -20.0467
157.500000 89.082 -19.5492
160.000000 89.049 -18.7741
162.500000 88.912 -18.0963
165.000000 88.749 -17.7095
167.500000 88.676 -17.8812
170.000000 88.627 -18.2802
172.500000 88.497 -18.0909
175.000000 88.459 -17.1784
177.500000 88.526 -16.6127
180.000000 88.472 -16.3918
182.500000 88.304 -15.7182
185.000000 88.258 -14.6847
187.500000 88.347 -13.3916
190.000000 88.489 -12.5115
192.500000 88.500 -13.1123
195.000000 88.390 -13.6480
197.500000 88.335 -12.7582
200.000000 88.305 -11.1765
203.000000 88.194 -10.1151
206.000000 88.138 -10.2286
209.000000 88.171 -10.2139
212.000000 88.213 -9.5946
214.000000 88.202 -9.2454
218.000000 88.155 -8.6704
220.000000 88.136 -8.4581
224.000000 88.116 -7.9380
227.000000 88.147 -7.3998
230.000000 88.145 -6.6240
233.000000 88.076 -5.9571
236.000000 88.017 -5.6420
240.000000 88.066 -4.8377
243.000000 88.081 -4.1239
247.000000 88.005 -3.9882
250.000000 88.000 -3.8411
254.000000 88.007 -2.8659
258.000000 87.962 -2.0487
262.000000 87.987 -1.5714
265.000000 88.016 -1.2824
269.000000 88.031 -0.9015
272.000000 88.047 -0.5318
276.000000 88.078 -0.0490
280.000000 88.100 0.4609
285.000000 88.088 1.0448
290.000000 88.095 1.5127
295.000000 88.124 2.1433
300.000000 88.153 2.6625
304.000000 88.184 2.9907
307.000000 88.190 3.2569
311.000000 88.182 3.6403
315.000000 88.193 4.0970
320.000000 88.210 4.5999
325.000000 88.221 5.0954
330.000000 88.265 5.6425
335.000000 88.300 5.9982
340.000000 88.303 6.4611
345.000000 88.328 6.9576
350.000000 88.375 7.2936
355.000000 88.396 7.5513
360.000000 88.405 7.8106
365.000000 88.412 8.0903
370.000000 88.430 8.4286
375.000000 88.450 8.8972
382.000000 88.467 9.5726
387.000000 88.478 9.9235
395.000000 88.516 10.2662
400.000000 88.545 10.6661
406.000000 88.592 11.0770
412.000000 88.621 11.4733
418.000000 88.623 11.8852
425.000000 88.634 12.1789
431.000000 88.645 12.5225
437.000000 88.654 12.9597
444.000000 88.674 13.3965
450.000000 88.693 13.6759
455.000000 88.707 13.9407
462.000000 88.720 14.3165
468.000000 88.733 14.6478
475.000000 88.747 14.9915
482.000000 88.772 15.2494
487.000000 88.794 15.5161
494.000000 88.818 16.0998
500.000000 88.845 16.5011
508.000000 88.885 16.8422
515.000000 88.933 17.0212
522.000000 89.012 17.3681
530.000000 89.015 18.1786
538.000000 88.962 18.7981
545.000000 88.958 19.1020
552.000000 88.979 19.4331
560.000000 89.008 19.8473
570.000000 89.040 20.3192
580.000000 89.069 20.8745
590.000000 89.080 21.3605
600.000000 89.105 21.8501
608.000000 89.126 22.3368
615.000000 89.140 22.8154
622.000000 89.154 23.2399
630.000000 89.182 23.6127
640.000000 89.218 24.1177
650.000000 89.234 24.7053
660.000000 89.245 25.2940
670.000000 89.269 25.8403
680.000000 89.298 26.4028
690.000000 89.324 27.0001
700.000000 89.351 27.5727
710.000000 89.386 28.1278
720.000000 89.420 28.6295
730.000000 89.450 29.2047
740.000000 89.482 29.8322
750.000000 89.510 30.4695
762.000000 89.543 31.1903
775.000000 89.588 31.9585
788.000000 89.639 32.6940
800.000000 89.692 33.3715
812.000000 89.742 34.0586
825.000000 89.803 34.8345
838.000000 89.864 35.5708
850.000000 89.919 36.2662
862.000000 89.981 36.9729
875.000000 90.057 37.7007
885.000000 90.114 38.2101
900.000000 90.199 38.9732
912.000000 90.271 39.6268
925.000000 90.355 40.3160
938.000000 90.437 40.9454
950.000000 90.513 41.4762
962.000000 90.590 41.9986
975.000000 90.674 42.5522
988.000000 90.762 43.0776
1000.000000 90.845 43.5376
1015.000000 90.951 44.0884
1030.000000 91.056 44.6013
1044.000000 91.151 45.0440
1060.000000 91.258 45.4971
1075.000000 91.357 45.9131
1090.000000 91.462 46.3002
1106.000000 91.583 46.6526
1120.000000 91.690 46.9346
1138.000000 91.820 47.2723
1150.000000 91.901 47.4795
1172.000000 92.046 47.8230
1180.000000 92.099 47.9401
1206.000000 92.267 48.3033
1220.000000 92.355 48.4942
1241.000000 92.484 48.7753
1250.000000 92.539 48.8775
1265.000000 92.631 49.0360
1280.000000 92.718 49.2075
1315.000000 92.904 49.6405
1320.000000 92.929 49.7055
1340.000000 93.027 49.9630
1360.000000 93.104 50.2178
1380.000000 93.176 50.4797
1400.000000 93.255 50.7445
1430.000000 93.382 51.1890
1450.000000 93.471 51.4931
1475.000000 93.592 51.8308
1500.000000 93.700 52.1993
1525.000000 93.782 52.6700
1550.000000 93.871 53.1274
1575.000000 93.986 53.5067
1600.000000 94.095 53.9161
1625.000000 94.182 54.4065
1650.000000 94.268 54.8835
1675.000000 94.367 55.2992
1700.000000 94.460 55.7383
1725.000000 94.541 56.2346
1750.000000 94.635 56.7180
1775.000000 94.752 57.1485
1800.000000 94.878 57.5549
1825.000000 94.993 57.9761
1850.000000 95.099 58.4163
1875.000000 95.205 58.8368
1900.000000 95.316 59.2321
1925.000000 95.429 59.6261
1950.000000 95.545 60.0101
1975.000000 95.668 60.3630
2000.000000 95.800 60.6845
2030.000000 95.958 61.0395
2060.000000 96.105 61.3879
2090.000000 96.245 61.7163
2120.000000 96.391 61.9941
2140.000000 96.495 62.1490
2180.000000 96.715 62.4062
2200.000000 96.826 62.5011
2240.000000 97.041 62.6402
2270.000000 97.200 62.7056
2300.000000 97.360 62.7008
2330.000000 97.518 62.6492
2360.000000 97.674 62.5507
2400.000000 97.879 62.3263
2430.000000 98.027 62.1113
2470.000000 98.223 61.7228
2500.000000 98.369 61.3661
2540.000000 98.553 60.8140
2580.000000 98.724 60.1681
2620.000000 98.880 59.4518
2650.000000 98.990 58.8503
2690.000000 99.122 57.9907
2720.000000 99.208 57.3090
2760.000000 99.307 56.3543
2800.000000 99.389 55.3596
2850.000000 99.459 54.0978
2900.000000 99.490 52.8526
2950.000000 99.493 51.6349
3000.000000 99.470 50.4925
3040.000000 99.437 49.6361
3070.000000 99.402 49.0556
3110.000000 99.347 48.3532
3150.000000 99.289 47.7166
3200.000000 99.213 47.0210
3250.000000 99.133 46.3764
3300.000000 99.048 45.7443
3350.000000 98.959 45.0948
3400.000000 98.860 44.4504
3450.000000 98.748 43.8369
3500.000000 98.619 43.2812
3550.000000 98.473 42.8166
3600.000000 98.315 42.4524
3650.000000 98.144 42.2428
3700.000000 97.966 42.2016
3750.000000 97.790 42.3367
3820.000000 97.547 42.8433
3870.000000 97.385 43.3624
3950.000000 97.157 44.3293
4000.000000 97.032 44.9660
4060.000000 96.890 45.7608
4120.000000 96.755 46.6029
4180.000000 96.628 47.5006
4250.000000 96.494 48.6108
4310.000000 96.383 49.6182
4370.000000 96.276 50.6516
4440.000000 96.162 51.8528
4500.000000 96.077 52.8661
4550.000000 96.013 53.6867
4620.000000 95.931 54.7988
4680.000000 95.866 55.7140
4750.000000 95.798 56.7205
4820.000000 95.729 57.6813
4870.000000 95.678 58.3345
4940.000000 95.607 59.1999
5000.000000 95.543 59.9110
5080.000000 95.450 60.8210
5150.000000 95.358 61.5948
5220.000000 95.259 62.3558
5300.000000 95.138 63.2273
5380.000000 95.006 64.1250
5450.000000 94.878 64.9526
5520.000000 94.739 65.8364
5600.000000 94.575 66.9212
5700.000000 94.355 68.4269
5800.000000 94.120 70.1302
5900.000000 93.887 72.0346
6000.000000 93.659 74.1607
6080.000000 93.488 76.0114
6150.000000 93.345 77.7505
6220.000000 93.215 79.5878
6300.000000 93.088 81.7920
6400.000000 92.953 84.7098
6500.000000 92.854 87.7620
6600.000000 92.800 90.9064
6700.000000 92.792 94.1150
6800.000000 92.841 97.3438
6900.000000 92.966 100.5554
7000.000000 93.177 103.6821
7100.000000 93.466 106.6469
7200.000000 93.827 109.3499
7300.000000 94.262 111.6383
7400.000000 94.758 113.3529
7500.000000 95.302 114.3592
7620.000000 96.011 114.3834
7750.000000 96.770 112.6074
7880.000000 97.318 108.7939
8000.000000 97.541 103.7031
8120.000000 97.426 97.8424
8250.000000 96.900 91.8109
8380.000000 96.030 87.2077
8500.000000 95.015 84.7753
8620.000000 93.897 84.1546
8750.000000 92.660 85.3140
8850.000000 91.742 87.2703
9000.000000 90.475 91.5361
9120.000000 89.572 95.8109
9250.000000 88.708 101.0512
9380.000000 87.958 106.7412
9500.000000 87.364 112.2604
9620.000000 86.856 117.9525
9750.000000 86.401 124.2360
9880.000000 86.045 130.5671
10000.000000 85.795 136.4111
10150.000000 85.575 143.6456
10300.000000 85.451 150.7237
10440.000000 85.413 157.1172
10600.000000 85.459 164.0595
10750.000000 85.577 170.1140
10900.000000 85.747 175.6214
11060.000000 85.960 -179.2080
11200.000000 86.146 -175.3222
11380.000000 86.324 -171.1073
11500.000000 86.378 -168.6218
11720.000000 86.341 -164.1898
11800.000000 86.294 -162.4974
12060.000000 86.094 -156.5611
12200.000000 85.977 -153.2607
12410.000000 85.759 -148.4158
12500.000000 85.643 -146.3667
12650.000000 85.409 -142.8948
12800.000000 85.125 -139.2240
13150.000000 84.347 -129.2446
13200.000000 84.232 -127.6274
13400.000000 83.799 -120.6880
13600.000000 83.427 -113.0432
13800.000000 83.153 -104.7887
14000.000000 83.017 -96.0521
14300.000000 83.139 -82.4853
14500.000000 83.475 -73.6365
14750.000000 84.182 -63.4786
15000.000000 85.199 -54.9872
15250.000000 86.500 -49.3447
15500.000000 87.878 -48.2985
15750.000000 88.845 -52.7547
16000.000000 88.907 -60.2440
16250.000000 88.005 -65.5754
16500.000000 86.528 -65.5535
16750.000000 84.975 -60.5764
17000.000000 83.654 -52.4658
17250.000000 82.643 -42.6799
17500.000000 81.927 -32.0912
17750.000000 81.442 -21.3101
18000.000000 81.086 -10.5692
18250.000000 80.809 0.5897
18500.000000 80.795 12.9091
18750.000000 81.399 26.0455
19000.000000 82.610 38.3256
19250.000000 83.954 48.1238
19500.000000 85.012 54.6550
19750.000000 85.582 58.1016
20000.000000 85.515 59.9071
20300.000000 84.655 63.5261
20600.000000 83.380 72.0319
20900.000000 82.211 85.5044
21200.000000 81.566 102.1320
21400.000000 81.502 113.6100
21800.000000 81.480 124.4716
22000.000000 80.757 92.1383
22400.000000 76.805 -92.2134
22700.000000 71.990 -52.0533
23000.000000 65.935 159.3530
23300.000000 58.876 -135.9395
23600.000000 51.827 20.1797
24000.000000 47.206 -41.1016
