* Measurement data measured by REW V5.20.13
* Source: Microphone (Realtek(R) Audio), MICROPHONE (Master Volume), L, volume: 0.710. Timing signal peak level -39.5 dBFS, measurement signal peak level -37.0 dBFS
* Format: 2M Log Swept Sine, 1 sweep at -12.0 dBFS using an acoustic timing reference
* Dated: Sep 8, 2023 2:05:57 PM
* REW Settings:
*  C-weighting compensation: Off
*  Target level: 75.0 dB
* Note: ; Delay -0.0549 ms (-19 mm, -0.74 in) using estimated IR delay relative to Acoustic reference played from HEADPHONE R with no timing offset Clock adjustment: 120.0 ppm
* Measurement: Aria Spring R
* Smoothing: 1/24 octave
* Frequency Step: 1/48 octave
* Start Frequency: 20.000 Hz
*
* Freq(Hz) SPL(dB) Phase(degrees)
20.000000 95.325 30.4127
20.299999 95.355 29.7554
20.600000 95.383 29.1167
20.900000 95.410 28.4969
21.200001 95.437 27.8928
21.400000 95.454 27.4958
21.799999 95.486 26.7125
22.000000 95.501 26.3256
22.400000 95.530 25.5644
22.700001 95.550 25.0086
23.000000 95.569 24.4657
23.299999 95.588 23.9294
23.600000 95.606 23.3939
24.000000 95.629 22.6763
24.299999 95.644 22.1385
24.700001 95.660 21.4340
25.000000 95.669 20.9246
25.400000 95.679 20.2766
25.799999 95.690 19.6586
26.200001 95.703 19.0548
26.500000 95.714 18.6021
26.900000 95.730 17.9923
27.200001 95.740 17.5293
27.600000 95.751 16.9071
28.000000 95.758 16.2877
28.500000 95.762 15.5365
29.000000 95.762 14.8307
29.500000 95.764 14.1682
30.000000 95.768 13.5189
30.400000 95.770 12.9897
30.700001 95.769 12.5875
31.100000 95.765 12.0600
31.500000 95.758 11.5605
32.000000 95.751 10.9840
32.500000 95.753 10.4258
33.000000 95.759 9.8304
33.500000 95.760 9.1849
34.000000 95.753 8.5343
34.500000 95.739 7.9346
35.000000 95.725 7.3977
35.500000 95.715 6.8897
36.000000 95.708 6.3743
36.500000 95.697 5.8506
37.000000 95.682 5.3438
37.500000 95.666 4.8683
38.200001 95.648 4.2229
38.700001 95.636 3.7466
39.500000 95.612 2.9807
40.000000 95.596 2.5284
40.599998 95.581 1.9977
41.200001 95.569 1.4403
41.799999 95.552 0.8654
42.500000 95.523 0.2450
43.099998 95.498 -0.2083
43.700001 95.479 -0.6131
44.400002 95.463 -1.0758
45.000000 95.451 -1.5011
45.500000 95.439 -1.8872
46.200001 95.412 -2.4535
46.799999 95.381 -2.9203
47.500000 95.346 -3.4252
48.200001 95.316 -3.9214
48.700001 95.297 -4.2834
49.400002 95.272 -4.7877
50.000000 95.254 -5.2023
50.799999 95.233 -5.7333
51.500000 95.211 -6.1769
52.200001 95.183 -6.5560
53.000000 95.148 -6.8867
53.799999 95.111 -7.1965
54.500000 95.071 -7.4899
55.200001 95.027 -7.8198
56.000000 94.968 -8.3290
57.000000 94.877 -9.0912
58.000000 94.804 -10.1637
59.000000 94.647 -11.5749
60.000000 94.459 -11.6979
60.799999 94.509 -11.4575
61.500000 94.607 -12.0466
62.200001 94.610 -12.9190
63.000000 94.548 -13.2542
64.000000 94.543 -13.0610
65.000000 94.558 -13.1086
66.000000 94.533 -13.2281
67.000000 94.484 -13.4347
68.000000 94.410 -13.7218
69.000000 94.336 -14.0434
70.000000 94.275 -14.4506
71.000000 94.224 -14.9177
72.000000 94.177 -15.3224
73.000000 94.140 -15.6292
74.000000 94.106 -15.8999
75.000000 94.063 -16.1332
76.199997 94.003 -16.3657
77.500000 93.932 -16.6864
78.800003 93.851 -17.0268
80.000000 93.791 -17.3249
81.199997 93.739 -17.6681
82.500000 93.683 -18.0078
83.800003 93.620 -18.2984
85.000000 93.556 -18.5081
86.199997 93.489 -18.6910
87.500000 93.421 -18.9109
88.500000 93.370 -19.1202
90.000000 93.297 -19.4451
91.199997 93.245 -19.6998
92.500000 93.190 -19.9483
93.800003 93.135 -20.1464
95.000000 93.084 -20.2998
96.199997 93.032 -20.4326
97.500000 92.975 -20.6104
98.800003 92.912 -20.8230
100.000000 92.852 -21.0147
101.500000 92.777 -21.2453
103.000000 92.703 -21.4080
104.400002 92.644 -21.4868
106.000000 92.582 -21.6066
107.500000 92.519 -21.7567
109.000000 92.456 -21.9250
110.599998 92.390 -22.1357
112.000000 92.330 -22.2395
113.800003 92.256 -22.1853
115.000000 92.207 -22.1163
117.199997 92.067 -22.1902
118.000000 91.992 -22.1943
120.599998 91.844 -21.8477
122.000000 91.849 -22.1285
124.099998 91.820 -22.7297
125.000000 91.798 -22.8627
126.500000 91.755 -22.9564
128.000000 91.697 -22.9627
131.500000 91.555 -22.9107
132.000000 91.539 -22.9143
134.000000 91.482 -22.9240
136.000000 91.425 -22.9078
138.000000 91.354 -22.8643
140.000000 91.274 -22.8379
143.000000 91.178 -22.9001
145.000000 91.131 -22.9755
147.500000 91.065 -23.0030
150.000000 90.988 -22.9152
152.500000 90.914 -22.8696
155.000000 90.843 -22.8221
157.500000 90.770 -22.6853
160.000000 90.687 -22.5434
162.500000 90.609 -22.4616
165.000000 90.549 -22.4273
167.500000 90.489 -22.3591
170.000000 90.414 -22.2744
172.500000 90.342 -22.1545
175.000000 90.270 -21.8583
177.500000 90.180 -21.2627
180.000000 90.114 -20.7691
182.500000 90.064 -20.9766
185.000000 90.000 -21.2447
187.500000 89.951 -21.1908
190.000000 89.901 -21.0347
192.500000 89.845 -20.9561
195.000000 89.786 -20.9000
197.500000 89.720 -20.7485
200.000000 89.654 -20.5305
203.000000 89.590 -20.2570
206.000000 89.542 -19.9737
209.000000 89.483 -19.7427
212.000000 89.411 -19.5938
214.000000 89.370 -19.4923
218.000000 89.302 -19.1971
220.000000 89.264 -19.0271
224.000000 89.182 -18.7308
227.000000 89.141 -18.5161
230.000000 89.111 -18.2795
233.000000 89.060 -18.0396
236.000000 88.997 -17.8494
240.000000 88.931 -17.7466
243.000000 88.899 -17.5040
247.000000 88.860 -17.0534
250.000000 88.808 -16.8545
254.000000 88.728 -16.6449
258.000000 88.670 -16.2943
262.000000 88.611 -15.8547
265.000000 88.566 -15.5870
269.000000 88.503 -15.3300
272.000000 88.460 -15.1007
276.000000 88.417 -14.7406
280.000000 88.379 -14.3560
285.000000 88.324 -13.9457
290.000000 88.266 -13.5609
295.000000 88.221 -13.2798
300.000000 88.194 -13.0013
304.000000 88.150 -12.5176
307.000000 88.108 -12.1612
311.000000 88.064 -11.7976
315.000000 88.029 -11.4916
320.000000 87.985 -11.1223
325.000000 87.951 -10.6878
330.000000 87.914 -10.2862
335.000000 87.871 -9.8689
340.000000 87.836 -9.4098
345.000000 87.796 -8.9626
350.000000 87.761 -8.5297
355.000000 87.722 -8.0588
360.000000 87.682 -7.5742
365.000000 87.663 -7.1829
370.000000 87.643 -6.8098
375.000000 87.607 -6.4563
382.000000 87.559 -5.9691
387.000000 87.538 -5.5660
395.000000 87.493 -4.8936
400.000000 87.464 -4.5193
406.000000 87.431 -4.0654
412.000000 87.415 -3.5385
418.000000 87.410 -2.9822
425.000000 87.356 -2.3991
431.000000 87.305 -1.9269
437.000000 87.269 -1.4883
444.000000 87.242 -0.9927
450.000000 87.217 -0.5643
455.000000 87.201 -0.2100
462.000000 87.177 0.3437
468.000000 87.151 0.8588
475.000000 87.126 1.4446
482.000000 87.109 1.9474
487.000000 87.095 2.2873
494.000000 87.073 2.7713
500.000000 87.057 3.2073
508.000000 87.038 3.8216
515.000000 87.019 4.3938
522.000000 87.007 4.9689
530.000000 86.997 5.4907
538.000000 86.972 5.9326
545.000000 86.964 6.4913
552.000000 86.967 7.0956
560.000000 86.968 7.6956
570.000000 86.959 8.3913
580.000000 86.933 9.1138
590.000000 86.913 9.8378
600.000000 86.907 10.5502
608.000000 86.908 11.1383
615.000000 86.907 11.6674
622.000000 86.902 12.1867
630.000000 86.889 12.7581
640.000000 86.876 13.4590
650.000000 86.865 14.1690
660.000000 86.854 14.8569
670.000000 86.871 15.5545
680.000000 86.882 16.2810
690.000000 86.881 17.0547
700.000000 86.871 17.7332
710.000000 86.870 18.3400
720.000000 86.886 19.0222
730.000000 86.895 19.7539
740.000000 86.908 20.4751
750.000000 86.932 21.1903
762.000000 86.949 22.0814
775.000000 86.969 22.9682
788.000000 86.991 23.9444
800.000000 87.010 24.8849
812.000000 87.040 25.7571
825.000000 87.075 26.7085
838.000000 87.103 27.6705
850.000000 87.141 28.4713
862.000000 87.184 29.2704
875.000000 87.222 30.1358
885.000000 87.253 30.8258
900.000000 87.319 31.8384
912.000000 87.378 32.5492
925.000000 87.437 33.3410
938.000000 87.491 34.1374
950.000000 87.541 34.8408
962.000000 87.596 35.5420
975.000000 87.670 36.3263
988.000000 87.745 37.0719
1000.000000 87.808 37.7170
1015.000000 87.881 38.5486
1030.000000 87.963 39.2946
1044.000000 88.056 39.9343
1060.000000 88.166 40.7097
1075.000000 88.272 41.3924
1090.000000 88.383 41.8777
1106.000000 88.502 42.3041
1120.000000 88.603 42.6745
1138.000000 88.724 43.1511
1150.000000 88.797 43.4761
1172.000000 88.931 44.0475
1180.000000 88.983 44.2198
1206.000000 89.136 44.6863
1220.000000 89.205 44.9418
1241.000000 89.308 45.3461
1250.000000 89.351 45.5374
1265.000000 89.425 45.9247
1280.000000 89.505 46.3588
1315.000000 89.697 47.1733
1320.000000 89.724 47.2870
1340.000000 89.817 47.7662
1360.000000 89.895 48.2347
1380.000000 89.973 48.6752
1400.000000 90.057 49.0639
1430.000000 90.185 49.6260
1450.000000 90.268 50.0687
1475.000000 90.376 50.6406
1500.000000 90.490 51.1688
1525.000000 90.592 51.6743
1550.000000 90.691 52.1824
1575.000000 90.791 52.6802
1600.000000 90.889 53.1178
1625.000000 90.981 53.5487
1650.000000 91.068 54.0415
1675.000000 91.156 54.5255
1700.000000 91.249 55.0137
1725.000000 91.338 55.4877
1750.000000 91.428 55.9524
1775.000000 91.520 56.4233
1800.000000 91.609 56.8638
1825.000000 91.697 57.2632
1850.000000 91.786 57.6455
1875.000000 91.872 58.0648
1900.000000 91.954 58.5026
1925.000000 92.033 58.9099
1950.000000 92.108 59.3190
1975.000000 92.181 59.7787
2000.000000 92.258 60.2929
2030.000000 92.356 60.9453
2060.000000 92.468 61.6821
2090.000000 92.607 62.4507
2120.000000 92.775 63.0658
2140.000000 92.895 63.3395
2180.000000 93.115 63.5646
2200.000000 93.203 63.5780
2240.000000 93.340 63.6376
2270.000000 93.424 63.7948
2300.000000 93.504 64.1071
2330.000000 93.592 64.5674
2360.000000 93.701 65.0907
2400.000000 93.887 65.7193
2430.000000 94.048 66.0748
2470.000000 94.275 66.3812
2500.000000 94.446 66.4671
2540.000000 94.671 66.3242
2580.000000 94.877 65.9267
2620.000000 95.054 65.3732
2650.000000 95.165 64.8801
2690.000000 95.285 64.1949
2720.000000 95.359 63.7120
2760.000000 95.439 63.0979
2800.000000 95.501 62.4952
2850.000000 95.557 61.7909
2900.000000 95.588 61.1654
2950.000000 95.598 60.6963
3000.000000 95.603 60.4337
3040.000000 95.621 60.3231
3070.000000 95.649 60.2532
3110.000000 95.699 60.1028
3150.000000 95.751 59.8101
3200.000000 95.801 59.2291
3250.000000 95.818 58.5458
3300.000000 95.803 57.8952
3350.000000 95.767 57.3360
3400.000000 95.720 56.8794
3450.000000 95.668 56.5175
3500.000000 95.614 56.2265
3550.000000 95.557 56.0027
3600.000000 95.497 55.8395
3650.000000 95.433 55.7456
3700.000000 95.367 55.7151
3750.000000 95.300 55.7410
3820.000000 95.210 55.8444
3870.000000 95.149 55.9449
3950.000000 95.053 56.1443
4000.000000 94.992 56.2627
4060.000000 94.917 56.3926
4120.000000 94.839 56.5633
4180.000000 94.762 56.7705
4250.000000 94.674 57.0058
4310.000000 94.597 57.2174
4370.000000 94.513 57.4363
4440.000000 94.407 57.6741
4500.000000 94.314 57.8228
4550.000000 94.232 57.9150
4620.000000 94.110 58.0562
4680.000000 93.998 58.1938
4750.000000 93.860 58.3761
4820.000000 93.716 58.5914
4870.000000 93.609 58.7710
4940.000000 93.455 59.0550
5000.000000 93.321 59.3342
5080.000000 93.137 59.7693
5150.000000 92.971 60.1842
5220.000000 92.805 60.6369
5300.000000 92.610 61.2296
5380.000000 92.411 61.9111
5450.000000 92.237 62.5940
5520.000000 92.065 63.3288
5600.000000 91.873 64.2328
5700.000000 91.642 65.5229
5800.000000 91.419 66.9725
5900.000000 91.206 68.5474
6000.000000 91.016 70.2426
6080.000000 90.878 71.6818
6150.000000 90.771 72.9918
6220.000000 90.677 74.3473
6300.000000 90.589 75.9605
6400.000000 90.514 78.0732
6500.000000 90.483 80.1747
6600.000000 90.486 82.1916
6700.000000 90.514 84.1733
6800.000000 90.584 86.1584
6900.000000 90.720 88.0959
7000.000000 90.930 89.9000
7100.000000 91.201 91.5018
7200.000000 91.521 92.8325
7300.000000 91.889 93.7899
7400.000000 92.300 94.2491
7500.000000 92.748 94.0724
7620.000000 93.327 92.8534
7750.000000 93.946 90.0711
7880.000000 94.393 85.5203
8000.000000 94.571 79.7336
8120.000000 94.442 72.8697
8250.000000 93.885 65.2780
8380.000000 92.903 58.9053
8500.000000 91.715 54.9825
8620.000000 90.377 53.1843
8750.000000 88.881 53.4097
8850.000000 87.759 54.8192
9000.000000 86.184 58.4021
9120.000000 85.030 62.1938
9250.000000 83.883 66.9261
9380.000000 82.833 72.1204
9500.000000 81.939 77.2237
9620.000000 81.107 82.6003
9750.000000 80.273 88.6461
9880.000000 79.502 94.8479
10000.000000 78.841 100.7484
10150.000000 78.075 108.3930
10300.000000 77.366 116.2651
10440.000000 76.747 123.8132
10600.000000 76.077 132.6880
10750.000000 75.499 141.3837
10900.000000 74.992 150.4911
11060.000000 74.563 160.5517
11200.000000 74.293 169.7799
11380.000000 74.144 -177.7720
11500.000000 74.220 -169.2411
11720.000000 74.845 -154.1185
11800.000000 75.223 -149.2263
12060.000000 76.729 -137.4353
12200.000000 77.504 -133.9285
12410.000000 78.380 -130.9932
12500.000000 78.649 -130.0604
12650.000000 78.999 -128.4101
12800.000000 79.297 -126.3872
13150.000000 80.165 -120.1545
13200.000000 80.328 -119.1643
13400.000000 81.126 -115.2604
13600.000000 82.190 -111.9153
13800.000000 83.538 -109.6708
14000.000000 85.148 -109.3577
14300.000000 87.715 -114.8943
14500.000000 89.102 -123.7752
14750.000000 89.916 -139.3140
15000.000000 89.537 -154.0983
15250.000000 88.379 -163.2299
15500.000000 87.067 -166.8920
15750.000000 85.950 -167.4135
16000.000000 84.999 -166.6408
16250.000000 84.056 -165.4274
16500.000000 82.995 -163.7617
16750.000000 81.775 -161.6617
17000.000000 80.408 -163.3208
17250.000000 78.961 153.6447
17500.000000 77.548 -68.7541
17750.000000 76.601 54.5566
18000.000000 76.595 102.4077
18250.000000 76.020 116.1013
18500.000000 74.268 -6.6140
18750.000000 72.019 81.0903
19000.000000 69.349 42.5713
19250.000000 66.444 -85.9995
19500.000000 63.959 64.2188
19750.000000 62.370 -24.5107
20000.000000 61.750 -90.4873
