* Measurement data measured by REW V5.20.13
* Source: Headset (DS by VECLAN.COM), MICROPHONE (Master Volume), L, volume: 0.720. Timing signal peak level -17.9 dBFS, measurement signal peak level -14.7 dBFS
* Format: 4M Log Swept Sine, 1 sweep at -12.0 dBFS using an acoustic timing reference
* Dated: Dec 5, 2023 3:19:30 PM
* REW Settings:
*  C-weighting compensation: Off
*  Target level: 75.0 dB
* Note: ; Apple + Abigail Delay -0.0608 ms (-21 mm, -0.82 in) using estimated IR delay relative to Acoustic reference played from  L with no timing offset
* Measurement: Moondrop Aria Spring L
* Smoothing: 1/24 octave
* Frequency Step: 1/48 octave
* Start Frequency: 1.000 Hz
*
* Freq(Hz) SPL(dB) Phase(degrees)
1.000000 68.187 8.1383
1.015000 68.427 6.8731
1.030000 68.662 5.6309
1.044000 68.876 4.4960
1.060000 69.113 3.2320
1.075000 69.327 2.0833
1.090000 69.530 0.9738
1.106000 69.737 -0.1657
1.120000 69.915 -1.1455
1.138000 70.144 -2.3880
1.150000 70.295 -3.2055
1.172000 70.570 -4.6824
1.180000 70.669 -5.2124
1.206000 70.988 -6.9094
1.220000 71.157 -7.8072
1.241000 71.408 -9.1333
1.250000 71.514 -9.6940
1.265000 71.689 -10.6187
1.280000 71.862 -11.5311
1.315000 72.255 -13.6129
1.320000 72.310 -13.9049
1.340000 72.526 -15.0602
1.360000 72.736 -16.1947
1.380000 72.940 -17.3088
1.400000 73.138 -18.4028
1.430000 73.422 -20.0067
1.450000 73.603 -21.0518
1.475000 73.817 -22.3316
1.500000 74.017 -23.5841
1.525000 74.203 -24.8087
1.550000 74.377 -26.0041
1.575000 74.539 -27.1691
1.600000 74.692 -28.3023
1.625000 74.836 -29.4026
1.650000 74.974 -30.4687
1.675000 75.107 -31.4992
1.700000 75.236 -32.4930
1.725000 75.362 -33.4489
1.750000 75.488 -34.3654
1.775000 75.614 -35.2415
1.800000 75.742 -36.0757
1.825000 75.874 -36.8670
1.850000 76.008 -37.6086
1.875000 76.139 -38.2900
1.900000 76.266 -38.9162
1.925000 76.390 -39.4924
1.950000 76.512 -40.0241
1.975000 76.632 -40.5166
2.000000 76.751 -40.9755
2.030000 76.892 -41.4891
2.060000 77.033 -41.9714
2.090000 77.175 -42.4315
2.120000 77.318 -42.8788
2.140000 77.415 -43.1745
2.180000 77.612 -43.7724
2.200000 77.713 -44.0800
2.240000 77.920 -44.6747
2.270000 78.077 -45.0924
2.300000 78.236 -45.4884
2.330000 78.395 -45.8655
2.360000 78.556 -46.2261
2.400000 78.771 -46.6856
2.430000 78.933 -47.0175
2.470000 79.148 -47.4480
2.500000 79.309 -47.7651
2.540000 79.522 -48.1849
2.580000 79.733 -48.6044
2.620000 79.944 -49.0071
2.650000 80.101 -49.2969
2.690000 80.311 -49.6698
2.720000 80.469 -49.9412
2.760000 80.678 -50.2950
2.800000 80.886 -50.6426
2.850000 81.145 -51.0737
2.900000 81.402 -51.5073
2.950000 81.657 -51.9477
3.000000 81.910 -52.3776
3.040000 82.113 -52.7143
3.070000 82.264 -52.9647
3.110000 82.464 -53.2983
3.150000 82.663 -53.6345
3.200000 82.910 -54.0633
3.250000 83.154 -54.5076
3.300000 83.395 -54.9735
3.350000 83.634 -55.4594
3.400000 83.871 -55.9599
3.450000 84.106 -56.4732
3.500000 84.338 -56.9975
3.550000 84.567 -57.5309
3.600000 84.793 -58.0715
3.650000 85.015 -58.6177
3.700000 85.233 -59.1681
3.750000 85.448 -59.7244
3.820000 85.744 -60.5150
3.870000 85.952 -61.0897
3.950000 86.275 -62.0293
4.000000 86.471 -62.6308
4.060000 86.701 -63.3704
4.120000 86.925 -64.1353
4.180000 87.142 -64.9191
4.250000 87.388 -65.8465
4.310000 87.593 -66.6434
4.370000 87.792 -67.4333
4.440000 88.017 -68.3416
4.500000 88.202 -69.1192
4.550000 88.352 -69.7663
4.620000 88.555 -70.6689
4.680000 88.724 -71.4377
4.750000 88.915 -72.3268
4.820000 89.099 -73.2098
4.870000 89.226 -73.8395
4.940000 89.398 -74.7156
5.000000 89.541 -75.4578
5.080000 89.724 -76.4286
5.150000 89.878 -77.2553
5.220000 90.026 -78.0664
5.300000 90.187 -78.9746
5.380000 90.342 -79.8590
5.450000 90.472 -80.6104
5.520000 90.600 -81.3383
5.600000 90.739 -82.1428
5.700000 90.905 -83.1101
5.800000 91.065 -84.0373
5.900000 91.222 -84.9256
6.000000 91.375 -85.7671
6.080000 91.494 -86.4135
6.150000 91.597 -86.9660
6.220000 91.699 -87.5115
6.300000 91.814 -88.1238
6.400000 91.956 -88.8659
6.500000 92.095 -89.5931
6.600000 92.232 -90.3172
6.700000 92.365 -91.0387
6.800000 92.496 -91.7533
6.900000 92.624 -92.4623
7.000000 92.748 -93.1667
7.100000 92.868 -93.8663
7.200000 92.985 -94.5605
7.300000 93.098 -95.2486
7.400000 93.207 -95.9312
7.500000 93.312 -96.6092
7.620000 93.434 -97.4119
7.750000 93.559 -98.2630
7.880000 93.678 -99.0978
8.000000 93.783 -99.8500
8.120000 93.884 -100.5803
8.250000 93.988 -101.3488
8.380000 94.088 -102.0927
8.500000 94.179 -102.7550
8.620000 94.267 -103.3935
8.750000 94.360 -104.0656
8.850000 94.432 -104.5716
9.000000 94.540 -105.3067
9.120000 94.626 -105.8872
9.250000 94.720 -106.5167
9.380000 94.815 -107.1420
9.500000 94.901 -107.7250
9.620000 94.984 -108.3194
9.750000 95.071 -108.9720
9.880000 95.149 -109.6324
10.000000 95.212 -110.2523
10.150000 95.280 -111.0364
10.300000 95.338 -111.8105
10.440000 95.381 -112.5245
10.600000 95.424 -113.3270
10.750000 95.463 -114.0593
10.900000 95.500 -114.7764
11.060000 95.539 -115.5315
11.200000 95.574 -116.1838
11.380000 95.619 -117.0078
11.500000 95.648 -117.5463
11.720000 95.703 -118.5167
11.800000 95.723 -118.8649
12.060000 95.792 -119.9820
12.200000 95.830 -120.5837
12.410000 95.889 -121.4828
12.500000 95.914 -121.8648
12.650000 95.954 -122.4981
12.800000 95.992 -123.1241
13.150000 96.078 -124.5493
13.200000 96.090 -124.7486
13.400000 96.139 -125.5347
13.600000 96.187 -126.3020
13.800000 96.235 -127.0491
14.000000 96.283 -127.7808
14.300000 96.353 -128.8509
14.500000 96.398 -129.5461
14.750000 96.453 -130.3962
15.000000 96.509 -131.2270
15.250000 96.566 -132.0454
15.500000 96.624 -132.8489
15.750000 96.680 -133.6367
16.000000 96.733 -134.4077
16.250000 96.783 -135.1649
16.500000 96.831 -135.9085
16.750000 96.878 -136.6376
17.000000 96.923 -137.3510
17.250000 96.967 -138.0493
17.500000 97.011 -138.7334
17.750000 97.053 -139.4097
18.000000 97.093 -140.0823
18.250000 97.131 -140.7559
18.500000 97.167 -141.4276
18.750000 97.201 -142.0934
19.000000 97.234 -142.7497
19.250000 97.265 -143.3937
19.500000 97.295 -144.0240
19.750000 97.323 -144.6395
20.000000 97.351 -145.2402
20.299999 97.385 -145.9448
20.600000 97.418 -146.6352
20.900000 97.450 -147.3152
21.200001 97.482 -147.9882
21.400000 97.502 -148.4335
21.799999 97.540 -149.3163
22.000000 97.558 -149.7534
22.400000 97.590 -150.6171
22.700001 97.612 -151.2505
23.000000 97.631 -151.8659
23.299999 97.649 -152.4612
23.600000 97.667 -153.0390
24.000000 97.692 -153.7912
24.299999 97.711 -154.3503
24.700001 97.735 -155.0931
25.000000 97.750 -155.6428
25.400000 97.767 -156.3529
25.799999 97.784 -157.0299
26.200001 97.802 -157.6889
26.500000 97.817 -158.1883
26.900000 97.835 -158.8723
27.200001 97.844 -159.3907
27.600000 97.850 -160.0613
28.000000 97.852 -160.6794
28.500000 97.862 -161.3916
29.000000 97.883 -162.1251
29.500000 97.903 -162.9417
30.000000 97.904 -163.7788
30.400000 97.893 -164.3745
30.700001 97.885 -164.7541
31.100000 97.883 -165.2011
31.500000 97.896 -165.6508
32.000000 97.923 -166.3153
32.500000 97.940 -167.0952
33.000000 97.936 -167.8830
33.500000 97.917 -168.5862
34.000000 97.898 -169.1961
34.500000 97.883 -169.7571
35.000000 97.873 -170.3002
35.500000 97.865 -170.8355
36.000000 97.856 -171.3648
36.500000 97.844 -171.8862
37.000000 97.830 -172.3926
37.500000 97.817 -172.8795
38.200001 97.803 -173.5552
38.700001 97.796 -174.0685
39.500000 97.777 -174.9414
40.000000 97.760 -175.4747
40.599998 97.738 -176.0775
41.200001 97.718 -176.6535
41.799999 97.699 -177.2129
42.500000 97.682 -177.8477
43.099998 97.668 -178.3884
43.700001 97.653 -178.9250
44.400002 97.632 -179.5170
45.000000 97.613 -179.9839
45.500000 97.599 179.6396
46.200001 97.577 179.1074
46.799999 97.553 178.6596
47.500000 97.522 178.1882
48.200001 97.498 177.7524
48.700001 97.486 177.4152
49.400002 97.467 176.8726
50.000000 97.441 176.3857
50.799999 97.401 175.7876
51.500000 97.368 175.3072
52.200001 97.338 174.8372
53.000000 97.307 174.3132
53.799999 97.278 173.8052
54.500000 97.250 173.3693
55.200001 97.220 172.9460
56.000000 97.184 172.4851
57.000000 97.137 171.9442
58.000000 97.085 171.4324
59.000000 97.031 170.9794
60.000000 96.989 170.5410
60.799999 96.960 170.1111
61.500000 96.929 169.7135
62.200001 96.892 169.3483
63.000000 96.851 168.9643
64.000000 96.800 168.4973
65.000000 96.752 168.0447
66.000000 96.704 167.6054
67.000000 96.657 167.1789
68.000000 96.609 166.7733
69.000000 96.564 166.3752
70.000000 96.517 165.9406
71.000000 96.457 165.5522
72.000000 96.402 165.2609
73.000000 96.357 164.9716
74.000000 96.311 164.6602
75.000000 96.262 164.3477
76.199997 96.202 163.9750
77.500000 96.138 163.5688
78.800003 96.074 163.1710
80.000000 96.015 162.8294
81.199997 95.957 162.5053
82.500000 95.892 162.1678
83.800003 95.825 161.8499
85.000000 95.764 161.5732
86.199997 95.706 161.2977
87.500000 95.644 161.0029
88.500000 95.598 160.7861
90.000000 95.531 160.4686
91.199997 95.477 160.2271
92.500000 95.422 159.9728
93.800003 95.367 159.7233
95.000000 95.314 159.5024
96.199997 95.261 159.2874
97.500000 95.200 159.0691
98.800003 95.138 158.8905
100.000000 95.082 158.7365
101.500000 95.013 158.5268
103.000000 94.945 158.3241
104.400002 94.883 158.1281
106.000000 94.810 157.9203
107.500000 94.744 157.7528
109.000000 94.679 157.5926
110.599998 94.609 157.4282
112.000000 94.548 157.2912
113.800003 94.471 157.1186
115.000000 94.422 157.0032
117.199997 94.335 156.7659
118.000000 94.303 156.6797
120.599998 94.195 156.4888
122.000000 94.140 156.4333
124.099998 94.063 156.3419
125.000000 94.029 156.2935
126.500000 93.971 156.2122
128.000000 93.914 156.1406
131.500000 93.789 156.0074
132.000000 93.772 155.9888
134.000000 93.703 155.9148
136.000000 93.636 155.8566
138.000000 93.569 155.8082
140.000000 93.502 155.7500
143.000000 93.404 155.6968
145.000000 93.342 155.6896
147.500000 93.264 155.6965
150.000000 93.189 155.7064
152.500000 93.114 155.7032
155.000000 93.039 155.7082
157.500000 92.966 155.7385
160.000000 92.894 155.7817
162.500000 92.825 155.8278
165.000000 92.757 155.8620
167.500000 92.688 155.9063
170.000000 92.617 155.9797
172.500000 92.548 156.0507
175.000000 92.478 156.1122
177.500000 92.407 156.1919
180.000000 92.339 156.2780
182.500000 92.273 156.3679
185.000000 92.208 156.4632
187.500000 92.144 156.5558
190.000000 92.082 156.6499
192.500000 92.021 156.7562
195.000000 91.963 156.8797
197.500000 91.906 157.0167
200.000000 91.850 157.1622
203.000000 91.784 157.3346
206.000000 91.715 157.4910
209.000000 91.646 157.6357
212.000000 91.582 157.8052
214.000000 91.542 157.9378
218.000000 91.462 158.1878
220.000000 91.423 158.3008
224.000000 91.349 158.5258
227.000000 91.295 158.7003
230.000000 91.239 158.8961
233.000000 91.183 159.1168
236.000000 91.131 159.3329
240.000000 91.062 159.6087
243.000000 91.008 159.8298
247.000000 90.939 160.1203
250.000000 90.891 160.3294
254.000000 90.829 160.6277
258.000000 90.768 160.9298
262.000000 90.709 161.2244
265.000000 90.667 161.4498
269.000000 90.613 161.7566
272.000000 90.574 161.9853
276.000000 90.526 162.2954
280.000000 90.479 162.6071
285.000000 90.423 162.9808
290.000000 90.371 163.3520
295.000000 90.318 163.7215
300.000000 90.263 164.1153
304.000000 90.217 164.4351
307.000000 90.186 164.6527
311.000000 90.149 164.9279
315.000000 90.116 165.2036
320.000000 90.072 165.5552
325.000000 90.025 165.9205
330.000000 89.979 166.2834
335.000000 89.937 166.6247
340.000000 89.897 166.9837
345.000000 89.855 167.3604
350.000000 89.814 167.7294
355.000000 89.774 168.1023
360.000000 89.733 168.4842
365.000000 89.697 168.8512
370.000000 89.662 169.2099
375.000000 89.627 169.5696
382.000000 89.581 170.0814
387.000000 89.547 170.4517
395.000000 89.494 171.0309
400.000000 89.462 171.3815
406.000000 89.425 171.8345
412.000000 89.388 172.2945
418.000000 89.352 172.7446
425.000000 89.311 173.2644
431.000000 89.276 173.7062
437.000000 89.242 174.1411
444.000000 89.205 174.6469
450.000000 89.173 175.0815
455.000000 89.148 175.4448
462.000000 89.113 175.9521
468.000000 89.085 176.3918
475.000000 89.054 176.9039
482.000000 89.027 177.4096
487.000000 89.011 177.7686
494.000000 88.990 178.2666
500.000000 88.974 178.6951
508.000000 88.950 179.2744
515.000000 88.928 179.7837
522.000000 88.907 -179.7054
530.000000 88.888 -179.1199
538.000000 88.871 -178.5433
545.000000 88.856 -178.0443
552.000000 88.841 -177.5378
560.000000 88.826 -176.9550
570.000000 88.809 -176.2433
580.000000 88.793 -175.5150
590.000000 88.779 -174.7794
600.000000 88.768 -174.0565
608.000000 88.759 -173.4791
615.000000 88.753 -172.9613
622.000000 88.749 -172.4309
630.000000 88.743 -171.8277
640.000000 88.735 -171.0904
650.000000 88.730 -170.3500
660.000000 88.722 -169.6011
670.000000 88.706 -168.8332
680.000000 88.690 -168.0724
690.000000 88.683 -167.2995
700.000000 88.689 -166.5307
710.000000 88.708 -165.7817
720.000000 88.728 -165.0046
730.000000 88.740 -164.2216
740.000000 88.753 -163.4343
750.000000 88.770 -162.6372
762.000000 88.790 -161.6756
775.000000 88.815 -160.6055
788.000000 88.852 -159.5352
800.000000 88.905 -158.5721
812.000000 88.965 -157.6244
825.000000 89.023 -156.5662
838.000000 89.078 -155.5188
850.000000 89.147 -154.6022
862.000000 89.234 -153.7365
875.000000 89.334 -152.8499
885.000000 89.410 -152.1996
900.000000 89.529 -151.3150
912.000000 89.628 -150.6625
925.000000 89.730 -150.0253
938.000000 89.823 -149.4346
950.000000 89.917 -148.9279
962.000000 90.032 -148.5148
975.000000 90.166 -148.1157
988.000000 90.287 -147.7063
1000.000000 90.379 -147.3547
1015.000000 90.472 -147.0339
1030.000000 90.562 -146.8311
1044.000000 90.637 -146.7043
1060.000000 90.695 -146.5301
1075.000000 90.731 -146.2308
1090.000000 90.782 -145.8547
1106.000000 90.856 -145.4558
1120.000000 90.921 -145.0836
1138.000000 91.010 -144.5365
1150.000000 91.078 -144.1588
1172.000000 91.221 -143.5443
1180.000000 91.274 -143.3501
1206.000000 91.440 -142.8214
1220.000000 91.529 -142.5899
1241.000000 91.660 -142.2721
1250.000000 91.716 -142.1375
1265.000000 91.807 -141.9211
1280.000000 91.895 -141.7091
1315.000000 92.086 -141.2430
1320.000000 92.113 -141.1815
1340.000000 92.211 -140.9349
1360.000000 92.290 -140.6813
1380.000000 92.365 -140.4279
1400.000000 92.451 -140.1838
1430.000000 92.587 -139.8252
1450.000000 92.670 -139.5804
1475.000000 92.764 -139.2629
1500.000000 92.865 -138.9555
1525.000000 92.975 -138.6629
1550.000000 93.079 -138.3682
1575.000000 93.173 -138.0686
1600.000000 93.260 -137.7761
1625.000000 93.342 -137.4850
1650.000000 93.425 -137.1877
1675.000000 93.513 -136.8959
1700.000000 93.599 -136.6094
1725.000000 93.680 -136.3131
1750.000000 93.760 -136.0117
1775.000000 93.836 -135.6919
1800.000000 93.907 -135.3378
1825.000000 93.973 -134.9467
1850.000000 94.037 -134.4870
1875.000000 94.106 -133.9101
1900.000000 94.189 -133.2081
1925.000000 94.307 -132.4374
1950.000000 94.474 -131.7456
1975.000000 94.679 -131.2921
2000.000000 94.883 -131.1644
2030.000000 95.089 -131.3848
2060.000000 95.254 -131.7902
2090.000000 95.387 -132.2153
2120.000000 95.488 -132.5925
2140.000000 95.540 -132.8083
2180.000000 95.620 -133.1625
2200.000000 95.653 -133.3019
2240.000000 95.714 -133.5040
2270.000000 95.758 -133.5839
2300.000000 95.785 -133.5673
2330.000000 95.791 -133.3955
2360.000000 95.785 -133.0123
2400.000000 95.799 -132.0722
2430.000000 95.860 -131.0125
2470.000000 96.057 -129.3257
2500.000000 96.308 -128.2095
2540.000000 96.735 -127.5167
2580.000000 97.166 -127.9641
2620.000000 97.511 -129.2233
2650.000000 97.700 -130.3949
2690.000000 97.876 -131.9684
2720.000000 97.964 -133.0666
2760.000000 98.045 -134.3955
2800.000000 98.099 -135.5829
2850.000000 98.146 -136.9015
2900.000000 98.173 -138.0689
2950.000000 98.182 -139.1086
3000.000000 98.177 -140.0202
3040.000000 98.166 -140.6844
3070.000000 98.155 -141.1398
3110.000000 98.145 -141.6881
3150.000000 98.141 -142.1990
3200.000000 98.139 -142.8341
3250.000000 98.130 -143.4877
3300.000000 98.108 -144.1315
3350.000000 98.074 -144.7404
3400.000000 98.037 -145.3106
3450.000000 97.997 -145.8334
3500.000000 97.957 -146.3150
3550.000000 97.918 -146.7532
3600.000000 97.879 -147.1398
3650.000000 97.838 -147.4879
3700.000000 97.794 -147.8125
3750.000000 97.746 -148.1051
3820.000000 97.668 -148.4466
3870.000000 97.613 -148.6582
3950.000000 97.530 -148.9453
4000.000000 97.475 -149.0992
4060.000000 97.407 -149.2654
4120.000000 97.342 -149.4116
4180.000000 97.280 -149.5481
4250.000000 97.206 -149.6993
4310.000000 97.135 -149.8337
4370.000000 97.053 -149.9643
4440.000000 96.946 -150.0932
4500.000000 96.847 -150.1887
4550.000000 96.761 -150.2647
4620.000000 96.641 -150.3669
4680.000000 96.537 -150.4525
4750.000000 96.408 -150.5341
4820.000000 96.271 -150.5833
4870.000000 96.168 -150.5894
4940.000000 96.018 -150.5619
5000.000000 95.885 -150.4986
5080.000000 95.704 -150.3443
5150.000000 95.538 -150.1749
5220.000000 95.368 -149.9653
5300.000000 95.171 -149.6510
5380.000000 94.973 -149.2346
5450.000000 94.801 -148.7867
5520.000000 94.631 -148.2749
5600.000000 94.438 -147.6155
5700.000000 94.200 -146.6660
5800.000000 93.977 -145.5721
5900.000000 93.772 -144.3382
6000.000000 93.578 -143.0033
6080.000000 93.431 -141.8754
6150.000000 93.311 -140.8510
6220.000000 93.202 -139.8050
6300.000000 93.091 -138.5914
6400.000000 92.963 -137.0354
6500.000000 92.841 -135.3987
6600.000000 92.734 -133.6019
6700.000000 92.666 -131.6335
6800.000000 92.665 -129.5710
6900.000000 92.745 -127.5256
7000.000000 92.902 -125.6142
7100.000000 93.118 -123.9087
7200.000000 93.392 -122.4645
7300.000000 93.722 -121.3823
7400.000000 94.103 -120.7844
7500.000000 94.530 -120.8145
7620.000000 95.093 -121.8973
7750.000000 95.697 -124.6236
7880.000000 96.114 -129.1162
8000.000000 96.255 -134.6497
8120.000000 96.105 -140.9444
8250.000000 95.589 -147.6848
8380.000000 94.748 -153.3735
8500.000000 93.763 -157.1470
8620.000000 92.663 -159.3726
8750.000000 91.422 -160.2036
8850.000000 90.469 -159.9162
9000.000000 89.094 -158.2668
9120.000000 88.059 -156.0929
9250.000000 87.008 -153.0876
9380.000000 86.029 -149.5826
9500.000000 85.186 -145.9996
9620.000000 84.395 -142.1594
9750.000000 83.593 -137.7720
9880.000000 82.842 -133.1523
10000.000000 82.187 -128.6808
10150.000000 81.410 -122.7955
10300.000000 80.670 -116.5188
10440.000000 80.009 -110.2434
10600.000000 79.297 -102.4758
10750.000000 78.689 -94.5128
10900.000000 78.167 -85.7881
11060.000000 77.755 -75.5489
11200.000000 77.581 -65.8421
11380.000000 77.738 -52.7642
11500.000000 78.136 -44.2453
11720.000000 79.389 -31.0673
11800.000000 79.927 -27.4905
12060.000000 81.500 -20.3253
12200.000000 82.104 -18.1769
12410.000000 82.713 -15.1468
12500.000000 82.911 -13.6137
12650.000000 83.221 -10.6305
12800.000000 83.557 -7.1670
13150.000000 84.647 1.9362
13200.000000 84.851 3.2599
13400.000000 85.816 8.3525
13600.000000 87.061 12.7066
13800.000000 88.628 15.5399
14000.000000 90.491 15.6247
14300.000000 93.312 6.7652
14500.000000 94.523 -6.7206
14750.000000 94.584 -27.4429
15000.000000 93.195 -42.9710
15250.000000 91.250 -50.1344
15500.000000 89.538 -52.0902
15750.000000 88.295 -52.1564
16000.000000 87.372 -52.1204
16250.000000 86.583 -52.7803
16500.000000 85.769 -54.4952
16750.000000 84.786 -57.6093
17000.000000 83.372 -61.6924
17250.000000 81.038 -58.2803
17500.000000 78.937 -41.4184
17750.000000 78.663 -31.6474
18000.000000 78.302 -28.9386
18250.000000 77.568 -25.8765
18500.000000 76.766 -21.8417
18750.000000 75.977 -17.5550
19000.000000 75.159 -13.5199
19250.000000 74.203 -9.7672
19500.000000 72.989 -5.6840
19750.000000 71.476 -0.0680
20000.000000 69.681 8.3113
20300.000000 67.382 23.1039
20600.000000 65.435 42.7647
20900.000000 64.316 65.6605
21200.000000 64.267 89.3845
21400.000000 64.816 104.3929
21800.000000 66.906 128.8740
22000.000000 68.113 133.9321
22400.000000 69.396 9.1416
22700.000000 67.694 138.0449
23000.000000 62.762 68.4692
23300.000000 55.246 -175.5410
23600.000000 47.110 -133.4434
24000.000000 43.130 153.1719
