* Measurement data measured by REW V5.20.13
* Source: Headset (DS by VECLAN.COM), MICROPHONE (Master Volume), L, volume: 0.720. Timing signal peak level -16.9 dBFS, measurement signal peak level -15.7 dBFS
* Format: 4M Log Swept Sine, 1 sweep at -12.0 dBFS using an acoustic timing reference
* Dated: Dec 6, 2023 12:07:33 PM
* REW Settings:
*  C-weighting compensation: Off
*  Target level: 75.0 dB
* Note: ; Apple + Abigail Delay -0.0679 ms (-23 mm, -0.92 in) using estimated IR delay relative to Acoustic reference played from  R with no timing offset
* Measurement: Moondrop KATO S1 R
* Smoothing: 1/24 octave
* Frequency Step: 1/48 octave
* Start Frequency: 1.000 Hz
*
* Freq(Hz) SPL(dB) Phase(degrees)
1.000000 67.901 -1.3503
1.015000 68.145 -3.0610
1.030000 68.390 -4.7043
1.044000 68.618 -6.1704
1.060000 68.880 -7.7578
1.075000 69.124 -9.1524
1.090000 69.368 -10.4487
1.106000 69.628 -11.7170
1.120000 69.861 -12.7436
1.138000 70.170 -13.9602
1.150000 70.381 -14.7106
1.172000 70.776 -15.9700
1.180000 70.922 -16.3931
1.206000 71.403 -17.6521
1.220000 71.666 -18.2632
1.241000 72.062 -19.1031
1.250000 72.232 -19.4379
1.265000 72.517 -19.9663
1.280000 72.800 -20.4620
1.315000 73.455 -21.5198
1.320000 73.548 -21.6624
1.340000 73.913 -22.2186
1.360000 74.271 -22.7614
1.380000 74.619 -23.3027
1.400000 74.955 -23.8544
1.430000 75.434 -24.7273
1.450000 75.733 -25.3569
1.475000 76.082 -26.2085
1.500000 76.410 -27.0588
1.525000 76.721 -27.8887
1.550000 77.014 -28.6988
1.575000 77.293 -29.4895
1.600000 77.559 -30.2616
1.625000 77.812 -31.0155
1.650000 78.055 -31.7520
1.675000 78.289 -32.4715
1.700000 78.515 -33.1746
1.725000 78.736 -33.8620
1.750000 78.952 -34.5341
1.775000 79.165 -35.1917
1.800000 79.376 -35.8352
1.825000 79.588 -36.4653
1.850000 79.797 -37.0776
1.875000 79.999 -37.6620
1.900000 80.192 -38.2212
1.925000 80.378 -38.7582
1.950000 80.558 -39.2762
1.975000 80.732 -39.7782
2.000000 80.902 -40.2673
2.030000 81.100 -40.8417
2.060000 81.294 -41.4074
2.090000 81.486 -41.9698
2.120000 81.676 -42.5343
2.140000 81.802 -42.9144
2.180000 82.057 -43.6908
2.200000 82.185 -44.0903
2.240000 82.442 -44.8944
2.270000 82.633 -45.4961
2.300000 82.822 -46.0969
2.330000 83.008 -46.6970
2.360000 83.192 -47.2965
2.400000 83.435 -48.0955
2.430000 83.614 -48.6946
2.470000 83.848 -49.4939
2.500000 84.021 -50.0938
2.540000 84.248 -50.8949
2.580000 84.469 -51.6982
2.620000 84.686 -52.5081
2.650000 84.845 -53.1189
2.690000 85.054 -53.9358
2.720000 85.207 -54.5487
2.760000 85.408 -55.3640
2.800000 85.605 -56.1747
2.850000 85.845 -57.1773
2.900000 86.080 -58.1630
2.950000 86.308 -59.1265
3.000000 86.531 -60.0688
3.040000 86.704 -60.8103
3.070000 86.831 -61.3606
3.110000 86.997 -62.0885
3.150000 87.160 -62.8116
3.200000 87.358 -63.7122
3.250000 87.552 -64.6131
3.300000 87.742 -65.5186
3.350000 87.926 -66.4323
3.400000 88.105 -67.3511
3.450000 88.279 -68.2698
3.500000 88.449 -69.1832
3.550000 88.614 -70.0862
3.600000 88.775 -70.9735
3.650000 88.932 -71.8400
3.700000 89.086 -72.6822
3.750000 89.235 -73.5035
3.820000 89.437 -74.6254
3.870000 89.577 -75.4118
3.950000 89.794 -76.6542
4.000000 89.925 -77.4266
4.060000 90.079 -78.3548
4.120000 90.227 -79.2827
4.180000 90.370 -80.2052
4.250000 90.531 -81.2675
4.310000 90.665 -82.1601
4.370000 90.796 -83.0307
4.440000 90.945 -84.0128
4.500000 91.069 -84.8281
4.550000 91.168 -85.4921
4.620000 91.305 -86.4031
4.680000 91.418 -87.1713
4.750000 91.549 -88.0585
4.820000 91.677 -88.9374
4.870000 91.766 -89.5563
4.940000 91.889 -90.4109
5.000000 91.991 -91.1328
5.080000 92.124 -92.0808
5.150000 92.237 -92.8973
5.220000 92.348 -93.7004
5.300000 92.470 -94.6023
5.380000 92.589 -95.4884
5.450000 92.690 -96.2518
5.520000 92.789 -97.0048
5.600000 92.898 -97.8514
5.700000 93.029 -98.8888
5.800000 93.156 -99.9048
5.900000 93.279 -100.9002
6.000000 93.398 -101.8725
6.080000 93.490 -102.6357
6.150000 93.568 -103.2947
6.220000 93.645 -103.9472
6.300000 93.731 -104.6847
6.400000 93.835 -105.5920
6.500000 93.936 -106.4848
6.600000 94.032 -107.3649
6.700000 94.124 -108.2346
6.800000 94.211 -109.0916
6.900000 94.296 -109.9314
7.000000 94.377 -110.7500
7.100000 94.455 -111.5480
7.200000 94.529 -112.3275
7.300000 94.601 -113.0903
7.400000 94.672 -113.8366
7.500000 94.739 -114.5651
7.620000 94.818 -115.4194
7.750000 94.901 -116.3242
7.880000 94.980 -117.2051
8.000000 95.051 -118.0006
8.120000 95.120 -118.7831
8.250000 95.192 -119.6146
8.380000 95.260 -120.4290
8.500000 95.322 -121.1656
8.620000 95.380 -121.8874
8.750000 95.442 -122.6535
8.850000 95.488 -123.2313
9.000000 95.554 -124.0784
9.120000 95.606 -124.7430
9.250000 95.662 -125.4521
9.380000 95.718 -126.1482
9.500000 95.766 -126.7835
9.620000 95.811 -127.4144
9.750000 95.857 -128.0910
9.880000 95.895 -128.7603
10.000000 95.921 -129.3737
10.150000 95.944 -130.1318
10.300000 95.959 -130.8676
10.440000 95.963 -131.5335
10.600000 95.963 -132.2724
10.750000 95.964 -132.9420
10.900000 95.964 -133.5919
11.060000 95.965 -134.2753
11.200000 95.967 -134.8648
11.380000 95.970 -135.6062
11.500000 95.972 -136.0892
11.720000 95.975 -136.9538
11.800000 95.977 -137.2614
12.060000 95.985 -138.2393
12.200000 95.990 -138.7593
12.410000 96.000 -139.5278
12.500000 96.004 -139.8507
12.650000 96.010 -140.3813
12.800000 96.015 -140.9003
13.150000 96.024 -142.0611
13.200000 96.026 -142.2215
13.400000 96.033 -142.8489
13.600000 96.041 -143.4564
13.800000 96.052 -144.0435
14.000000 96.063 -144.6198
14.300000 96.081 -145.4685
14.500000 96.092 -146.0280
14.750000 96.106 -146.7211
15.000000 96.119 -147.4071
15.250000 96.132 -148.0854
15.500000 96.144 -148.7430
15.750000 96.153 -149.3731
16.000000 96.161 -149.9665
16.250000 96.167 -150.5290
16.500000 96.175 -151.0651
16.750000 96.185 -151.5822
17.000000 96.197 -152.0903
17.250000 96.211 -152.5935
17.500000 96.225 -153.0961
17.750000 96.238 -153.5987
18.000000 96.249 -154.0999
18.250000 96.258 -154.5981
18.500000 96.265 -155.0845
18.750000 96.271 -155.5567
19.000000 96.278 -156.0126
19.250000 96.286 -156.4569
19.500000 96.295 -156.8926
19.750000 96.304 -157.3220
20.000000 96.313 -157.7462
20.299999 96.323 -158.2475
20.600000 96.332 -158.7391
20.900000 96.341 -159.2191
21.200001 96.347 -159.6870
21.400000 96.352 -159.9923
21.799999 96.359 -160.5880
22.000000 96.362 -160.8790
22.400000 96.367 -161.4486
22.700001 96.370 -161.8640
23.000000 96.373 -162.2686
23.299999 96.376 -162.6642
23.600000 96.379 -163.0536
24.000000 96.384 -163.5674
24.299999 96.387 -163.9504
24.700001 96.390 -164.4561
25.000000 96.391 -164.8274
25.400000 96.391 -165.3061
25.799999 96.391 -165.7636
26.200001 96.391 -166.2047
26.500000 96.392 -166.5294
26.900000 96.393 -166.9579
27.200001 96.393 -167.2754
27.600000 96.392 -167.6914
28.000000 96.391 -168.0976
28.500000 96.390 -168.5962
29.000000 96.391 -169.0936
29.500000 96.391 -169.5932
30.000000 96.386 -170.0863
30.400000 96.379 -170.4656
30.700001 96.372 -170.7376
31.100000 96.364 -171.0858
31.500000 96.358 -171.4247
32.000000 96.352 -171.8461
32.500000 96.345 -172.2657
33.000000 96.335 -172.6726
33.500000 96.324 -173.0596
34.000000 96.316 -173.4354
34.500000 96.310 -173.8154
35.000000 96.305 -174.2028
35.500000 96.298 -174.5870
36.000000 96.290 -174.9529
36.500000 96.282 -175.2978
37.000000 96.274 -175.6362
37.500000 96.266 -175.9802
38.200001 96.254 -176.4583
38.700001 96.244 -176.7845
39.500000 96.229 -177.2876
40.000000 96.221 -177.5991
40.599998 96.210 -177.9705
41.200001 96.200 -178.3397
41.799999 96.188 -178.7098
42.500000 96.172 -179.1379
43.099998 96.157 -179.4863
43.700001 96.142 -179.8084
44.400002 96.127 179.8360
45.000000 96.117 179.5314
45.500000 96.108 179.2758
46.200001 96.095 178.9210
46.799999 96.084 178.6182
47.500000 96.070 178.2633
48.200001 96.054 177.9188
48.700001 96.042 177.6840
49.400002 96.025 177.3611
50.000000 96.012 177.0814
50.799999 95.992 176.7091
51.500000 95.974 176.3915
52.200001 95.957 176.0761
53.000000 95.938 175.7143
53.799999 95.918 175.3658
54.500000 95.900 175.0717
55.200001 95.882 174.7808
56.000000 95.862 174.4659
57.000000 95.838 174.1006
58.000000 95.812 173.7732
59.000000 95.796 173.4911
60.000000 95.785 173.0767
60.799999 95.758 172.6818
61.500000 95.726 172.4137
62.200001 95.696 172.2084
63.000000 95.668 171.9702
64.000000 95.633 171.6544
65.000000 95.604 171.3281
66.000000 95.574 170.9778
67.000000 95.541 170.6529
68.000000 95.510 170.3702
69.000000 95.483 170.0948
70.000000 95.454 169.8146
71.000000 95.423 169.5419
72.000000 95.391 169.2752
73.000000 95.359 169.0180
74.000000 95.326 168.7756
75.000000 95.291 168.5432
76.199997 95.251 168.2778
77.500000 95.211 167.9945
78.800003 95.169 167.6995
80.000000 95.125 167.4574
81.199997 95.088 167.2477
82.500000 95.051 166.9340
83.800003 95.001 166.6146
85.000000 94.960 166.3737
86.199997 94.926 166.1270
87.500000 94.890 165.8558
88.500000 94.864 165.6678
90.000000 94.825 165.3956
91.199997 94.792 165.1805
92.500000 94.754 164.9578
93.800003 94.714 164.7539
95.000000 94.677 164.5739
96.199997 94.641 164.3875
97.500000 94.602 164.1787
98.800003 94.562 163.9744
100.000000 94.523 163.7975
101.500000 94.475 163.5747
103.000000 94.425 163.3694
104.400002 94.378 163.2043
106.000000 94.324 163.0304
107.500000 94.276 162.8635
109.000000 94.229 162.6774
110.599998 94.176 162.4885
112.000000 94.132 162.3455
113.800003 94.078 162.1751
115.000000 94.041 162.0657
117.199997 93.973 161.8721
118.000000 93.949 161.8101
120.599998 93.873 161.5917
122.000000 93.831 161.4615
124.099998 93.768 161.2918
125.000000 93.742 161.2214
126.500000 93.697 161.1076
128.000000 93.653 161.0094
131.500000 93.556 160.8274
132.000000 93.543 160.7996
134.000000 93.490 160.6850
136.000000 93.438 160.5849
138.000000 93.388 160.4998
140.000000 93.337 160.4078
143.000000 93.262 160.2931
145.000000 93.213 160.2361
147.500000 93.154 160.1615
150.000000 93.096 160.0994
152.500000 93.035 160.0557
155.000000 92.973 160.0179
157.500000 92.912 159.9749
160.000000 92.851 159.9379
162.500000 92.793 159.9256
165.000000 92.734 159.9212
167.500000 92.672 159.9177
170.000000 92.608 159.9244
172.500000 92.546 159.9344
175.000000 92.488 159.9484
177.500000 92.431 159.9710
180.000000 92.374 159.9940
182.500000 92.315 160.0327
185.000000 92.256 160.0876
187.500000 92.198 160.1375
190.000000 92.142 160.1890
192.500000 92.088 160.2488
195.000000 92.033 160.3159
197.500000 91.979 160.3972
200.000000 91.927 160.4838
203.000000 91.870 160.5811
206.000000 91.813 160.6494
209.000000 91.752 160.7095
212.000000 91.696 160.8152
214.000000 91.659 160.9158
218.000000 91.584 161.1075
220.000000 91.547 161.1838
224.000000 91.477 161.3344
227.000000 91.424 161.4528
230.000000 91.370 161.5881
233.000000 91.319 161.7565
236.000000 91.268 161.9164
240.000000 91.200 162.1035
243.000000 91.155 162.2606
247.000000 91.096 162.4801
250.000000 91.050 162.6300
254.000000 90.990 162.8553
258.000000 90.933 163.1076
262.000000 90.877 163.3417
265.000000 90.835 163.5095
269.000000 90.781 163.7312
272.000000 90.743 163.9072
276.000000 90.694 164.1550
280.000000 90.645 164.3888
285.000000 90.585 164.6823
290.000000 90.525 164.9923
295.000000 90.468 165.2933
300.000000 90.411 165.6183
304.000000 90.363 165.9041
307.000000 90.328 166.0988
311.000000 90.286 166.3519
315.000000 90.248 166.6212
320.000000 90.201 166.9574
325.000000 90.151 167.2753
330.000000 90.102 167.6100
335.000000 90.056 167.9572
340.000000 90.011 168.2987
345.000000 89.966 168.6461
350.000000 89.922 168.9922
355.000000 89.878 169.3409
360.000000 89.834 169.6995
365.000000 89.794 170.0580
370.000000 89.755 170.4124
375.000000 89.718 170.7650
382.000000 89.666 171.2639
387.000000 89.629 171.6251
395.000000 89.570 172.1964
400.000000 89.536 172.5397
406.000000 89.496 172.9824
412.000000 89.457 173.4364
418.000000 89.419 173.8813
425.000000 89.377 174.3976
431.000000 89.341 174.8336
437.000000 89.307 175.2514
444.000000 89.270 175.7384
450.000000 89.239 176.1681
455.000000 89.214 176.5321
462.000000 89.180 177.0401
468.000000 89.151 177.4699
475.000000 89.119 177.9582
482.000000 89.088 178.4468
487.000000 89.067 178.8035
494.000000 89.039 179.3075
500.000000 89.017 179.7377
508.000000 88.989 -179.6940
515.000000 88.965 -179.1853
522.000000 88.942 -178.6675
530.000000 88.918 -178.0815
538.000000 88.898 -177.5100
545.000000 88.879 -177.0049
552.000000 88.861 -176.4868
560.000000 88.842 -175.8940
570.000000 88.821 -175.1688
580.000000 88.802 -174.4227
590.000000 88.783 -173.6675
600.000000 88.764 -172.9171
608.000000 88.748 -172.3036
615.000000 88.738 -171.7473
622.000000 88.729 -171.1774
630.000000 88.720 -170.5279
640.000000 88.711 -169.7318
650.000000 88.707 -168.9283
660.000000 88.707 -168.1150
670.000000 88.709 -167.3199
680.000000 88.716 -166.5438
690.000000 88.729 -165.7772
700.000000 88.743 -165.0250
710.000000 88.762 -164.2820
720.000000 88.782 -163.5514
730.000000 88.799 -162.8463
740.000000 88.817 -162.1412
750.000000 88.837 -161.4299
762.000000 88.863 -160.5792
775.000000 88.891 -159.6540
788.000000 88.921 -158.7301
800.000000 88.952 -157.8864
812.000000 88.986 -157.0319
825.000000 89.028 -156.1086
838.000000 89.073 -155.1975
850.000000 89.117 -154.3523
862.000000 89.167 -153.5146
875.000000 89.224 -152.6339
885.000000 89.270 -151.9685
900.000000 89.343 -150.9887
912.000000 89.408 -150.2103
925.000000 89.482 -149.3962
938.000000 89.556 -148.6120
950.000000 89.629 -147.9112
962.000000 89.704 -147.2319
975.000000 89.790 -146.5034
988.000000 89.883 -145.7921
1000.000000 89.968 -145.1734
1015.000000 90.063 -144.4817
1030.000000 90.161 -143.8458
1044.000000 90.257 -143.2779
1060.000000 90.373 -142.6568
1075.000000 90.484 -142.1234
1090.000000 90.596 -141.6322
1106.000000 90.720 -141.1361
1120.000000 90.834 -140.7530
1138.000000 90.978 -140.3037
1150.000000 91.069 -140.0201
1172.000000 91.231 -139.5356
1180.000000 91.288 -139.3688
1206.000000 91.469 -138.8830
1220.000000 91.567 -138.6574
1241.000000 91.712 -138.3325
1250.000000 91.773 -138.1925
1265.000000 91.873 -137.9701
1280.000000 91.969 -137.7558
1315.000000 92.181 -137.2794
1320.000000 92.210 -137.2159
1340.000000 92.319 -136.9611
1360.000000 92.406 -136.6964
1380.000000 92.489 -136.4325
1400.000000 92.583 -136.1790
1430.000000 92.726 -135.7940
1450.000000 92.822 -135.5389
1475.000000 92.939 -135.2176
1500.000000 93.055 -134.8964
1525.000000 93.168 -134.5762
1550.000000 93.274 -134.2560
1575.000000 93.378 -133.9348
1600.000000 93.481 -133.6219
1625.000000 93.582 -133.3175
1650.000000 93.683 -133.0060
1675.000000 93.786 -132.6983
1700.000000 93.888 -132.4048
1725.000000 93.987 -132.1135
1750.000000 94.086 -131.8286
1775.000000 94.186 -131.5412
1800.000000 94.286 -131.2467
1825.000000 94.387 -130.9550
1850.000000 94.490 -130.6617
1875.000000 94.598 -130.3651
1900.000000 94.711 -130.0903
1925.000000 94.827 -129.8624
1950.000000 94.943 -129.6953
1975.000000 95.059 -129.5743
2000.000000 95.168 -129.4879
2030.000000 95.284 -129.4173
2060.000000 95.394 -129.3381
2090.000000 95.504 -129.2442
2120.000000 95.610 -129.1436
2140.000000 95.679 -129.0662
2180.000000 95.816 -128.8591
2200.000000 95.885 -128.7237
2240.000000 96.036 -128.3963
2270.000000 96.166 -128.1628
2300.000000 96.309 -128.0129
2330.000000 96.455 -127.9717
2360.000000 96.599 -128.0143
2400.000000 96.785 -128.1093
2430.000000 96.928 -128.1863
2470.000000 97.136 -128.3894
2500.000000 97.299 -128.6941
2540.000000 97.505 -129.3678
2580.000000 97.681 -130.2756
2620.000000 97.818 -131.2819
2650.000000 97.898 -132.0417
2690.000000 97.982 -133.0123
2720.000000 98.031 -133.6998
2760.000000 98.084 -134.5797
2800.000000 98.126 -135.4365
2850.000000 98.163 -136.4782
2900.000000 98.181 -137.4590
2950.000000 98.182 -138.3498
3000.000000 98.175 -139.1469
3040.000000 98.169 -139.7845
3070.000000 98.161 -140.2761
3110.000000 98.145 -140.9397
3150.000000 98.118 -141.5984
3200.000000 98.066 -142.3783
3250.000000 97.995 -143.0796
3300.000000 97.914 -143.6811
3350.000000 97.826 -144.1935
3400.000000 97.736 -144.6414
3450.000000 97.646 -145.0273
3500.000000 97.556 -145.3459
3550.000000 97.466 -145.5999
3600.000000 97.375 -145.7921
3650.000000 97.283 -145.9333
3700.000000 97.189 -146.0367
3750.000000 97.091 -146.0941
3820.000000 96.946 -146.0790
3870.000000 96.837 -145.9978
3950.000000 96.655 -145.7283
4000.000000 96.542 -145.4757
4060.000000 96.414 -145.0968
4120.000000 96.291 -144.6347
4180.000000 96.176 -144.1087
4250.000000 96.053 -143.4505
4310.000000 95.951 -142.8654
4370.000000 95.847 -142.2460
4440.000000 95.727 -141.4640
4500.000000 95.631 -140.7523
4550.000000 95.557 -140.1403
4620.000000 95.460 -139.2598
4680.000000 95.382 -138.4808
4750.000000 95.297 -137.5330
4820.000000 95.222 -136.5564
4870.000000 95.174 -135.8511
4940.000000 95.118 -134.8755
5000.000000 95.081 -134.0508
5080.000000 95.049 -132.9558
5150.000000 95.035 -132.0427
5220.000000 95.033 -131.1970
5300.000000 95.047 -130.3295
5380.000000 95.075 -129.5945
5450.000000 95.110 -129.0891
5520.000000 95.150 -128.7382
5600.000000 95.194 -128.5424
5700.000000 95.228 -128.6013
5800.000000 95.217 -128.9762
5900.000000 95.136 -129.5391
6000.000000 94.973 -130.0698
6080.000000 94.789 -130.2894
6150.000000 94.600 -130.2304
6220.000000 94.397 -129.9020
6300.000000 94.165 -129.2073
6400.000000 93.893 -127.9112
6500.000000 93.659 -126.2291
6600.000000 93.477 -124.2551
6700.000000 93.354 -122.0821
6800.000000 93.299 -119.8138
6900.000000 93.331 -117.5210
7000.000000 93.451 -115.2708
7100.000000 93.651 -113.1449
7200.000000 93.934 -111.2492
7300.000000 94.298 -109.7437
7400.000000 94.732 -108.8007
7500.000000 95.222 -108.5922
7620.000000 95.862 -109.5515
7750.000000 96.542 -112.3340
7880.000000 97.018 -117.0532
8000.000000 97.188 -122.8845
8120.000000 97.042 -129.4429
8250.000000 96.512 -136.2846
8380.000000 95.660 -141.8444
8500.000000 94.684 -145.3743
8620.000000 93.617 -147.3433
8750.000000 92.434 -147.9439
8850.000000 91.540 -147.5343
9000.000000 90.262 -145.8214
9120.000000 89.317 -143.7185
9250.000000 88.373 -140.9039
9380.000000 87.506 -137.6886
9500.000000 86.768 -134.4619
9620.000000 86.085 -131.0535
9750.000000 85.401 -127.2018
9880.000000 84.771 -123.2221
10000.000000 84.227 -119.4679
10150.000000 83.591 -114.6651
10300.000000 82.997 -109.7093
10440.000000 82.479 -104.9353
10600.000000 81.931 -99.3030
10750.000000 81.463 -93.8522
10900.000000 81.043 -88.2587
11060.000000 80.650 -82.1770
11200.000000 80.353 -76.7858
11380.000000 80.033 -69.7843
11500.000000 79.862 -65.1021
11720.000000 79.637 -56.5896
11800.000000 79.583 -53.5377
12060.000000 79.497 -43.8292
12200.000000 79.497 -38.7691
12410.000000 79.541 -31.4322
12500.000000 79.574 -28.3743
12650.000000 79.650 -23.3851
12800.000000 79.748 -18.5175
13150.000000 80.065 -7.4855
13200.000000 80.123 -5.9406
13400.000000 80.394 0.1433
13600.000000 80.746 6.0009
13800.000000 81.199 11.4866
14000.000000 81.751 16.4189
14300.000000 82.725 22.4457
14500.000000 83.448 25.2773
14750.000000 84.378 27.0364
15000.000000 85.217 26.5532
15250.000000 85.841 24.0537
15500.000000 86.194 20.2990
15750.000000 86.273 16.2805
16000.000000 86.114 12.6848
16250.000000 85.801 9.4504
16500.000000 85.331 5.7423
16750.000000 84.451 1.5438
17000.000000 82.891 1.0940
17250.000000 81.306 7.0002
17500.000000 80.447 13.6241
17750.000000 79.836 18.4795
18000.000000 79.127 23.1863
18250.000000 78.349 28.6825
18500.000000 77.599 35.0021
18750.000000 76.911 42.0677
19000.000000 76.296 49.7071
19250.000000 75.735 57.7907
19500.000000 75.213 66.2568
19750.000000 74.756 75.0663
20000.000000 74.324 84.2247
20300.000000 73.884 95.5145
20600.000000 73.719 106.9547
20900.000000 73.879 118.2963
21200.000000 74.359 128.7644
21400.000000 74.819 134.6861
21800.000000 75.786 142.3462
22000.000000 76.105 141.6853
22400.000000 75.658 37.7474
22700.000000 73.143 -75.3997
23000.000000 67.771 -63.6523
23300.000000 59.929 52.9590
23600.000000 50.747 -17.0625
24000.000000 41.544 115.3633
