* Measurement data measured by REW V5.20.13
* Source: Headset (DS by VECLAN.COM), MICROPHONE (Master Volume), L, volume: 0.720. Timing signal peak level -15.6 dBFS, measurement signal peak level -15.2 dBFS
* Format: 4M Log Swept Sine, 1 sweep at -12.0 dBFS using an acoustic timing reference
* Dated: Dec 6, 2023 10:41:03 AM
* REW Settings:
*  C-weighting compensation: Off
*  Target level: 75.0 dB
* Note: ; Apple + Abigail Delay -0.0675 ms (-23 mm, -0.91 in) using estimated IR delay relative to Acoustic reference played from  L with no timing offset Clock adjustment: -0.2 ppm
* Measurement: Brass W1 L
* Smoothing: 1/24 octave
* Frequency Step: 1/48 octave
* Start Frequency: 1.000 Hz
*
* Freq(Hz) SPL(dB) Phase(degrees)
1.000000 66.984 -11.0564
1.015000 67.656 -11.7417
1.030000 68.301 -12.4200
1.044000 68.872 -13.0451
1.060000 69.484 -13.7476
1.075000 70.012 -14.3925
1.090000 70.490 -15.0219
1.106000 70.944 -15.6770
1.120000 71.315 -16.2522
1.138000 71.768 -16.9982
1.150000 72.054 -17.4987
1.172000 72.550 -18.4213
1.180000 72.721 -18.7578
1.206000 73.247 -19.8532
1.220000 73.512 -20.4428
1.241000 73.888 -21.3246
1.250000 74.042 -21.7011
1.265000 74.290 -22.3258
1.280000 74.527 -22.9462
1.315000 75.047 -24.3718
1.320000 75.118 -24.5724
1.340000 75.395 -25.3658
1.360000 75.663 -26.1429
1.380000 75.924 -26.9016
1.400000 76.180 -27.6395
1.430000 76.562 -28.7023
1.450000 76.818 -29.3781
1.475000 77.142 -30.1824
1.500000 77.448 -30.9425
1.525000 77.733 -31.6627
1.550000 77.999 -32.3470
1.575000 78.249 -32.9994
1.600000 78.483 -33.6240
1.625000 78.705 -34.2250
1.650000 78.916 -34.8064
1.675000 79.119 -35.3722
1.700000 79.315 -35.9266
1.725000 79.506 -36.4736
1.750000 79.695 -37.0173
1.775000 79.883 -37.5618
1.800000 80.073 -38.1111
1.825000 80.266 -38.6694
1.850000 80.461 -39.2339
1.875000 80.651 -39.7907
1.900000 80.835 -40.3397
1.925000 81.014 -40.8816
1.950000 81.189 -41.4169
1.975000 81.360 -41.9462
2.000000 81.527 -42.4701
2.030000 81.724 -43.0925
2.060000 81.918 -43.7090
2.090000 82.110 -44.3206
2.120000 82.300 -44.9283
2.140000 82.427 -45.3318
2.180000 82.680 -46.1362
2.200000 82.808 -46.5376
2.240000 83.063 -47.3326
2.270000 83.252 -47.9205
2.300000 83.440 -48.5025
2.330000 83.626 -49.0795
2.360000 83.810 -49.6525
2.400000 84.053 -50.4118
2.430000 84.232 -50.9792
2.470000 84.468 -51.7345
2.500000 84.642 -52.3015
2.540000 84.870 -53.0598
2.580000 85.093 -53.8225
2.620000 85.313 -54.5862
2.650000 85.474 -55.1589
2.690000 85.686 -55.9221
2.720000 85.842 -56.4939
2.760000 86.047 -57.2554
2.800000 86.248 -58.0155
2.850000 86.494 -58.9631
2.900000 86.733 -59.9071
2.950000 86.967 -60.8477
3.000000 87.194 -61.7891
3.040000 87.371 -62.5421
3.070000 87.501 -63.1059
3.110000 87.671 -63.8555
3.150000 87.838 -64.6014
3.200000 88.042 -65.5266
3.250000 88.240 -66.4414
3.300000 88.435 -67.3434
3.350000 88.624 -68.2328
3.400000 88.807 -69.1117
3.450000 88.985 -69.9812
3.500000 89.159 -70.8423
3.550000 89.327 -71.6963
3.600000 89.492 -72.5442
3.650000 89.653 -73.3872
3.700000 89.810 -74.2265
3.750000 89.963 -75.0624
3.820000 90.169 -76.2235
3.870000 90.311 -77.0442
3.950000 90.532 -78.3375
4.000000 90.665 -79.1308
4.060000 90.820 -80.0656
4.120000 90.970 -80.9844
4.180000 91.114 -81.8880
4.250000 91.277 -82.9236
4.310000 91.411 -83.7955
4.370000 91.543 -84.6532
4.440000 91.692 -85.6358
4.500000 91.815 -86.4620
4.550000 91.914 -87.1393
4.620000 92.049 -88.0711
4.680000 92.162 -88.8549
4.750000 92.291 -89.7528
4.820000 92.418 -90.6310
4.870000 92.506 -91.2450
4.940000 92.626 -92.0885
5.000000 92.727 -92.7990
5.080000 92.857 -93.7323
5.150000 92.969 -94.5390
5.220000 93.077 -95.3343
5.300000 93.197 -96.2279
5.380000 93.313 -97.1055
5.450000 93.412 -97.8605
5.520000 93.509 -98.6037
5.600000 93.616 -99.4376
5.700000 93.744 -100.4576
5.800000 93.868 -101.4553
5.900000 93.989 -102.4321
6.000000 94.106 -103.3842
6.080000 94.196 -104.1310
6.150000 94.274 -104.7763
6.220000 94.349 -105.4165
6.300000 94.434 -106.1419
6.400000 94.536 -107.0365
6.500000 94.635 -107.9174
6.600000 94.729 -108.7845
6.700000 94.819 -109.6393
6.800000 94.906 -110.4807
6.900000 94.988 -111.3056
7.000000 95.068 -112.1108
7.100000 95.144 -112.8973
7.200000 95.217 -113.6662
7.300000 95.288 -114.4181
7.400000 95.357 -115.1525
7.500000 95.424 -115.8683
7.620000 95.502 -116.7081
7.750000 95.584 -117.6002
7.880000 95.663 -118.4707
8.000000 95.733 -119.2590
8.120000 95.802 -120.0368
8.250000 95.873 -120.8658
8.380000 95.942 -121.6806
8.500000 96.003 -122.4204
8.620000 96.060 -123.1486
8.750000 96.121 -123.9230
8.850000 96.165 -124.5077
9.000000 96.229 -125.3672
9.120000 96.278 -126.0408
9.250000 96.331 -126.7567
9.380000 96.383 -127.4578
9.500000 96.427 -128.0945
9.620000 96.468 -128.7227
9.750000 96.508 -129.3924
9.880000 96.542 -130.0503
10.000000 96.564 -130.6487
10.150000 96.583 -131.3824
10.300000 96.591 -132.0904
10.440000 96.592 -132.7264
10.600000 96.592 -133.4291
10.750000 96.592 -134.0643
10.900000 96.591 -134.6792
11.060000 96.592 -135.3273
11.200000 96.594 -135.8874
11.380000 96.599 -136.5937
11.500000 96.601 -137.0552
11.720000 96.607 -137.8844
11.800000 96.610 -138.1806
12.060000 96.622 -139.1271
12.200000 96.631 -139.6347
12.410000 96.645 -140.3908
12.500000 96.650 -140.7113
12.650000 96.658 -141.2418
12.800000 96.665 -141.7649
13.150000 96.677 -142.9515
13.200000 96.679 -143.1162
13.400000 96.684 -143.7631
13.600000 96.689 -144.3852
13.800000 96.694 -144.9793
14.000000 96.699 -145.5488
14.300000 96.707 -146.3595
14.500000 96.713 -146.8748
14.750000 96.723 -147.5032
15.000000 96.737 -148.1218
15.250000 96.754 -148.7481
15.500000 96.772 -149.3781
15.750000 96.787 -150.0081
16.000000 96.798 -150.6274
16.250000 96.804 -151.2260
16.500000 96.807 -151.7977
16.750000 96.809 -152.3347
17.000000 96.812 -152.8388
17.250000 96.818 -153.3160
17.500000 96.826 -153.7744
17.750000 96.836 -154.2312
18.000000 96.847 -154.6935
18.250000 96.858 -155.1692
18.500000 96.868 -155.6532
18.750000 96.875 -156.1379
19.000000 96.881 -156.6160
19.250000 96.886 -157.0800
19.500000 96.890 -157.5270
19.750000 96.893 -157.9552
20.000000 96.897 -158.3655
20.299999 96.902 -158.8405
20.600000 96.910 -159.3032
20.900000 96.918 -159.7601
21.200001 96.925 -160.2153
21.400000 96.930 -160.5174
21.799999 96.937 -161.1140
22.000000 96.940 -161.4062
22.400000 96.943 -161.9737
22.700001 96.944 -162.3816
23.000000 96.946 -162.7743
23.299999 96.948 -163.1562
23.600000 96.952 -163.5326
24.000000 96.957 -164.0337
24.299999 96.961 -164.4116
24.700001 96.965 -164.9147
25.000000 96.965 -165.2842
25.400000 96.963 -165.7565
25.799999 96.961 -166.2005
26.200001 96.960 -166.6224
26.500000 96.960 -166.9314
26.900000 96.961 -167.3401
27.200001 96.961 -167.6453
27.600000 96.961 -168.0487
28.000000 96.960 -168.4475
28.500000 96.958 -168.9431
29.000000 96.956 -169.4374
29.500000 96.952 -169.9208
30.000000 96.943 -170.3775
30.400000 96.936 -170.7204
30.700001 96.931 -170.9685
31.100000 96.925 -171.2970
31.500000 96.922 -171.6304
32.000000 96.916 -172.0513
32.500000 96.909 -172.4604
33.000000 96.900 -172.8466
33.500000 96.892 -173.2188
34.000000 96.886 -173.5961
34.500000 96.881 -173.9834
35.000000 96.874 -174.3680
35.500000 96.866 -174.7348
36.000000 96.858 -175.0797
36.500000 96.850 -175.4090
37.000000 96.842 -175.7351
37.500000 96.834 -176.0636
38.200001 96.821 -176.5192
38.700001 96.812 -176.8398
39.500000 96.795 -177.3506
40.000000 96.782 -177.6604
40.599998 96.768 -178.0142
41.200001 96.754 -178.3560
41.799999 96.741 -178.6974
42.500000 96.727 -179.0958
43.099998 96.716 -179.4291
43.700001 96.704 -179.7509
44.400002 96.693 179.8823
45.000000 96.682 179.5687
45.500000 96.673 179.3109
46.200001 96.658 178.9658
46.799999 96.645 178.6849
47.500000 96.632 178.3613
48.200001 96.618 178.0367
48.700001 96.606 177.8078
49.400002 96.590 177.4921
50.000000 96.576 177.2234
50.799999 96.557 176.8671
51.500000 96.540 176.5594
52.200001 96.524 176.2557
53.000000 96.506 175.9133
53.799999 96.488 175.5828
54.500000 96.472 175.3043
55.200001 96.454 175.0322
56.000000 96.434 174.7375
57.000000 96.410 174.3929
58.000000 96.380 174.0630
59.000000 96.352 173.7961
60.000000 96.336 173.4796
60.799999 96.320 173.1211
61.500000 96.294 172.8214
62.200001 96.267 172.5796
63.000000 96.239 172.3276
64.000000 96.208 172.0025
65.000000 96.179 171.6828
66.000000 96.152 171.3688
67.000000 96.124 171.0678
68.000000 96.096 170.7807
69.000000 96.066 170.5075
70.000000 96.035 170.2463
71.000000 96.004 169.9859
72.000000 95.972 169.7202
73.000000 95.941 169.4625
74.000000 95.909 169.2131
75.000000 95.877 168.9649
76.199997 95.839 168.6763
77.500000 95.799 168.3743
78.800003 95.760 168.0773
80.000000 95.724 167.8150
81.199997 95.686 167.5624
82.500000 95.643 167.2995
83.800003 95.600 167.0480
85.000000 95.563 166.8201
86.199997 95.528 166.5918
87.500000 95.491 166.3429
88.500000 95.462 166.1565
90.000000 95.417 165.8956
91.199997 95.380 165.7061
92.500000 95.341 165.5075
93.800003 95.302 165.3068
95.000000 95.265 165.1221
96.199997 95.227 164.9448
97.500000 95.187 164.7637
98.800003 95.148 164.5905
100.000000 95.110 164.4317
101.500000 95.063 164.2251
103.000000 95.016 164.0285
104.400002 94.970 163.8596
106.000000 94.918 163.6905
107.500000 94.873 163.5337
109.000000 94.827 163.3739
110.599998 94.777 163.2131
112.000000 94.733 163.0842
113.800003 94.676 162.9310
115.000000 94.639 162.8256
117.199997 94.572 162.6041
118.000000 94.548 162.5197
120.599998 94.470 162.2743
122.000000 94.429 162.1882
124.099998 94.372 162.0806
125.000000 94.346 162.0344
126.500000 94.303 161.9593
128.000000 94.260 161.8835
131.500000 94.166 161.7083
132.000000 94.153 161.6843
134.000000 94.102 161.5904
136.000000 94.051 161.5107
138.000000 94.002 161.4302
140.000000 93.952 161.3390
143.000000 93.881 161.2438
145.000000 93.835 161.2000
147.500000 93.775 161.1489
150.000000 93.716 161.1107
152.500000 93.657 161.0762
155.000000 93.597 161.0376
157.500000 93.537 161.0032
160.000000 93.477 160.9818
162.500000 93.419 160.9854
165.000000 93.364 160.9984
167.500000 93.306 161.0063
170.000000 93.245 161.0275
172.500000 93.184 161.0609
175.000000 93.126 161.0913
177.500000 93.066 161.1343
180.000000 93.008 161.1811
182.500000 92.953 161.2221
185.000000 92.899 161.2649
187.500000 92.844 161.3170
190.000000 92.789 161.3790
192.500000 92.735 161.4473
195.000000 92.683 161.5204
197.500000 92.632 161.6061
200.000000 92.584 161.6970
203.000000 92.530 161.7928
206.000000 92.474 161.8841
209.000000 92.415 161.9719
212.000000 92.360 162.0898
214.000000 92.324 162.1918
218.000000 92.251 162.3883
220.000000 92.215 162.4758
224.000000 92.144 162.6481
227.000000 92.091 162.7846
230.000000 92.039 162.9324
233.000000 91.991 163.0946
236.000000 91.945 163.2682
240.000000 91.882 163.4940
243.000000 91.833 163.6523
247.000000 91.768 163.8808
250.000000 91.725 164.0620
254.000000 91.671 164.3040
258.000000 91.617 164.5388
262.000000 91.560 164.7681
265.000000 91.518 164.9432
269.000000 91.465 165.1905
272.000000 91.427 165.3818
276.000000 91.379 165.6381
280.000000 91.331 165.8908
285.000000 91.272 166.2028
290.000000 91.217 166.5340
295.000000 91.164 166.8865
300.000000 91.110 167.2712
304.000000 91.067 167.5547
307.000000 91.038 167.7388
311.000000 91.003 167.9869
315.000000 90.969 168.2576
320.000000 90.926 168.6074
325.000000 90.881 168.9530
330.000000 90.837 169.2997
335.000000 90.797 169.6428
340.000000 90.758 169.9983
345.000000 90.718 170.3683
350.000000 90.678 170.7354
355.000000 90.637 171.1017
360.000000 90.598 171.4757
365.000000 90.562 171.8369
370.000000 90.526 172.1991
375.000000 90.491 172.5650
382.000000 90.445 173.0612
387.000000 90.411 173.4183
395.000000 90.355 173.9947
400.000000 90.320 174.3442
406.000000 90.283 174.7909
412.000000 90.248 175.2384
418.000000 90.216 175.6618
425.000000 90.179 176.1624
431.000000 90.145 176.6002
437.000000 90.113 177.0237
444.000000 90.081 177.4972
450.000000 90.053 177.9099
455.000000 90.029 178.2656
462.000000 89.996 178.7653
468.000000 89.967 179.1873
475.000000 89.936 179.6776
482.000000 89.906 -179.8323
487.000000 89.886 -179.4816
494.000000 89.860 -178.9954
500.000000 89.839 -178.5799
508.000000 89.811 -178.0125
515.000000 89.785 -177.5027
522.000000 89.759 -176.9819
530.000000 89.732 -176.3813
538.000000 89.709 -175.7884
545.000000 89.689 -175.2572
552.000000 89.672 -174.7058
560.000000 89.654 -174.0746
570.000000 89.636 -173.3096
580.000000 89.620 -172.5300
590.000000 89.605 -171.7430
600.000000 89.591 -170.9707
608.000000 89.580 -170.3486
615.000000 89.573 -169.7893
622.000000 89.568 -169.2202
630.000000 89.563 -168.5770
640.000000 89.558 -167.7998
650.000000 89.555 -167.0231
660.000000 89.554 -166.2395
670.000000 89.555 -165.4731
680.000000 89.559 -164.7164
690.000000 89.566 -163.9511
700.000000 89.574 -163.1884
710.000000 89.587 -162.4226
720.000000 89.602 -161.6547
730.000000 89.616 -160.9028
740.000000 89.633 -160.1499
750.000000 89.654 -159.3930
762.000000 89.681 -158.4872
775.000000 89.711 -157.5039
788.000000 89.744 -156.5331
800.000000 89.780 -155.6530
812.000000 89.819 -154.7631
825.000000 89.864 -153.8073
838.000000 89.913 -152.8705
850.000000 89.960 -152.0048
862.000000 90.011 -151.1477
875.000000 90.071 -150.2500
885.000000 90.118 -149.5719
900.000000 90.194 -148.5683
912.000000 90.261 -147.7737
925.000000 90.335 -146.9440
938.000000 90.411 -146.1411
950.000000 90.484 -145.4187
962.000000 90.559 -144.7126
975.000000 90.645 -143.9509
988.000000 90.740 -143.2045
1000.000000 90.830 -142.5605
1015.000000 90.934 -141.8370
1030.000000 91.035 -141.1471
1044.000000 91.132 -140.5249
1060.000000 91.246 -139.8405
1075.000000 91.351 -139.2286
1090.000000 91.460 -138.6611
1106.000000 91.587 -138.0986
1120.000000 91.701 -137.6369
1138.000000 91.847 -137.0918
1150.000000 91.943 -136.7474
1172.000000 92.117 -136.1501
1180.000000 92.178 -135.9418
1206.000000 92.375 -135.3108
1220.000000 92.483 -135.0091
1241.000000 92.646 -134.5808
1250.000000 92.715 -134.4000
1265.000000 92.828 -134.1122
1280.000000 92.938 -133.8391
1315.000000 93.188 -133.2620
1320.000000 93.223 -133.1874
1340.000000 93.353 -132.8960
1360.000000 93.462 -132.6110
1380.000000 93.567 -132.3409
1400.000000 93.682 -132.0853
1430.000000 93.856 -131.7094
1450.000000 93.972 -131.4700
1475.000000 94.115 -131.1767
1500.000000 94.255 -130.8923
1525.000000 94.393 -130.6194
1550.000000 94.524 -130.3633
1575.000000 94.651 -130.1261
1600.000000 94.774 -129.9077
1625.000000 94.894 -129.7043
1650.000000 95.015 -129.4971
1675.000000 95.135 -129.2988
1700.000000 95.253 -129.1129
1725.000000 95.367 -128.9296
1750.000000 95.481 -128.7609
1775.000000 95.594 -128.6054
1800.000000 95.705 -128.4624
1825.000000 95.816 -128.3448
1850.000000 95.925 -128.2444
1875.000000 96.032 -128.1486
1900.000000 96.137 -128.0569
1925.000000 96.239 -127.9651
1950.000000 96.340 -127.8719
1975.000000 96.441 -127.7656
2000.000000 96.540 -127.6480
2030.000000 96.650 -127.4883
2060.000000 96.769 -127.2675
2090.000000 96.908 -127.0019
2120.000000 97.070 -126.7734
2140.000000 97.189 -126.6918
2180.000000 97.439 -126.7989
2200.000000 97.559 -126.9987
2240.000000 97.772 -127.6068
2270.000000 97.907 -128.1618
2300.000000 98.020 -128.7429
2330.000000 98.119 -129.3227
2360.000000 98.206 -129.8942
2400.000000 98.307 -130.6379
2430.000000 98.373 -131.1836
2470.000000 98.449 -131.9101
2500.000000 98.498 -132.4470
2540.000000 98.553 -133.1601
2580.000000 98.597 -133.8621
2620.000000 98.630 -134.5493
2650.000000 98.648 -135.0535
2690.000000 98.662 -135.6973
2720.000000 98.664 -136.1562
2760.000000 98.657 -136.7409
2800.000000 98.640 -137.2939
2850.000000 98.607 -137.9372
2900.000000 98.562 -138.5174
2950.000000 98.502 -139.0276
3000.000000 98.432 -139.4453
3040.000000 98.371 -139.7397
3070.000000 98.323 -139.9290
3110.000000 98.256 -140.1256
3150.000000 98.188 -140.2697
3200.000000 98.101 -140.3946
3250.000000 98.012 -140.4643
3300.000000 97.921 -140.4659
3350.000000 97.831 -140.3976
3400.000000 97.741 -140.2718
3450.000000 97.654 -140.0888
3500.000000 97.571 -139.8465
3550.000000 97.487 -139.5436
3600.000000 97.401 -139.1627
3650.000000 97.315 -138.6868
3700.000000 97.233 -138.1078
3750.000000 97.162 -137.4242
3820.000000 97.087 -136.3539
3870.000000 97.051 -135.5786
3950.000000 97.014 -134.3909
4000.000000 97.002 -133.7031
4060.000000 96.995 -132.9416
4120.000000 96.989 -132.2268
4180.000000 96.980 -131.5233
4250.000000 96.968 -130.6444
4310.000000 96.964 -129.7971
4370.000000 96.982 -128.9053
4440.000000 97.034 -128.0216
4500.000000 97.083 -127.5112
4550.000000 97.112 -127.2083
4620.000000 97.137 -126.8472
4680.000000 97.151 -126.5562
4750.000000 97.161 -126.2428
4820.000000 97.167 -125.9725
4870.000000 97.166 -125.8009
4940.000000 97.158 -125.5889
5000.000000 97.146 -125.4226
5080.000000 97.123 -125.1875
5150.000000 97.095 -124.9750
5220.000000 97.061 -124.7546
5300.000000 97.018 -124.4843
5380.000000 96.973 -124.1962
5450.000000 96.934 -123.9370
5520.000000 96.896 -123.6808
5600.000000 96.855 -123.3970
5700.000000 96.809 -123.0729
5800.000000 96.765 -122.8472
5900.000000 96.717 -122.7984
6000.000000 96.645 -122.9832
6080.000000 96.552 -123.2861
6150.000000 96.432 -123.6033
6220.000000 96.270 -123.8733
6300.000000 96.028 -123.9638
6400.000000 95.662 -123.4701
6500.000000 95.278 -122.1010
6600.000000 94.937 -119.8849
6700.000000 94.690 -117.0627
6800.000000 94.565 -113.9415
6900.000000 94.581 -110.7734
7000.000000 94.729 -107.7582
7100.000000 94.981 -105.0517
7200.000000 95.319 -102.7683
7300.000000 95.729 -101.0322
7400.000000 96.194 -99.9651
7500.000000 96.697 -99.6774
7620.000000 97.330 -100.5017
7750.000000 97.978 -102.9844
7880.000000 98.411 -107.1358
8000.000000 98.554 -112.1495
8120.000000 98.418 -117.6616
8250.000000 97.956 -123.3016
8380.000000 97.225 -127.7956
8500.000000 96.391 -130.5739
8620.000000 95.477 -132.0408
8750.000000 94.461 -132.3318
8850.000000 93.692 -131.7898
9000.000000 92.590 -129.9411
9120.000000 91.762 -127.7304
9250.000000 90.924 -124.7755
9380.000000 90.150 -121.3694
9500.000000 89.498 -117.8809
9620.000000 88.906 -114.1073
9750.000000 88.332 -109.7493
9880.000000 87.827 -105.1534
10000.000000 87.420 -100.7429
10150.000000 86.987 -95.0733
10300.000000 86.631 -89.2994
10440.000000 86.365 -83.8563
10600.000000 86.140 -77.6031
10750.000000 86.006 -71.7425
10900.000000 85.949 -65.9096
11060.000000 85.977 -59.7309
11200.000000 86.075 -54.3916
11380.000000 86.308 -47.6753
11500.000000 86.538 -43.3262
11720.000000 87.123 -35.7576
11800.000000 87.392 -33.1828
12060.000000 88.487 -25.7809
12200.000000 89.223 -22.6683
12410.000000 90.516 -19.7662
12500.000000 91.132 -19.4090
12650.000000 92.193 -20.4187
12800.000000 93.191 -23.9142
13150.000000 94.321 -41.7294
13200.000000 94.271 -44.8136
13400.000000 93.525 -55.8277
13600.000000 92.145 -62.6687
13800.000000 90.543 -64.9879
14000.000000 89.030 -63.9993
14300.000000 87.180 -58.9851
14500.000000 86.234 -54.4487
14750.000000 85.339 -48.2731
15000.000000 84.708 -42.0863
15250.000000 84.302 -36.2621
15500.000000 84.119 -31.0512
15750.000000 84.131 -26.6945
16000.000000 84.271 -23.4965
16250.000000 84.495 -22.0180
16500.000000 84.707 -23.3964
16750.000000 84.574 -28.9703
17000.000000 83.355 -33.1794
17250.000000 81.570 -24.0402
17500.000000 81.258 -16.9782
17750.000000 80.989 -17.0411
18000.000000 80.273 -16.7731
18250.000000 79.399 -15.0725
18500.000000 78.492 -12.6560
18750.000000 77.557 -9.7653
19000.000000 76.562 -6.4555
19250.000000 75.466 -2.6877
19500.000000 74.233 1.7739
19750.000000 72.899 7.2778
20000.000000 71.463 14.1525
20300.000000 69.659 24.4510
20600.000000 68.009 37.0990
20900.000000 66.658 51.8219
21200.000000 65.738 68.0004
21400.000000 65.429 79.0420
21800.000000 65.576 99.1037
22000.000000 65.907 103.8420
22400.000000 65.980 -15.1266
22700.000000 63.828 130.7177
23000.000000 58.683 10.1787
23300.000000 51.203 21.8320
23600.000000 44.073 135.4531
24000.000000 41.726 -76.5703
