* Measurement data measured by REW V5.20.13
* Source: Headset (DS by VECLAN.COM), MICROPHONE (Master Volume), L, volume: 0.720. Timing signal peak level -17.7 dBFS, measurement signal peak level -15.0 dBFS
* Format: 4M Log Swept Sine, 1 sweep at -12.0 dBFS using an acoustic timing reference
* Dated: Dec 5, 2023 3:52:04 PM
* REW Settings:
*  C-weighting compensation: Off
*  Target level: 75.0 dB
* Note: ; Apple + Abigail Delay -0.0635 ms (-22 mm, -0.86 in) using estimated IR delay relative to Acoustic reference played from  R with no timing offset
* Measurement: Moondrop Aria Spring R
* Smoothing: 1/24 octave
* Frequency Step: 1/48 octave
* Start Frequency: 1.000 Hz
*
* Freq(Hz) SPL(dB) Phase(degrees)
1.000000 56.885 83.6191
1.015000 56.888 84.3912
1.030000 56.894 84.9575
1.044000 56.901 85.2872
1.060000 56.915 85.4133
1.075000 56.933 85.2732
1.090000 56.957 84.8683
1.106000 56.987 84.1182
1.120000 57.004 83.1378
1.138000 57.010 81.4489
1.150000 57.006 80.0748
1.172000 56.984 77.0884
1.180000 56.972 75.8650
1.206000 56.926 71.4446
1.220000 56.899 68.8162
1.241000 56.857 64.6036
1.250000 56.841 62.7137
1.265000 56.816 59.4715
1.280000 56.796 56.1354
1.315000 56.782 48.1280
1.320000 56.785 46.9723
1.340000 56.808 42.3568
1.360000 56.858 37.7983
1.380000 56.938 33.3563
1.400000 57.052 29.0905
1.430000 57.297 23.1528
1.450000 57.516 19.5884
1.475000 57.861 15.6284
1.500000 58.296 11.8241
1.525000 58.813 8.0804
1.550000 59.399 4.4093
1.575000 60.044 0.8226
1.600000 60.736 -2.6679
1.625000 61.462 -6.0504
1.650000 62.212 -9.3129
1.675000 62.974 -12.4436
1.700000 63.736 -15.4307
1.725000 64.486 -18.2623
1.750000 65.213 -20.9267
1.775000 65.904 -23.4118
1.800000 66.550 -25.7060
1.825000 67.137 -27.7972
1.850000 67.669 -29.6565
1.875000 68.179 -31.2503
1.900000 68.669 -32.6027
1.925000 69.139 -33.7398
1.950000 69.593 -34.6878
1.975000 70.030 -35.4727
2.000000 70.453 -36.1208
2.030000 70.944 -36.7548
2.060000 71.417 -37.2744
2.090000 71.876 -37.7251
2.120000 72.323 -38.1518
2.140000 72.616 -38.4454
2.180000 73.190 -39.1144
2.200000 73.474 -39.5157
2.240000 74.022 -40.2653
2.270000 74.413 -40.7294
2.300000 74.788 -41.1246
2.330000 75.149 -41.4649
2.360000 75.498 -41.7638
2.400000 75.945 -42.1220
2.430000 76.270 -42.3782
2.470000 76.691 -42.7293
2.500000 76.999 -43.0177
2.540000 77.404 -43.4616
2.580000 77.802 -43.9958
2.620000 78.187 -44.5736
2.650000 78.465 -45.0240
2.690000 78.824 -45.6432
2.720000 79.084 -46.1191
2.760000 79.421 -46.7648
2.800000 79.748 -47.4189
2.850000 80.143 -48.2409
2.900000 80.526 -49.0589
2.950000 80.899 -49.8664
3.000000 81.257 -50.6830
3.040000 81.532 -51.3437
3.070000 81.732 -51.8415
3.110000 81.991 -52.5063
3.150000 82.242 -53.1695
3.200000 82.546 -53.9920
3.250000 82.841 -54.8020
3.300000 83.127 -55.5940
3.350000 83.403 -56.3652
3.400000 83.668 -57.1196
3.450000 83.921 -57.8627
3.500000 84.165 -58.5996
3.550000 84.400 -59.3355
3.600000 84.627 -60.0758
3.650000 84.847 -60.8256
3.700000 85.060 -61.5925
3.750000 85.265 -62.3793
3.820000 85.536 -63.4957
3.870000 85.722 -64.2900
3.950000 86.004 -65.5272
4.000000 86.174 -66.2638
4.060000 86.370 -67.0969
4.120000 86.556 -67.8863
4.180000 86.732 -68.6412
4.250000 86.928 -69.4880
4.310000 87.089 -70.1928
4.370000 87.245 -70.8861
4.440000 87.421 -71.6877
4.500000 87.565 -72.3650
4.550000 87.680 -72.9183
4.620000 87.835 -73.6701
4.680000 87.964 -74.2876
4.750000 88.114 -74.9694
4.820000 88.260 -75.6007
4.870000 88.362 -76.0213
4.940000 88.502 -76.5779
5.000000 88.619 -77.0343
5.080000 88.774 -77.6283
5.150000 88.908 -78.1470
5.220000 89.041 -78.6533
5.300000 89.191 -79.2142
5.380000 89.340 -79.7618
5.450000 89.468 -80.2349
5.520000 89.596 -80.7053
5.600000 89.742 -81.2305
5.700000 89.921 -81.8746
5.800000 90.099 -82.5197
5.900000 90.274 -83.1789
6.000000 90.448 -83.8431
6.080000 90.586 -84.3800
6.150000 90.704 -84.8572
6.220000 90.820 -85.3441
6.300000 90.949 -85.9157
6.400000 91.108 -86.6488
6.500000 91.261 -87.3923
6.600000 91.408 -88.1350
6.700000 91.548 -88.8814
6.800000 91.682 -89.6320
6.900000 91.811 -90.3754
7.000000 91.935 -91.1023
7.100000 92.053 -91.8193
7.200000 92.167 -92.5239
7.300000 92.278 -93.2107
7.400000 92.388 -93.8741
7.500000 92.494 -94.5159
7.620000 92.620 -95.2687
7.750000 92.756 -96.0745
7.880000 92.891 -96.8622
8.000000 93.014 -97.5856
8.120000 93.137 -98.3177
8.250000 93.269 -99.1141
8.380000 93.399 -99.9194
8.500000 93.515 -100.6776
8.620000 93.628 -101.4489
8.750000 93.746 -102.2907
8.850000 93.832 -102.9395
9.000000 93.956 -103.9215
9.120000 94.050 -104.6992
9.250000 94.146 -105.5238
9.380000 94.237 -106.3358
9.500000 94.316 -107.0625
9.620000 94.389 -107.7611
9.750000 94.463 -108.4910
9.880000 94.529 -109.1893
10.000000 94.583 -109.8020
10.150000 94.642 -110.5295
10.300000 94.698 -111.2240
10.440000 94.745 -111.8352
10.600000 94.800 -112.5179
10.750000 94.857 -113.1597
10.900000 94.916 -113.8019
11.060000 94.981 -114.5210
11.200000 95.039 -115.1792
11.380000 95.110 -116.0440
11.500000 95.152 -116.6354
11.720000 95.222 -117.7165
11.800000 95.244 -118.0990
12.060000 95.305 -119.3016
12.200000 95.334 -119.8956
12.410000 95.374 -120.7160
12.500000 95.392 -121.0334
12.650000 95.421 -121.5145
12.800000 95.453 -121.9538
13.150000 95.552 -122.8468
13.200000 95.569 -122.9730
13.400000 95.647 -123.4701
13.600000 95.735 -124.0100
13.800000 95.832 -124.6130
14.000000 95.927 -125.2960
14.300000 96.063 -126.4676
14.500000 96.140 -127.3255
14.750000 96.219 -128.4284
15.000000 96.278 -129.5344
15.250000 96.322 -130.5890
15.500000 96.355 -131.5635
15.750000 96.380 -132.4454
16.000000 96.403 -133.2328
16.250000 96.428 -133.9553
16.500000 96.456 -134.6316
16.750000 96.490 -135.2883
17.000000 96.527 -135.9441
17.250000 96.567 -136.6041
17.500000 96.607 -137.2722
17.750000 96.645 -137.9440
18.000000 96.681 -138.6174
18.250000 96.715 -139.2899
18.500000 96.748 -139.9569
18.750000 96.781 -140.6190
19.000000 96.814 -141.2768
19.250000 96.847 -141.9347
19.500000 96.878 -142.5896
19.750000 96.907 -143.2385
20.000000 96.934 -143.8707
20.299999 96.964 -144.5985
20.600000 96.995 -145.2894
20.900000 97.028 -145.9498
21.200001 97.066 -146.5989
21.400000 97.092 -147.0394
21.799999 97.146 -147.9541
22.000000 97.170 -148.4299
22.400000 97.209 -149.4018
22.700001 97.228 -150.1152
23.000000 97.240 -150.7818
23.299999 97.250 -151.3883
23.600000 97.260 -151.9404
24.000000 97.282 -152.6226
24.299999 97.304 -153.1265
24.700001 97.336 -153.8179
25.000000 97.359 -154.3543
25.400000 97.387 -155.0780
25.799999 97.410 -155.7888
26.200001 97.431 -156.4798
26.500000 97.446 -156.9918
26.900000 97.466 -157.6766
27.200001 97.478 -158.1930
27.600000 97.489 -158.8763
28.000000 97.496 -159.5356
28.500000 97.503 -160.3106
29.000000 97.515 -161.0497
29.500000 97.531 -161.7966
30.000000 97.543 -162.5731
30.400000 97.544 -163.1935
30.700001 97.541 -163.6380
31.100000 97.535 -164.1877
31.500000 97.533 -164.6971
32.000000 97.537 -165.3205
32.500000 97.542 -165.9670
33.000000 97.541 -166.6175
33.500000 97.536 -167.2268
34.000000 97.536 -167.7985
34.500000 97.543 -168.3944
35.000000 97.549 -169.0529
35.500000 97.544 -169.7345
36.000000 97.527 -170.3596
36.500000 97.508 -170.8969
37.000000 97.494 -171.3861
37.500000 97.485 -171.8723
38.200001 97.474 -172.5464
38.700001 97.469 -173.0144
39.500000 97.465 -173.8042
40.000000 97.458 -174.3270
40.599998 97.441 -174.9250
41.200001 97.423 -175.4638
41.799999 97.410 -175.9900
42.500000 97.395 -176.6352
43.099998 97.376 -177.1860
43.700001 97.356 -177.7118
44.400002 97.334 -178.3193
45.000000 97.313 -178.8456
45.500000 97.294 -179.2731
46.200001 97.267 -179.8520
46.799999 97.246 179.6445
47.500000 97.216 179.0517
48.200001 97.180 178.5164
48.700001 97.157 178.1854
49.400002 97.132 177.7487
50.000000 97.118 177.3467
50.799999 97.095 176.7598
51.500000 97.065 176.2557
52.200001 97.031 175.8055
53.000000 96.998 175.3306
53.799999 96.965 174.8535
54.500000 96.934 174.4587
55.200001 96.905 174.1147
56.000000 96.887 173.7342
57.000000 96.874 173.1307
58.000000 96.838 172.4255
59.000000 96.774 171.8355
60.000000 96.708 171.3619
60.799999 96.655 171.0031
61.500000 96.608 170.7267
62.200001 96.564 170.4756
63.000000 96.522 170.1620
64.000000 96.475 169.6944
65.000000 96.430 169.1847
66.000000 96.390 168.7055
67.000000 96.362 168.2582
68.000000 96.342 167.8650
69.000000 96.336 167.4304
70.000000 96.305 166.8138
71.000000 96.218 166.3932
72.000000 96.145 166.2776
73.000000 96.098 166.0930
74.000000 96.048 165.7883
75.000000 95.991 165.4338
76.199997 95.920 165.0035
77.500000 95.851 164.5999
78.800003 95.791 164.2184
80.000000 95.735 163.9119
81.199997 95.679 163.6403
82.500000 95.614 163.3320
83.800003 95.544 163.0203
85.000000 95.482 162.7299
86.199997 95.423 162.4385
87.500000 95.367 162.1353
88.500000 95.327 161.9106
90.000000 95.269 161.5842
91.199997 95.220 161.3318
92.500000 95.164 161.0781
93.800003 95.106 160.8473
95.000000 95.052 160.6322
96.199997 94.994 160.4145
97.500000 94.928 160.2059
98.800003 94.865 160.0406
100.000000 94.812 159.8835
101.500000 94.746 159.6651
103.000000 94.683 159.4841
104.400002 94.630 159.3113
106.000000 94.562 159.0616
107.500000 94.489 158.8947
109.000000 94.427 158.7810
110.599998 94.369 158.6404
112.000000 94.317 158.4929
113.800003 94.237 158.3630
115.000000 94.183 158.3192
117.199997 94.087 158.1895
118.000000 94.052 158.1207
120.599998 93.946 157.8920
122.000000 93.896 157.7736
124.099998 93.825 157.6230
125.000000 93.793 157.5614
126.500000 93.736 157.4692
128.000000 93.676 157.3919
131.500000 93.546 157.2548
132.000000 93.529 157.2461
134.000000 93.469 157.2252
136.000000 93.410 157.1884
138.000000 93.344 157.1624
140.000000 93.278 157.1510
143.000000 93.195 157.1129
145.000000 93.140 157.0829
147.500000 93.070 157.0657
150.000000 92.998 157.0405
152.500000 92.924 157.0467
155.000000 92.855 157.0587
157.500000 92.782 157.0784
160.000000 92.705 157.1282
162.500000 92.631 157.2075
165.000000 92.562 157.2949
167.500000 92.497 157.3820
170.000000 92.429 157.4758
172.500000 92.360 157.5879
175.000000 92.296 157.7007
177.500000 92.234 157.8206
180.000000 92.175 157.9445
182.500000 92.117 158.0684
185.000000 92.061 158.1697
187.500000 92.005 158.2463
190.000000 91.951 158.3289
192.500000 91.900 158.4177
195.000000 91.847 158.5046
197.500000 91.792 158.6088
200.000000 91.741 158.7171
203.000000 91.683 158.8313
206.000000 91.620 158.9499
209.000000 91.554 159.0697
212.000000 91.494 159.2122
214.000000 91.456 159.3335
218.000000 91.380 159.5852
220.000000 91.343 159.7000
224.000000 91.270 159.9079
227.000000 91.216 160.0714
230.000000 91.162 160.2666
233.000000 91.110 160.4927
236.000000 91.062 160.6990
240.000000 90.995 160.9091
243.000000 90.946 161.0777
247.000000 90.886 161.3418
250.000000 90.837 161.5633
254.000000 90.771 161.8574
258.000000 90.709 162.1248
262.000000 90.654 162.3939
265.000000 90.616 162.5936
269.000000 90.567 162.8556
272.000000 90.531 163.0661
276.000000 90.483 163.3736
280.000000 90.434 163.6933
285.000000 90.372 164.0477
290.000000 90.312 164.4032
295.000000 90.260 164.7840
300.000000 90.208 165.1633
304.000000 90.168 165.4757
307.000000 90.143 165.7043
311.000000 90.111 165.9930
315.000000 90.079 166.2611
320.000000 90.041 166.6140
325.000000 90.002 166.9921
330.000000 89.961 167.3520
335.000000 89.924 167.7059
340.000000 89.886 168.0746
345.000000 89.845 168.4487
350.000000 89.803 168.8206
355.000000 89.761 169.2049
360.000000 89.719 169.5967
365.000000 89.682 169.9702
370.000000 89.649 170.3323
375.000000 89.619 170.6842
382.000000 89.581 171.1687
387.000000 89.552 171.5314
395.000000 89.501 172.1216
400.000000 89.471 172.4711
406.000000 89.437 172.9120
412.000000 89.405 173.3625
418.000000 89.373 173.8048
425.000000 89.339 174.3200
431.000000 89.310 174.7492
437.000000 89.282 175.1690
444.000000 89.255 175.6588
450.000000 89.233 176.0707
455.000000 89.215 176.4118
462.000000 89.188 176.9065
468.000000 89.166 177.3413
475.000000 89.144 177.8173
482.000000 89.126 178.2770
487.000000 89.114 178.6253
494.000000 89.097 179.1061
500.000000 89.081 179.5034
508.000000 89.058 -179.9432
515.000000 89.036 -179.4520
522.000000 89.021 -178.9802
530.000000 89.011 -178.4454
538.000000 89.003 -177.9190
545.000000 88.996 -177.4569
552.000000 88.989 -176.9840
560.000000 88.982 -176.4466
570.000000 88.976 -175.8035
580.000000 88.968 -175.1505
590.000000 88.958 -174.4891
600.000000 88.945 -173.8410
608.000000 88.932 -173.3175
615.000000 88.924 -172.8514
622.000000 88.920 -172.3812
630.000000 88.915 -171.8426
640.000000 88.910 -171.1748
650.000000 88.915 -170.5264
660.000000 88.925 -169.8833
670.000000 88.926 -169.2307
680.000000 88.918 -168.5672
690.000000 88.911 -167.8912
700.000000 88.913 -167.2344
710.000000 88.929 -166.5878
720.000000 88.948 -165.9373
730.000000 88.963 -165.2914
740.000000 88.978 -164.6378
750.000000 88.994 -163.9800
762.000000 89.013 -163.1945
775.000000 89.030 -162.3416
788.000000 89.047 -161.4840
800.000000 89.069 -160.7141
812.000000 89.098 -159.9414
825.000000 89.138 -159.1139
838.000000 89.185 -158.3124
850.000000 89.227 -157.5665
862.000000 89.271 -156.8242
875.000000 89.320 -156.0428
885.000000 89.360 -155.4584
900.000000 89.426 -154.6010
912.000000 89.484 -153.9211
925.000000 89.547 -153.2068
938.000000 89.611 -152.5174
950.000000 89.672 -151.9009
962.000000 89.737 -151.2988
975.000000 89.809 -150.6512
988.000000 89.886 -150.0144
1000.000000 89.954 -149.4594
1015.000000 90.028 -148.8346
1030.000000 90.105 -148.2505
1044.000000 90.182 -147.7128
1060.000000 90.275 -147.0889
1075.000000 90.367 -146.5002
1090.000000 90.477 -145.9593
1106.000000 90.619 -145.5196
1120.000000 90.742 -145.2545
1138.000000 90.879 -144.9930
1150.000000 90.960 -144.8251
1172.000000 91.098 -144.5174
1180.000000 91.146 -144.4113
1206.000000 91.292 -144.1286
1220.000000 91.366 -144.0158
1241.000000 91.465 -143.8345
1250.000000 91.503 -143.7294
1265.000000 91.562 -143.5109
1280.000000 91.618 -143.2367
1315.000000 91.761 -142.5003
1320.000000 91.783 -142.3977
1340.000000 91.869 -142.0009
1360.000000 91.942 -141.6221
1380.000000 92.014 -141.2652
1400.000000 92.098 -140.9303
1430.000000 92.226 -140.4415
1450.000000 92.311 -140.1219
1475.000000 92.414 -139.7233
1500.000000 92.518 -139.3386
1525.000000 92.619 -138.9632
1550.000000 92.714 -138.5884
1575.000000 92.805 -138.2145
1600.000000 92.897 -137.8508
1625.000000 92.987 -137.4969
1650.000000 93.079 -137.1346
1675.000000 93.173 -136.7787
1700.000000 93.264 -136.4361
1725.000000 93.349 -136.0926
1750.000000 93.433 -135.7586
1775.000000 93.518 -135.4298
1800.000000 93.602 -135.1014
1825.000000 93.686 -134.7846
1850.000000 93.769 -134.4706
1875.000000 93.850 -134.1430
1900.000000 93.927 -133.8028
1925.000000 94.002 -133.4435
1950.000000 94.075 -133.0505
1975.000000 94.153 -132.5994
2000.000000 94.237 -132.0841
2030.000000 94.347 -131.3940
2060.000000 94.493 -130.6723
2090.000000 94.681 -130.0844
2120.000000 94.888 -129.7976
2140.000000 95.021 -129.7881
2180.000000 95.249 -130.0615
2200.000000 95.339 -130.2638
2240.000000 95.481 -130.6500
2270.000000 95.562 -130.8811
2300.000000 95.625 -131.0415
2330.000000 95.673 -131.1074
2360.000000 95.712 -131.0469
2400.000000 95.761 -130.6923
2430.000000 95.808 -130.1755
2470.000000 95.926 -129.2092
2500.000000 96.077 -128.4220
2540.000000 96.359 -127.6616
2580.000000 96.690 -127.5535
2620.000000 97.003 -128.1318
2650.000000 97.200 -128.8903
2690.000000 97.399 -130.0833
2720.000000 97.505 -130.9851
2760.000000 97.603 -132.1048
2800.000000 97.672 -133.1016
2850.000000 97.740 -134.1934
2900.000000 97.795 -135.1849
2950.000000 97.833 -136.1317
3000.000000 97.851 -137.0172
3040.000000 97.852 -137.6837
3070.000000 97.846 -138.1347
3110.000000 97.832 -138.6396
3150.000000 97.819 -139.0376
3200.000000 97.814 -139.4489
3250.000000 97.824 -139.8659
3300.000000 97.837 -140.3577
3350.000000 97.840 -140.9283
3400.000000 97.827 -141.5254
3450.000000 97.803 -142.0897
3500.000000 97.773 -142.5953
3550.000000 97.737 -143.0388
3600.000000 97.697 -143.4246
3650.000000 97.655 -143.7629
3700.000000 97.611 -144.0606
3750.000000 97.567 -144.3134
3820.000000 97.501 -144.5933
3870.000000 97.450 -144.7573
3950.000000 97.360 -144.9607
4000.000000 97.304 -145.0520
4060.000000 97.241 -145.1405
4120.000000 97.182 -145.2235
4180.000000 97.125 -145.3156
4250.000000 97.059 -145.4374
4310.000000 96.996 -145.5532
4370.000000 96.921 -145.6696
4440.000000 96.822 -145.7977
4500.000000 96.731 -145.9025
4550.000000 96.653 -145.9830
4620.000000 96.540 -146.0806
4680.000000 96.441 -146.1521
4750.000000 96.319 -146.2207
4820.000000 96.190 -146.2801
4870.000000 96.092 -146.3100
4940.000000 95.947 -146.3284
5000.000000 95.817 -146.3094
5080.000000 95.638 -146.2086
5150.000000 95.473 -146.0657
5220.000000 95.300 -145.8679
5300.000000 95.096 -145.5525
5380.000000 94.891 -145.1251
5450.000000 94.716 -144.6578
5520.000000 94.548 -144.1163
5600.000000 94.357 -143.4079
5700.000000 94.112 -142.3696
5800.000000 93.872 -141.1921
5900.000000 93.657 -139.8898
6000.000000 93.460 -138.4431
6080.000000 93.309 -137.1682
6150.000000 93.194 -135.9776
6220.000000 93.096 -134.7375
6300.000000 93.005 -133.2796
6400.000000 92.922 -131.3986
6500.000000 92.879 -129.4687
6600.000000 92.882 -127.5713
6700.000000 92.926 -125.8475
6800.000000 92.998 -124.3138
6900.000000 93.110 -122.8663
7000.000000 93.270 -121.4510
7100.000000 93.478 -120.1128
7200.000000 93.742 -118.9601
7300.000000 94.063 -118.1424
7400.000000 94.434 -117.8098
7500.000000 94.844 -118.1031
7620.000000 95.377 -119.4579
7750.000000 95.940 -122.3431
7880.000000 96.327 -126.7932
8000.000000 96.469 -132.1615
8120.000000 96.362 -138.3393
8250.000000 95.933 -145.2389
8380.000000 95.193 -151.5730
8500.000000 94.279 -156.4257
8620.000000 93.188 -160.0733
8750.000000 91.854 -162.5247
8850.000000 90.753 -163.2664
9000.000000 89.059 -162.4561
9120.000000 87.737 -160.2599
9250.000000 86.399 -156.6181
9380.000000 85.189 -152.0434
9500.000000 84.193 -147.2934
9620.000000 83.307 -142.2441
9750.000000 82.452 -136.5683
9880.000000 81.686 -130.7283
10000.000000 81.043 -125.2140
10150.000000 80.311 -118.1747
10300.000000 79.645 -110.9566
10440.000000 79.073 -104.0166
10600.000000 78.477 -95.7928
10750.000000 77.975 -87.7334
10900.000000 77.537 -79.2243
11060.000000 77.161 -69.5036
11200.000000 76.946 -60.3527
11380.000000 76.917 -47.7336
11500.000000 77.125 -39.0295
11720.000000 78.086 -23.9229
11800.000000 78.594 -19.2183
12060.000000 80.406 -8.5568
12200.000000 81.248 -5.5119
12410.000000 82.175 -2.5769
12500.000000 82.470 -1.3899
12650.000000 82.885 0.9107
12800.000000 83.271 3.7220
13150.000000 84.360 11.6209
13200.000000 84.557 12.7970
13400.000000 85.479 17.3132
13600.000000 86.650 21.1166
13800.000000 88.096 23.4790
14000.000000 89.769 23.3252
14300.000000 92.255 15.4522
14500.000000 93.364 4.0835
14750.000000 93.576 -13.6594
15000.000000 92.546 -28.2306
15250.000000 90.924 -36.3378
15500.000000 89.364 -39.7443
15750.000000 88.115 -40.9660
16000.000000 87.102 -41.6255
16250.000000 86.173 -42.6386
16500.000000 85.155 -43.9644
16750.000000 83.953 -44.8003
17000.000000 82.594 -44.4726
17250.000000 81.172 -42.9647
17500.000000 79.748 -41.2863
17750.000000 78.025 -38.3448
18000.000000 75.841 -25.7404
18250.000000 74.836 -9.6405
18500.000000 74.713 -1.1197
18750.000000 74.437 4.7277
19000.000000 74.075 10.2653
19250.000000 73.672 15.0170
19500.000000 73.140 18.5342
19750.000000 72.365 21.0704
20000.000000 71.174 23.7767
20300.000000 69.141 29.7069
20600.000000 66.727 40.9074
20900.000000 64.295 58.3817
21200.000000 62.307 81.8114
21400.000000 61.556 99.8806
21800.000000 62.137 136.1418
22000.000000 63.231 147.4445
22400.000000 64.846 10.3488
22700.000000 63.419 3.7577
23000.000000 58.690 -83.3711
23300.000000 51.474 70.7949
23600.000000 44.733 50.4141
24000.000000 43.445 -78.8984
