* Measurement data measured by REW V5.20.13
* Source: Headset (DS by VECLAN.COM), MICROPHONE (Master Volume), L, volume: 0.720. Timing signal peak level -13.6 dBFS, measurement signal peak level -13.5 dBFS
* Format: 4M Log Swept Sine, 1 sweep at -12.0 dBFS using an acoustic timing reference
* Dated: Dec 5, 2023 11:56:52 AM
* REW Settings:
*  C-weighting compensation: Off
*  Target level: 75.0 dB
* Note: ; Apple + Abigail & Spinfits W1 tips Delay -0.0609 ms (-21 mm, -0.82 in) using estimated IR delay relative to Acoustic reference played from  L with no timing offset
* Measurement: Moondrop Chu W1 L
* Smoothing: 1/24 octave
* Frequency Step: 1/48 octave
* Start Frequency: 1.000 Hz
*
* Freq(Hz) SPL(dB) Phase(degrees)
1.000000 66.113 -15.9114
1.015000 66.356 -16.5412
1.030000 66.600 -17.1715
1.044000 66.830 -17.7586
1.060000 67.093 -18.4259
1.075000 67.340 -19.0458
1.090000 67.588 -19.6581
1.106000 67.854 -20.3054
1.120000 68.093 -20.8921
1.138000 68.409 -21.6781
1.150000 68.625 -22.2198
1.172000 69.030 -23.2439
1.180000 69.179 -23.6249
1.206000 69.673 -24.8875
1.220000 69.943 -25.5791
1.241000 70.351 -26.6256
1.250000 70.526 -27.0757
1.265000 70.818 -27.8258
1.280000 71.110 -28.5732
1.315000 71.785 -30.2910
1.320000 71.880 -30.5318
1.340000 72.258 -31.4794
1.360000 72.627 -32.3969
1.380000 72.987 -33.2775
1.400000 73.335 -34.1142
1.430000 73.832 -35.2725
1.450000 74.143 -35.9701
1.475000 74.507 -36.7477
1.500000 74.851 -37.4271
1.525000 75.177 -38.0205
1.550000 75.487 -38.5386
1.575000 75.783 -38.9922
1.600000 76.065 -39.3921
1.625000 76.336 -39.7490
1.650000 76.596 -40.0738
1.675000 76.847 -40.3771
1.700000 77.091 -40.6698
1.725000 77.328 -40.9626
1.750000 77.560 -41.2664
1.775000 77.789 -41.5918
1.800000 78.016 -41.9497
1.825000 78.242 -42.3508
1.850000 78.466 -42.7928
1.875000 78.681 -43.2484
1.900000 78.888 -43.7143
1.925000 79.088 -44.1886
1.950000 79.281 -44.6692
1.975000 79.468 -45.1541
2.000000 79.650 -45.6412
2.030000 79.863 -46.2257
2.060000 80.071 -46.8071
2.090000 80.275 -47.3817
2.120000 80.478 -47.9460
2.140000 80.612 -48.3148
2.180000 80.881 -49.0299
2.200000 81.017 -49.3741
2.240000 81.286 -50.0399
2.270000 81.485 -50.5233
2.300000 81.681 -50.9951
2.330000 81.874 -51.4571
2.360000 82.064 -51.9114
2.400000 82.313 -52.5080
2.430000 82.497 -52.9511
2.470000 82.737 -53.5396
2.500000 82.914 -53.9818
2.540000 83.146 -54.5758
2.580000 83.372 -55.1778
2.620000 83.593 -55.7804
2.650000 83.755 -56.2313
2.690000 83.966 -56.8311
2.720000 84.121 -57.2798
2.760000 84.323 -57.8766
2.800000 84.521 -58.4716
2.850000 84.763 -59.2128
2.900000 84.999 -59.9511
2.950000 85.230 -60.6877
3.000000 85.453 -61.4316
3.040000 85.626 -62.0298
3.070000 85.753 -62.4781
3.110000 85.919 -63.0726
3.150000 86.082 -63.6606
3.200000 86.280 -64.3812
3.250000 86.475 -65.0798
3.300000 86.666 -65.7501
3.350000 86.852 -66.3883
3.400000 87.033 -66.9991
3.450000 87.208 -67.5890
3.500000 87.380 -68.1645
3.550000 87.548 -68.7320
3.600000 87.713 -69.2981
3.650000 87.875 -69.8691
3.700000 88.035 -70.4489
3.750000 88.192 -71.0323
3.820000 88.405 -71.8478
3.870000 88.553 -72.4245
3.950000 88.786 -73.3266
4.000000 88.929 -73.8720
4.060000 89.098 -74.5014
4.120000 89.263 -75.1032
4.180000 89.424 -75.6842
4.250000 89.609 -76.3459
4.310000 89.765 -76.9079
4.370000 89.919 -77.4730
4.440000 90.096 -78.1416
4.500000 90.245 -78.7147
4.550000 90.368 -79.1912
4.620000 90.537 -79.8561
4.680000 90.680 -80.4233
4.750000 90.846 -81.0812
4.820000 91.009 -81.7317
4.870000 91.125 -82.1908
4.940000 91.285 -82.8300
5.000000 91.420 -83.3784
5.080000 91.597 -84.1170
5.150000 91.748 -84.7760
5.220000 91.896 -85.4458
5.300000 92.062 -86.2202
5.380000 92.224 -87.0003
5.450000 92.361 -87.6842
5.520000 92.495 -88.3672
5.600000 92.644 -89.1512
5.700000 92.824 -90.1344
5.800000 92.997 -91.1158
5.900000 93.164 -92.0901
6.000000 93.324 -93.0592
6.080000 93.448 -93.8317
6.150000 93.553 -94.5057
6.220000 93.656 -95.1779
6.300000 93.770 -95.9455
6.400000 93.907 -96.9039
6.500000 94.038 -97.8556
6.600000 94.163 -98.7951
6.700000 94.282 -99.7240
6.800000 94.396 -100.6430
6.900000 94.504 -101.5475
7.000000 94.608 -102.4338
7.100000 94.708 -103.3040
7.200000 94.803 -104.1579
7.300000 94.895 -104.9939
7.400000 94.984 -105.8102
7.500000 95.070 -106.6070
7.620000 95.169 -107.5421
7.750000 95.274 -108.5345
7.880000 95.375 -109.5025
8.000000 95.465 -110.3778
8.120000 95.553 -111.2391
8.250000 95.646 -112.1540
8.380000 95.736 -113.0532
8.500000 95.816 -113.8713
8.620000 95.895 -114.6765
8.750000 95.978 -115.5376
8.850000 96.040 -116.1936
9.000000 96.131 -117.1652
9.120000 96.203 -117.9351
9.250000 96.279 -118.7647
9.380000 96.353 -119.5881
9.500000 96.418 -120.3430
9.620000 96.478 -121.0949
9.750000 96.538 -121.9050
9.880000 96.590 -122.7024
10.000000 96.627 -123.4269
10.150000 96.663 -124.3160
10.300000 96.690 -125.1680
10.440000 96.705 -125.9271
10.600000 96.720 -126.7603
10.750000 96.736 -127.5062
10.900000 96.753 -128.2240
11.060000 96.776 -128.9875
11.200000 96.800 -129.6502
11.380000 96.832 -130.5081
11.500000 96.854 -131.0869
11.720000 96.895 -132.1606
11.800000 96.909 -132.5573
12.060000 96.951 -133.8603
12.200000 96.970 -134.5628
12.410000 96.992 -135.6069
12.500000 96.999 -136.0342
12.650000 97.006 -136.7263
12.800000 97.010 -137.3806
13.150000 97.018 -138.7255
13.200000 97.021 -138.9026
13.400000 97.036 -139.5638
13.600000 97.059 -140.2045
13.800000 97.093 -140.8387
14.000000 97.132 -141.5153
14.300000 97.191 -142.6250
14.500000 97.222 -143.4356
14.750000 97.245 -144.4664
15.000000 97.250 -145.4796
15.250000 97.238 -146.3869
15.500000 97.223 -147.1517
15.750000 97.210 -147.7706
16.000000 97.213 -148.2795
16.250000 97.232 -148.7830
16.500000 97.265 -149.3336
16.750000 97.304 -150.0008
17.000000 97.332 -150.7601
17.250000 97.345 -151.5605
17.500000 97.336 -152.3258
17.750000 97.315 -152.9544
18.000000 97.294 -153.4396
18.250000 97.286 -153.7766
18.500000 97.307 -154.0765
18.750000 97.353 -154.4364
19.000000 97.421 -154.9463
19.250000 97.489 -155.6834
19.500000 97.540 -156.5946
19.750000 97.563 -157.6310
20.000000 97.549 -158.6367
20.299999 97.499 -159.6507
20.600000 97.435 -160.3598
20.900000 97.387 -160.7712
21.200001 97.382 -161.0337
21.400000 97.403 -161.2537
21.799999 97.476 -161.9566
22.000000 97.511 -162.4732
22.400000 97.542 -163.7478
22.700001 97.519 -164.7127
23.000000 97.465 -165.4866
23.299999 97.404 -165.9965
23.600000 97.359 -166.2848
24.000000 97.344 -166.5090
24.299999 97.364 -166.7352
24.700001 97.409 -167.2498
25.000000 97.434 -167.7793
25.400000 97.442 -168.5537
25.799999 97.424 -169.2537
26.200001 97.400 -169.8203
26.500000 97.385 -170.1860
26.900000 97.372 -170.6554
27.200001 97.366 -171.0242
27.600000 97.357 -171.5465
28.000000 97.344 -172.0891
28.500000 97.325 -172.7832
29.000000 97.304 -173.5056
29.500000 97.275 -174.2532
30.000000 97.233 -174.9746
30.400000 97.193 -175.4881
30.700001 97.164 -175.8250
31.100000 97.133 -176.2229
31.500000 97.113 -176.5968
32.000000 97.102 -177.0917
32.500000 97.094 -177.6479
33.000000 97.080 -178.2258
33.500000 97.057 -178.7545
34.000000 97.038 -179.2106
34.500000 97.029 -179.6547
35.000000 97.024 179.8386
35.500000 97.007 179.2726
36.000000 96.969 178.7473
36.500000 96.920 178.3551
37.000000 96.878 178.0764
37.500000 96.852 177.7996
38.200001 96.823 177.2618
38.700001 96.792 176.7964
39.500000 96.719 176.1013
40.000000 96.672 175.7369
40.599998 96.622 175.3442
41.200001 96.579 174.9696
41.799999 96.544 174.6016
42.500000 96.511 174.1693
43.099998 96.487 173.7883
43.700001 96.464 173.3997
44.400002 96.436 172.9449
45.000000 96.407 172.5660
45.500000 96.380 172.2675
46.200001 96.339 171.8752
46.799999 96.301 171.5556
47.500000 96.251 171.2210
48.200001 96.204 170.9498
48.700001 96.177 170.7664
49.400002 96.145 170.4493
50.000000 96.115 170.1124
50.799999 96.061 169.6642
51.500000 96.012 169.3306
52.200001 95.968 169.0194
53.000000 95.923 168.6470
53.799999 95.877 168.2707
54.500000 95.835 167.9622
55.200001 95.794 167.6781
56.000000 95.754 167.3586
57.000000 95.701 166.9474
58.000000 95.641 166.6265
59.000000 95.594 166.3492
60.000000 95.539 165.9810
60.799999 95.482 165.7351
61.500000 95.438 165.5865
62.200001 95.402 165.4039
63.000000 95.353 165.1148
64.000000 95.276 164.8173
65.000000 95.221 164.6371
66.000000 95.191 164.3844
67.000000 95.160 164.0503
68.000000 95.114 163.8096
69.000000 95.086 163.7660
70.000000 95.085 163.5002
71.000000 95.021 162.9886
72.000000 94.907 162.8310
73.000000 94.825 162.8758
74.000000 94.762 162.7874
75.000000 94.700 162.6038
76.199997 94.629 162.3390
77.500000 94.565 162.0808
78.800003 94.511 161.8351
80.000000 94.458 161.6739
81.199997 94.401 161.5651
82.500000 94.329 161.4703
83.800003 94.253 161.4046
85.000000 94.191 161.3241
86.199997 94.137 161.1825
87.500000 94.081 160.9836
88.500000 94.037 160.8416
90.000000 93.970 160.7026
91.199997 93.918 160.6426
92.500000 93.864 160.5852
93.800003 93.808 160.5247
95.000000 93.754 160.4731
96.199997 93.698 160.4240
97.500000 93.638 160.3909
98.800003 93.582 160.3768
100.000000 93.533 160.3544
101.500000 93.475 160.2966
103.000000 93.418 160.2165
104.400002 93.361 160.1496
106.000000 93.295 160.1090
107.500000 93.234 160.1087
109.000000 93.174 160.1284
110.599998 93.111 160.1606
112.000000 93.059 160.1857
113.800003 92.994 160.1801
115.000000 92.947 160.1876
117.199997 92.875 160.2532
118.000000 92.855 160.2603
120.599998 92.782 160.2029
122.000000 92.736 160.2080
124.099998 92.663 160.2816
125.000000 92.631 160.3364
126.500000 92.578 160.4446
128.000000 92.528 160.5381
131.500000 92.420 160.6528
132.000000 92.406 160.6596
134.000000 92.356 160.6838
136.000000 92.309 160.7480
138.000000 92.263 160.8589
140.000000 92.213 160.9558
143.000000 92.136 161.0885
145.000000 92.090 161.2117
147.500000 92.040 161.3995
150.000000 91.991 161.5395
152.500000 91.930 161.6458
155.000000 91.867 161.7941
157.500000 91.808 161.9969
160.000000 91.749 162.2104
162.500000 91.695 162.3830
165.000000 91.648 162.5247
167.500000 91.603 162.6618
170.000000 91.552 162.8449
172.500000 91.500 163.0648
175.000000 91.446 163.2595
177.500000 91.391 163.4925
180.000000 91.349 163.6879
182.500000 91.312 163.8064
185.000000 91.278 163.9161
187.500000 91.243 164.0834
190.000000 91.200 164.3246
192.500000 91.145 164.6005
195.000000 91.089 164.8632
197.500000 91.041 165.0829
200.000000 91.002 165.2761
203.000000 90.961 165.5041
206.000000 90.922 165.7102
209.000000 90.885 165.9095
212.000000 90.851 166.1472
214.000000 90.828 166.3218
218.000000 90.782 166.6650
220.000000 90.760 166.8339
224.000000 90.716 167.1505
227.000000 90.682 167.3634
230.000000 90.647 167.5926
233.000000 90.613 167.8484
236.000000 90.579 168.1045
240.000000 90.534 168.4418
243.000000 90.503 168.7066
247.000000 90.465 169.0446
250.000000 90.438 169.2840
254.000000 90.403 169.6116
258.000000 90.368 169.9402
262.000000 90.332 170.2545
265.000000 90.305 170.4926
269.000000 90.273 170.8112
272.000000 90.250 171.0558
276.000000 90.220 171.3884
280.000000 90.191 171.7053
285.000000 90.157 172.0855
290.000000 90.124 172.4840
295.000000 90.096 172.8758
300.000000 90.072 173.2679
304.000000 90.054 173.5856
307.000000 90.043 173.8041
311.000000 90.030 174.0925
315.000000 90.018 174.3895
320.000000 90.000 174.7537
325.000000 89.974 175.1243
330.000000 89.948 175.5170
335.000000 89.923 175.8796
340.000000 89.896 176.2425
345.000000 89.870 176.6551
350.000000 89.851 177.0572
355.000000 89.844 177.3875
360.000000 89.836 177.6990
365.000000 89.824 178.0713
370.000000 89.802 178.4835
375.000000 89.776 178.8610
382.000000 89.750 179.3316
387.000000 89.732 179.6875
395.000000 89.704 -179.7450
400.000000 89.689 -179.4058
406.000000 89.674 -178.9848
412.000000 89.659 -178.5601
418.000000 89.642 -178.1353
425.000000 89.621 -177.6236
431.000000 89.605 -177.2026
437.000000 89.592 -176.8036
444.000000 89.580 -176.3304
450.000000 89.572 -175.9254
455.000000 89.564 -175.5941
462.000000 89.552 -175.1257
468.000000 89.539 -174.7108
475.000000 89.524 -174.2313
482.000000 89.514 -173.7637
487.000000 89.511 -173.4327
494.000000 89.512 -172.9824
500.000000 89.515 -172.6006
508.000000 89.513 -172.0728
515.000000 89.506 -171.5939
522.000000 89.499 -171.1170
530.000000 89.495 -170.5881
538.000000 89.493 -170.0702
545.000000 89.491 -169.6060
552.000000 89.491 -169.1324
560.000000 89.494 -168.5997
570.000000 89.502 -167.9621
580.000000 89.510 -167.3056
590.000000 89.515 -166.6350
600.000000 89.522 -165.9810
608.000000 89.526 -165.4639
615.000000 89.532 -164.9972
622.000000 89.539 -164.5161
630.000000 89.544 -163.9694
640.000000 89.551 -163.3083
650.000000 89.560 -162.6449
660.000000 89.571 -161.9729
670.000000 89.581 -161.3165
680.000000 89.593 -160.6616
690.000000 89.608 -159.9953
700.000000 89.626 -159.3362
710.000000 89.649 -158.6731
720.000000 89.670 -158.0019
730.000000 89.688 -157.3317
740.000000 89.711 -156.6705
750.000000 89.739 -156.0099
762.000000 89.774 -155.2016
775.000000 89.817 -154.3420
788.000000 89.866 -153.4927
800.000000 89.909 -152.7114
812.000000 89.951 -151.9194
825.000000 90.002 -151.0745
838.000000 90.058 -150.2575
850.000000 90.111 -149.4972
862.000000 90.166 -148.7311
875.000000 90.227 -147.9174
885.000000 90.273 -147.2920
900.000000 90.346 -146.3201
912.000000 90.413 -145.4720
925.000000 90.510 -144.4632
938.000000 90.663 -143.5464
950.000000 90.829 -143.1535
962.000000 90.936 -143.1030
975.000000 90.987 -142.8870
988.000000 91.032 -142.4030
1000.000000 91.085 -141.8671
1015.000000 91.155 -141.2017
1030.000000 91.243 -140.5342
1044.000000 91.348 -139.9435
1060.000000 91.478 -139.4216
1075.000000 91.585 -139.0541
1090.000000 91.682 -138.7160
1106.000000 91.789 -138.3521
1120.000000 91.886 -138.0381
1138.000000 92.012 -137.6621
1150.000000 92.095 -137.4215
1172.000000 92.247 -137.0016
1180.000000 92.301 -136.8548
1206.000000 92.470 -136.4104
1220.000000 92.562 -136.1963
1241.000000 92.700 -135.8865
1250.000000 92.759 -135.7514
1265.000000 92.855 -135.5325
1280.000000 92.948 -135.3171
1315.000000 93.159 -134.8376
1320.000000 93.188 -134.7746
1340.000000 93.295 -134.5210
1360.000000 93.380 -134.2562
1380.000000 93.460 -133.9940
1400.000000 93.553 -133.7337
1430.000000 93.699 -133.3341
1450.000000 93.798 -133.0678
1475.000000 93.920 -132.7299
1500.000000 94.043 -132.3905
1525.000000 94.164 -132.0585
1550.000000 94.277 -131.7325
1575.000000 94.387 -131.4128
1600.000000 94.497 -131.1072
1625.000000 94.607 -130.8163
1650.000000 94.718 -130.5271
1675.000000 94.830 -130.2505
1700.000000 94.941 -129.9933
1725.000000 95.048 -129.7441
1750.000000 95.156 -129.5119
1775.000000 95.265 -129.2917
1800.000000 95.371 -129.0780
1825.000000 95.476 -128.8846
1850.000000 95.579 -128.7088
1875.000000 95.682 -128.5424
1900.000000 95.783 -128.3877
1925.000000 95.882 -128.2446
1950.000000 95.979 -128.1143
1975.000000 96.076 -127.9866
2000.000000 96.170 -127.8682
2030.000000 96.271 -127.7428
2060.000000 96.371 -127.5924
2090.000000 96.473 -127.3951
2120.000000 96.580 -127.1492
2140.000000 96.654 -126.9565
2180.000000 96.821 -126.5200
2200.000000 96.916 -126.3132
2240.000000 97.134 -126.0443
2270.000000 97.309 -126.0536
2300.000000 97.478 -126.2618
2330.000000 97.631 -126.6199
2360.000000 97.762 -127.0609
2400.000000 97.908 -127.6784
2430.000000 98.000 -128.1241
2470.000000 98.106 -128.6886
2500.000000 98.177 -129.0827
2540.000000 98.265 -129.5858
2580.000000 98.346 -130.0677
2620.000000 98.419 -130.5336
2650.000000 98.470 -130.8777
2690.000000 98.533 -131.3239
2720.000000 98.576 -131.6531
2760.000000 98.626 -132.1019
2800.000000 98.669 -132.5695
2850.000000 98.708 -133.1570
2900.000000 98.733 -133.7145
2950.000000 98.746 -134.2175
3000.000000 98.750 -134.6502
3040.000000 98.746 -134.9847
3070.000000 98.740 -135.2270
3110.000000 98.730 -135.5235
3150.000000 98.716 -135.7899
3200.000000 98.692 -136.0877
3250.000000 98.662 -136.3466
3300.000000 98.626 -136.5517
3350.000000 98.587 -136.7129
3400.000000 98.545 -136.8498
3450.000000 98.498 -136.9507
3500.000000 98.447 -136.9879
3550.000000 98.389 -136.9303
3600.000000 98.327 -136.7397
3650.000000 98.269 -136.3903
3700.000000 98.221 -135.9009
3750.000000 98.194 -135.3189
3820.000000 98.194 -134.4705
3870.000000 98.215 -133.9149
3950.000000 98.261 -133.1574
4000.000000 98.292 -132.7632
4060.000000 98.329 -132.3465
4120.000000 98.365 -131.9617
4180.000000 98.407 -131.5997
4250.000000 98.461 -131.2130
4310.000000 98.508 -130.9311
4370.000000 98.550 -130.7014
4440.000000 98.594 -130.4956
4500.000000 98.627 -130.3743
4550.000000 98.652 -130.3121
4620.000000 98.688 -130.2917
4680.000000 98.719 -130.3375
4750.000000 98.750 -130.4496
4820.000000 98.774 -130.6291
4870.000000 98.785 -130.7929
4940.000000 98.790 -131.0682
5000.000000 98.786 -131.3352
5080.000000 98.769 -131.7119
5150.000000 98.740 -132.0681
5220.000000 98.698 -132.4329
5300.000000 98.635 -132.8415
5380.000000 98.553 -133.2344
5450.000000 98.467 -133.5540
5520.000000 98.369 -133.8330
5600.000000 98.242 -134.0806
5700.000000 98.062 -134.2482
5800.000000 97.866 -134.2386
5900.000000 97.664 -133.9916
6000.000000 97.473 -133.4831
6080.000000 97.341 -132.9845
6150.000000 97.234 -132.5597
6220.000000 97.126 -132.1262
6300.000000 96.998 -131.5542
6400.000000 96.844 -130.6786
6500.000000 96.712 -129.6522
6600.000000 96.606 -128.5099
6700.000000 96.530 -127.2947
6800.000000 96.492 -126.0666
6900.000000 96.511 -124.8729
7000.000000 96.587 -123.7670
7100.000000 96.706 -122.8198
7200.000000 96.864 -122.0897
7300.000000 97.056 -121.6528
7400.000000 97.269 -121.5743
7500.000000 97.493 -121.8949
7620.000000 97.778 -122.8458
7750.000000 98.081 -124.6265
7880.000000 98.268 -127.2476
8000.000000 98.323 -130.4159
8120.000000 98.259 -134.2505
8250.000000 98.012 -139.0017
8380.000000 97.536 -144.0400
8500.000000 96.859 -148.4736
8620.000000 95.947 -152.1347
8750.000000 94.729 -154.6134
8850.000000 93.686 -155.1976
9000.000000 92.067 -153.8354
9120.000000 90.808 -151.0161
9250.000000 89.541 -146.5974
9380.000000 88.402 -141.0902
9500.000000 87.470 -135.2129
9620.000000 86.662 -128.6754
9750.000000 85.939 -120.9064
9880.000000 85.395 -112.4740
10000.000000 85.083 -104.2326
10150.000000 84.992 -93.7003
10300.000000 85.264 -83.6163
10440.000000 85.807 -75.4240
10600.000000 86.618 -68.2540
10750.000000 87.379 -63.7532
10900.000000 88.012 -60.8955
11060.000000 88.503 -58.7360
11200.000000 88.797 -56.8934
11380.000000 89.081 -53.9922
11500.000000 89.266 -51.6334
11720.000000 89.693 -46.5796
11800.000000 89.896 -44.5818
12060.000000 90.816 -37.9090
12200.000000 91.520 -34.4898
12410.000000 92.919 -30.2528
12500.000000 93.668 -29.0498
12650.000000 95.130 -28.5111
12800.000000 96.783 -30.9438
13150.000000 99.679 -55.9654
13200.000000 99.771 -61.5412
13400.000000 99.065 -83.0602
13600.000000 97.030 -96.7388
13800.000000 94.550 -101.4941
14000.000000 92.311 -100.7361
14300.000000 89.785 -94.8541
14500.000000 88.589 -89.5691
14750.000000 87.525 -82.4421
15000.000000 86.857 -75.3831
15250.000000 86.531 -68.9162
15500.000000 86.536 -63.4619
15750.000000 86.823 -59.5556
16000.000000 87.274 -57.9077
16250.000000 87.720 -59.1881
16500.000000 87.926 -63.4994
16750.000000 87.672 -69.7170
17000.000000 86.891 -75.7961
17250.000000 85.692 -80.0214
17500.000000 84.274 -81.8560
17750.000000 82.803 -81.6817
18000.000000 81.367 -80.0890
18250.000000 79.979 -77.6951
18500.000000 78.604 -74.8666
18750.000000 77.208 -71.5720
19000.000000 75.756 -67.6880
19250.000000 74.212 -62.9447
19500.000000 72.560 -57.0470
19750.000000 70.846 -49.7286
20000.000000 69.085 -40.8390
20300.000000 66.963 -28.0838
20600.000000 65.051 -13.2001
20900.000000 63.496 3.5476
21200.000000 62.408 21.4169
21400.000000 61.972 33.3512
21800.000000 61.738 52.8860
22000.000000 61.804 48.9538
22400.000000 61.311 70.9797
22700.000000 58.895 -72.2729
23000.000000 53.770 -149.8516
23300.000000 47.191 -98.7461
23600.000000 42.956 -19.7012
24000.000000 41.881 -29.5156
