* Measurement data measured by REW V5.20.13
* Source: Headset (DS by VECLAN.COM), MICROPHONE (Master Volume), L, volume: 0.710. Timing signal peak level -15.5 dBFS, measurement signal peak level -14.8 dBFS
* Format: 2M Log Swept Sine, 1 sweep at -12.0 dBFS using an acoustic timing reference
* Dated: Nov 12, 2023 5:06:44 PM
* REW Settings:
*  C-weighting compensation: Off
*  Target level: 75.0 dB
* Note: ; Delay -0.0611 ms (-21 mm, -0.83 in) using estimated IR delay relative to Acoustic reference played from HEADPHONE L with no timing offset
* Measurement: Moondrop Blessing 3 L
* Smoothing: 1/24 octave
* Frequency Step: 1/48 octave
* Start Frequency: 1.000 Hz
*
* Freq(Hz) SPL(dB) Phase(degrees)
1.000000 70.590 141.7128
1.015000 70.931 143.7078
1.030000 71.265 145.5192
1.044000 71.569 147.0340
1.060000 71.906 148.5453
1.075000 72.210 149.7370
1.090000 72.502 150.6993
1.106000 72.799 151.4454
1.120000 73.055 151.7805
1.138000 73.382 151.7858
1.150000 73.598 151.5445
1.172000 73.991 150.6449
1.180000 74.132 150.1846
1.206000 74.587 148.2632
1.220000 74.828 146.9950
1.241000 75.185 144.8457
1.250000 75.336 143.8497
1.265000 75.585 142.1111
1.280000 75.830 140.2979
1.315000 76.388 135.9276
1.320000 76.466 135.3019
1.340000 76.773 132.8360
1.360000 77.072 130.4763
1.380000 77.363 128.2869
1.400000 77.645 126.3313
1.430000 78.052 123.9761
1.450000 78.311 122.8843
1.475000 78.621 122.1402
1.500000 78.912 121.8783
1.525000 79.184 121.9899
1.550000 79.441 122.4195
1.575000 79.682 123.1113
1.600000 79.911 124.0096
1.625000 80.128 125.0587
1.650000 80.336 126.2031
1.675000 80.535 127.3870
1.700000 80.728 128.5547
1.725000 80.916 129.6506
1.750000 81.102 130.6189
1.775000 81.286 131.4041
1.800000 81.470 131.9505
1.825000 81.656 132.2022
1.850000 81.842 132.1537
1.875000 82.022 131.9091
1.900000 82.196 131.4970
1.925000 82.364 130.9416
1.950000 82.528 130.2671
1.975000 82.687 129.4977
2.000000 82.842 128.6577
2.030000 83.026 127.5905
2.060000 83.206 126.4983
2.090000 83.384 125.4229
2.120000 83.562 124.4062
2.140000 83.681 123.7817
2.180000 83.920 122.7163
2.200000 84.042 122.2997
2.240000 84.286 121.6098
2.270000 84.468 121.1716
2.300000 84.650 120.7893
2.330000 84.830 120.4519
2.360000 85.010 120.1488
2.400000 85.246 119.7790
2.430000 85.422 119.5135
2.470000 85.652 119.1546
2.500000 85.822 118.8678
2.540000 86.045 118.4412
2.580000 86.262 117.9496
2.620000 86.475 117.4515
2.650000 86.632 117.0802
2.690000 86.838 116.5814
2.720000 86.990 116.2001
2.760000 87.189 115.6756
2.800000 87.384 115.1252
2.850000 87.623 114.3884
2.900000 87.857 113.5825
2.950000 88.086 112.6861
3.000000 88.309 111.6546
3.040000 88.484 110.7522
3.070000 88.612 110.0462
3.110000 88.781 109.0850
3.150000 88.946 108.1230
3.200000 89.147 106.9559
3.250000 89.343 105.8716
3.300000 89.534 104.9167
3.350000 89.719 104.1144
3.400000 89.899 103.4294
3.450000 90.073 102.8184
3.500000 90.241 102.2380
3.550000 90.405 101.6449
3.600000 90.564 100.9957
3.650000 90.719 100.2471
3.700000 90.868 99.3642
3.750000 91.012 98.3665
3.820000 91.206 96.8531
3.870000 91.338 95.7431
3.950000 91.542 94.0279
4.000000 91.664 93.0563
4.060000 91.807 92.0491
4.120000 91.944 91.1840
4.180000 92.074 90.4134
4.250000 92.220 89.5752
4.310000 92.341 88.8590
4.370000 92.458 88.0986
4.440000 92.591 87.1120
4.500000 92.699 86.2073
4.550000 92.787 85.4336
4.620000 92.905 84.3519
4.680000 93.004 83.4555
4.750000 93.117 82.4835
4.820000 93.229 81.6150
4.870000 93.306 81.0433
4.940000 93.412 80.2895
5.000000 93.501 79.6683
5.080000 93.618 78.8444
5.150000 93.720 78.1011
5.220000 93.821 77.3510
5.300000 93.934 76.4982
5.380000 94.046 75.6537
5.450000 94.143 74.9242
5.520000 94.239 74.2060
5.600000 94.348 73.4015
5.700000 94.483 72.4127
5.800000 94.614 71.4308
5.900000 94.742 70.4455
6.000000 94.867 69.4656
6.080000 94.964 68.6824
6.150000 95.046 67.9935
6.220000 95.126 67.2979
6.300000 95.213 66.4882
6.400000 95.317 65.4593
6.500000 95.415 64.4328
6.600000 95.506 63.4311
6.700000 95.590 62.4557
6.800000 95.667 61.4982
6.900000 95.739 60.5594
7.000000 95.805 59.6383
7.100000 95.864 58.7278
7.200000 95.918 57.8391
7.300000 95.968 56.9870
7.400000 96.015 56.1821
7.500000 96.058 55.4175
7.620000 96.106 54.5435
7.750000 96.158 53.6403
7.880000 96.206 52.7882
8.000000 96.251 52.0391
8.120000 96.298 51.3193
8.250000 96.349 50.5807
8.380000 96.402 49.8650
8.500000 96.452 49.2105
8.620000 96.504 48.5700
8.750000 96.561 47.8801
8.850000 96.605 47.3450
9.000000 96.672 46.5419
9.120000 96.725 45.8954
9.250000 96.784 45.1886
9.380000 96.843 44.4768
9.500000 96.895 43.8104
9.620000 96.943 43.1323
9.750000 96.992 42.3864
9.880000 97.034 41.6293
10.000000 97.063 40.9193
10.150000 97.089 40.0184
10.300000 97.105 39.1092
10.440000 97.109 38.2512
10.600000 97.104 37.2670
10.750000 97.095 36.3444
10.900000 97.080 35.4231
11.060000 97.059 34.4538
11.200000 97.034 33.6117
11.380000 96.996 32.5756
11.500000 96.966 31.9194
11.720000 96.906 30.7963
11.800000 96.884 30.4209
12.060000 96.813 29.3078
12.200000 96.781 28.7709
12.410000 96.741 28.0394
12.500000 96.728 27.7410
12.650000 96.711 27.2727
12.800000 96.699 26.8153
13.150000 96.694 25.7343
13.200000 96.695 25.5729
13.400000 96.705 24.9067
13.600000 96.716 24.2065
13.800000 96.729 23.4688
14.000000 96.738 22.7077
14.300000 96.741 21.5349
14.500000 96.734 20.7556
14.750000 96.716 19.8097
15.000000 96.689 18.9107
15.250000 96.654 18.0820
15.500000 96.614 17.3535
15.750000 96.570 16.7422
16.000000 96.527 16.2693
16.250000 96.494 15.9122
16.500000 96.475 15.6411
16.750000 96.479 15.4059
17.000000 96.502 15.1225
17.250000 96.540 14.7516
17.500000 96.583 14.2461
17.750000 96.618 13.6130
18.000000 96.638 12.8901
18.250000 96.636 12.1207
18.500000 96.615 11.3956
18.750000 96.580 10.7548
19.000000 96.537 10.2351
19.250000 96.499 9.8378
19.500000 96.474 9.5199
19.750000 96.465 9.2449
20.000000 96.475 8.9341
20.299999 96.501 8.4504
20.600000 96.532 7.8061
20.900000 96.554 7.0040
21.200001 96.554 6.1011
21.400000 96.540 5.4991
21.799999 96.482 4.4010
22.000000 96.444 3.9499
22.400000 96.372 3.2827
22.700001 96.338 2.9333
23.000000 96.328 2.6054
23.299999 96.336 2.1976
23.600000 96.345 1.6752
24.000000 96.337 0.8583
24.299999 96.307 0.2904
24.700001 96.246 -0.2256
25.000000 96.207 -0.4001
25.400000 96.192 -0.4875
25.799999 96.213 -0.6902
26.200001 96.227 -1.1442
26.500000 96.207 -1.5295
26.900000 96.140 -1.8089
27.200001 96.089 -1.6930
27.600000 96.082 -1.1868
28.000000 96.182 -0.7809
28.500000 96.388 -1.2941
29.000000 96.499 -3.0987
29.500000 96.397 -5.2346
30.000000 96.135 -6.4743
30.400000 95.924 -6.5894
30.700001 95.815 -6.3705
31.100000 95.745 -6.1041
31.500000 95.725 -6.1458
32.000000 95.695 -6.6168
32.500000 95.631 -7.2039
33.000000 95.561 -7.6978
33.500000 95.505 -8.1880
34.000000 95.452 -8.7581
34.500000 95.391 -9.3208
35.000000 95.331 -9.7841
35.500000 95.287 -10.1953
36.000000 95.254 -10.6567
36.500000 95.216 -11.1723
37.000000 95.165 -11.6532
37.500000 95.110 -12.0354
38.200001 95.038 -12.4236
38.700001 94.994 -12.6420
39.500000 94.936 -12.9698
40.000000 94.901 -13.1908
40.599998 94.852 -13.4407
41.200001 94.805 -13.6255
41.799999 94.771 -13.8272
42.500000 94.732 -14.2467
43.099998 94.674 -14.6749
43.700001 94.606 -14.9980
44.400002 94.547 -15.3683
45.000000 94.498 -15.8590
45.500000 94.440 -16.2864
46.200001 94.365 -16.7474
46.799999 94.338 -17.2936
47.500000 94.265 -18.4184
48.200001 94.062 -19.2230
48.700001 93.901 -19.0180
49.400002 93.825 -18.0290
50.000000 93.901 -17.5633
50.799999 93.996 -17.9317
51.500000 93.997 -18.3831
52.200001 93.981 -18.6066
53.000000 93.964 -18.8699
53.799999 93.917 -19.1352
54.500000 93.869 -19.2640
55.200001 93.829 -19.4429
56.000000 93.768 -19.8240
57.000000 93.647 -20.2472
58.000000 93.531 -20.4673
59.000000 93.426 -20.6370
60.000000 93.349 -20.5976
60.799999 93.328 -20.6543
61.500000 93.307 -20.8771
62.200001 93.267 -21.1140
63.000000 93.210 -21.3041
64.000000 93.130 -21.4470
65.000000 93.055 -21.4461
66.000000 93.007 -21.4764
67.000000 92.959 -21.7127
68.000000 92.883 -22.0448
69.000000 92.783 -22.2565
70.000000 92.689 -22.3047
71.000000 92.608 -22.2996
72.000000 92.548 -22.2121
73.000000 92.522 -22.2471
74.000000 92.483 -22.5015
75.000000 92.418 -22.6893
76.199997 92.336 -22.7996
77.500000 92.229 -22.7799
78.800003 92.134 -22.5036
80.000000 92.088 -22.3137
81.199997 92.050 -22.4082
82.500000 91.987 -22.6526
83.800003 91.907 -22.8118
85.000000 91.829 -22.8039
86.199997 91.754 -22.6373
87.500000 91.677 -22.3677
88.500000 91.622 -22.1634
90.000000 91.528 -22.1148
91.199997 91.426 -22.0161
92.500000 91.364 -21.9208
93.800003 91.315 -22.1557
95.000000 91.251 -22.3637
96.199997 91.185 -22.4298
97.500000 91.118 -22.3600
98.800003 91.062 -22.1966
100.000000 91.017 -22.0682
101.500000 90.953 -21.9393
103.000000 90.886 -21.7900
104.400002 90.823 -21.6504
106.000000 90.750 -21.5075
107.500000 90.679 -21.3958
109.000000 90.607 -21.2907
110.599998 90.529 -21.1577
112.000000 90.453 -21.0118
113.800003 90.348 -20.6967
115.000000 90.295 -20.4942
117.199997 90.220 -20.4066
118.000000 90.197 -20.4268
120.599998 90.107 -20.2584
122.000000 90.063 -19.9065
124.099998 89.994 -19.4018
125.000000 89.960 -19.2458
126.500000 89.908 -19.0873
128.000000 89.869 -19.0197
131.500000 89.811 -18.5333
132.000000 89.802 -18.4108
134.000000 89.749 -17.9056
136.000000 89.682 -17.5168
138.000000 89.626 -17.2946
140.000000 89.584 -17.1324
143.000000 89.495 -16.6467
145.000000 89.433 -16.1462
147.500000 89.380 -15.5796
150.000000 89.336 -15.1955
152.500000 89.279 -14.9451
155.000000 89.223 -14.8035
157.500000 89.179 -14.5951
160.000000 89.150 -14.1966
162.500000 89.132 -13.7769
165.000000 89.116 -13.3164
167.500000 89.088 -12.7942
170.000000 89.026 -12.1851
172.500000 88.964 -11.6515
175.000000 88.922 -11.2362
177.500000 88.894 -10.8468
180.000000 88.870 -10.3255
182.500000 88.866 -9.8806
185.000000 88.843 -9.6207
187.500000 88.789 -9.2818
190.000000 88.731 -8.8019
192.500000 88.706 -8.2142
195.000000 88.730 -7.7917
197.500000 88.739 -7.6797
200.000000 88.698 -7.5193
203.000000 88.633 -6.7955
206.000000 88.603 -5.6528
209.000000 88.608 -5.0203
212.000000 88.585 -5.2587
214.000000 88.567 -5.4391
218.000000 88.577 -5.0878
220.000000 88.586 -4.7023
224.000000 88.580 -4.0300
227.000000 88.571 -3.6509
230.000000 88.565 -3.3222
233.000000 88.564 -2.9994
236.000000 88.570 -2.6274
240.000000 88.575 -2.1224
243.000000 88.575 -1.7661
247.000000 88.569 -1.3657
250.000000 88.562 -1.0786
254.000000 88.571 -0.6230
258.000000 88.579 -0.1377
262.000000 88.574 0.2710
265.000000 88.572 0.5669
269.000000 88.580 0.9804
272.000000 88.588 1.2972
276.000000 88.586 1.6158
280.000000 88.579 1.8044
285.000000 88.613 2.0006
290.000000 88.620 2.4838
295.000000 88.623 3.5514
300.000000 88.636 3.9889
304.000000 88.649 4.1311
307.000000 88.665 4.3600
311.000000 88.691 4.7011
315.000000 88.716 4.9390
320.000000 88.738 5.2972
325.000000 88.747 5.7677
330.000000 88.757 6.0771
335.000000 88.767 6.4382
340.000000 88.774 6.8804
345.000000 88.791 7.2423
350.000000 88.807 7.5695
355.000000 88.820 7.8411
360.000000 88.827 8.1082
365.000000 88.828 8.4365
370.000000 88.825 8.7922
375.000000 88.823 9.1985
382.000000 88.853 9.8187
387.000000 88.879 10.1241
395.000000 88.887 10.5232
400.000000 88.886 10.7725
406.000000 88.880 11.0115
412.000000 88.884 11.3211
418.000000 88.886 11.7206
425.000000 88.887 12.1554
431.000000 88.897 12.4442
437.000000 88.919 12.8066
444.000000 88.938 13.2508
450.000000 88.943 13.5766
455.000000 88.949 13.8588
462.000000 88.955 14.2429
468.000000 88.956 14.5346
475.000000 88.960 14.8815
482.000000 88.953 15.3335
487.000000 88.966 15.7511
494.000000 89.010 16.1504
500.000000 89.023 16.3709
508.000000 89.017 16.8390
515.000000 89.016 17.2544
522.000000 89.018 17.5552
530.000000 89.028 17.8795
538.000000 89.044 18.2897
545.000000 89.061 18.6701
552.000000 89.073 19.0071
560.000000 89.074 19.4174
570.000000 89.076 19.9939
580.000000 89.091 20.5686
590.000000 89.101 21.1593
600.000000 89.117 21.7375
608.000000 89.126 22.1820
615.000000 89.131 22.5673
622.000000 89.134 22.9522
630.000000 89.141 23.4056
640.000000 89.150 24.0087
650.000000 89.154 24.6291
660.000000 89.162 25.2312
670.000000 89.180 25.7974
680.000000 89.194 26.3395
690.000000 89.205 26.9651
700.000000 89.216 27.6339
710.000000 89.230 28.2827
720.000000 89.246 28.8955
730.000000 89.263 29.5019
740.000000 89.285 30.1318
750.000000 89.307 30.8052
762.000000 89.325 31.5838
775.000000 89.353 32.4028
788.000000 89.393 33.2335
800.000000 89.429 34.0167
812.000000 89.462 34.7963
825.000000 89.507 35.6515
838.000000 89.561 36.4709
850.000000 89.611 37.1982
862.000000 89.664 37.9175
875.000000 89.723 38.6851
885.000000 89.767 39.2804
900.000000 89.836 40.1950
912.000000 89.894 40.9173
925.000000 89.965 41.6607
938.000000 90.039 42.3672
950.000000 90.107 43.0073
962.000000 90.174 43.6275
975.000000 90.246 44.2734
988.000000 90.319 44.8973
1000.000000 90.393 45.4428
1015.000000 90.488 46.0713
1030.000000 90.581 46.6660
1044.000000 90.663 47.2117
1060.000000 90.754 47.8048
1075.000000 90.842 48.3091
1090.000000 90.936 48.7814
1106.000000 91.043 49.2572
1120.000000 91.136 49.6549
1138.000000 91.252 50.1409
1150.000000 91.325 50.4496
1172.000000 91.455 50.9791
1180.000000 91.500 51.1550
1206.000000 91.641 51.7215
1220.000000 91.719 52.0230
1241.000000 91.833 52.4412
1250.000000 91.880 52.6287
1265.000000 91.957 52.9430
1280.000000 92.033 53.2457
1315.000000 92.205 53.9563
1320.000000 92.226 54.0586
1340.000000 92.300 54.4894
1360.000000 92.355 54.9317
1380.000000 92.411 55.3596
1400.000000 92.482 55.8090
1430.000000 92.589 56.5134
1450.000000 92.657 56.9975
1475.000000 92.738 57.6243
1500.000000 92.822 58.2600
1525.000000 92.909 58.8910
1550.000000 92.993 59.5664
1575.000000 93.074 60.2410
1600.000000 93.153 60.9406
1625.000000 93.231 61.6409
1650.000000 93.310 62.3621
1675.000000 93.394 63.0819
1700.000000 93.483 63.7946
1725.000000 93.575 64.5177
1750.000000 93.666 65.2401
1775.000000 93.759 65.9659
1800.000000 93.854 66.6771
1825.000000 93.952 67.3920
1850.000000 94.051 68.1019
1875.000000 94.155 68.7928
1900.000000 94.263 69.4777
1925.000000 94.372 70.1492
1950.000000 94.481 70.8195
1975.000000 94.594 71.4775
2000.000000 94.713 72.1025
2030.000000 94.860 72.8297
2060.000000 95.008 73.5359
2090.000000 95.157 74.2196
2120.000000 95.314 74.8550
2140.000000 95.423 75.2530
2180.000000 95.643 76.0222
2200.000000 95.752 76.3751
2240.000000 95.969 77.0205
2270.000000 96.133 77.4545
2300.000000 96.297 77.8328
2330.000000 96.462 78.1692
2360.000000 96.629 78.4458
2400.000000 96.855 78.7280
2430.000000 97.026 78.8748
2470.000000 97.251 78.9669
2500.000000 97.415 78.9770
2540.000000 97.630 78.8816
2580.000000 97.837 78.6810
2620.000000 98.033 78.3792
2650.000000 98.172 78.0856
2690.000000 98.347 77.6143
2720.000000 98.470 77.1980
2760.000000 98.618 76.5779
2800.000000 98.744 75.9071
2850.000000 98.874 75.0179
2900.000000 98.974 74.1119
2950.000000 99.049 73.2419
3000.000000 99.110 72.3971
3040.000000 99.152 71.6912
3070.000000 99.177 71.1296
3110.000000 99.192 70.3349
3150.000000 99.185 69.5086
3200.000000 99.145 68.5002
3250.000000 99.069 67.6034
3300.000000 98.962 66.8690
3350.000000 98.835 66.3169
3400.000000 98.701 65.9477
3450.000000 98.569 65.7392
3500.000000 98.436 65.6880
3550.000000 98.304 65.7723
3600.000000 98.177 65.9620
3650.000000 98.057 66.2527
3700.000000 97.943 66.6235
3750.000000 97.833 67.0663
3820.000000 97.682 67.8056
3870.000000 97.577 68.4056
3950.000000 97.420 69.4827
4000.000000 97.330 70.2094
4060.000000 97.229 71.1422
4120.000000 97.140 72.1095
4180.000000 97.060 73.1175
4250.000000 96.977 74.3268
4310.000000 96.913 75.3606
4370.000000 96.847 76.4004
4440.000000 96.783 77.5707
4500.000000 96.739 78.5241
4550.000000 96.707 79.2802
4620.000000 96.660 80.2723
4680.000000 96.614 81.0639
4750.000000 96.560 81.8902
4820.000000 96.499 82.6399
4870.000000 96.443 83.1590
4940.000000 96.343 83.9036
5000.000000 96.237 84.6112
5080.000000 96.079 85.7000
5150.000000 95.933 86.8302
5220.000000 95.793 88.1382
5300.000000 95.653 89.8276
5380.000000 95.540 91.7180
5450.000000 95.471 93.5075
5520.000000 95.438 95.3916
5600.000000 95.459 97.5647
5700.000000 95.603 100.0109
5800.000000 95.866 101.6423
5900.000000 96.163 101.8605
6000.000000 96.344 100.4594
6080.000000 96.303 98.5852
6150.000000 96.100 96.9763
6220.000000 95.759 95.8609
6300.000000 95.253 95.5301
6400.000000 94.555 96.6224
6500.000000 93.882 99.1573
6600.000000 93.279 102.8780
6700.000000 92.793 107.5504
6800.000000 92.476 112.9323
6900.000000 92.376 118.6542
7000.000000 92.491 124.3358
7100.000000 92.784 129.6850
7200.000000 93.230 134.4843
7300.000000 93.805 138.5739
7400.000000 94.497 141.7900
7500.000000 95.290 143.9209
7620.000000 96.343 144.7320
7750.000000 97.517 142.9030
7880.000000 98.438 137.5126
8000.000000 98.835 129.6991
8120.000000 98.652 120.8954
8250.000000 97.825 112.8325
8380.000000 96.561 108.0366
8500.000000 95.245 106.6480
8620.000000 93.950 107.6087
8750.000000 92.658 110.5586
8850.000000 91.771 113.7703
9000.000000 90.629 119.6180
9120.000000 89.883 124.8648
9250.000000 89.228 130.8439
9380.000000 88.720 136.9025
9500.000000 88.370 142.4153
9620.000000 88.114 147.7679
9750.000000 87.928 153.3201
9880.000000 87.826 158.5701
10000.000000 87.793 163.0940
10150.000000 87.819 168.1994
10300.000000 87.893 172.5645
10440.000000 87.961 175.8902
10600.000000 87.984 178.8386
10750.000000 87.906 -178.9862
10900.000000 87.698 -176.9417
11060.000000 87.343 -174.3364
11200.000000 86.967 -171.3783
11380.000000 86.492 -166.6313
11500.000000 86.216 -163.0711
11720.000000 85.802 -156.1926
11800.000000 85.680 -153.6307
12060.000000 85.399 -145.2975
12200.000000 85.309 -141.0270
12410.000000 85.185 -135.1296
12500.000000 85.118 -132.7571
12650.000000 84.978 -128.8830
12800.000000 84.802 -124.9324
13150.000000 84.321 -114.4398
13200.000000 84.259 -112.7461
13400.000000 84.075 -105.5092
13600.000000 84.034 -97.7025
13800.000000 84.188 -89.6188
14000.000000 84.554 -81.5684
14300.000000 85.532 -70.2549
14500.000000 86.503 -63.8835
14750.000000 88.031 -58.5576
15000.000000 89.657 -57.8716
15250.000000 90.909 -62.8092
15500.000000 91.349 -71.1528
15750.000000 90.929 -77.8750
16000.000000 90.053 -79.8477
16250.000000 89.236 -77.5278
16500.000000 88.791 -72.8158
16750.000000 88.820 -67.6016
17000.000000 89.296 -63.6571
17250.000000 90.033 -62.6357
17500.000000 90.701 -65.3978
17750.000000 90.963 -71.1945
18000.000000 90.653 -77.5822
18250.000000 89.881 -81.6034
18500.000000 89.139 -81.8772
18750.000000 89.085 -80.5710
19000.000000 89.609 -81.6016
19250.000000 89.913 -86.0113
19500.000000 89.537 -91.7602
19750.000000 88.485 -96.5901
20000.000000 86.906 -99.1827
20300.000000 84.607 -98.8542
20600.000000 82.241 -95.0431
20900.000000 79.961 -88.3765
21200.000000 77.875 -79.9385
21400.000000 76.660 -76.1547
21800.000000 74.203 -141.6495
22000.000000 72.274 -13.9842
22400.000000 65.572 -152.7197
22700.000000 58.352 27.1387
23000.000000 50.773 -25.3828
23300.000000 45.980 98.3594
23600.000000 45.742 125.1953
24000.000000 47.253 -168.0000
