* Measurement data measured by REW V5.20.13
* Source: Headset (DS by VECLAN.COM), no input selected, L, volume: 1.000. Timing signal peak level -30.5 dBFS, measurement signal peak level -18.1 dBFS
* Format: 2M Log Swept Sine, 1 sweep at -12.0 dBFS using an acoustic timing reference
* Dated: May 18, 2023 5:46:11 PM
* REW Settings:
*  C-weighting compensation: Off
*  Target level: 75.0 dB
* Note: ; Delay 2.6574 ms (911 mm, 2 ft 11.89 in) using IR start time relative to Acoustic reference played from SPEAKER L with no timing offset Clock adjustment: -398.0 ppm
* Measurement: Quarks DSP B L
* Smoothing: 1/24 octave
* Frequency Step: 1/48 octave
* Start Frequency: 1.000 Hz
*
* Freq(Hz) SPL(dB) Phase(degrees)
1.000000 65.676 56.2180
1.015000 65.993 54.9914
1.030000 66.306 53.8045
1.044000 66.594 52.7364
1.060000 66.919 51.5672
1.075000 67.219 50.5255
1.090000 67.516 49.5408
1.106000 67.826 48.5583
1.120000 68.094 47.7575
1.138000 68.433 46.8032
1.150000 68.655 46.2105
1.172000 69.055 45.2056
1.180000 69.199 44.8641
1.206000 69.657 43.8313
1.220000 69.899 43.3179
1.241000 70.256 42.5938
1.250000 70.407 42.2977
1.265000 70.656 41.8196
1.280000 70.902 41.3567
1.315000 71.465 40.3102
1.320000 71.544 40.1621
1.340000 71.857 39.5662
1.360000 72.166 38.9570
1.380000 72.471 38.3236
1.400000 72.773 37.6551
1.430000 73.219 36.5632
1.450000 73.513 35.7601
1.475000 73.876 34.6577
1.500000 74.231 33.4816
1.525000 74.579 32.2501
1.550000 74.919 30.9725
1.575000 75.252 29.6580
1.600000 75.577 28.3159
1.625000 75.897 26.9553
1.650000 76.210 25.5854
1.675000 76.517 24.2155
1.700000 76.818 22.8548
1.725000 77.115 21.5125
1.750000 77.407 20.1978
1.775000 77.695 18.9200
1.800000 77.979 17.6882
1.825000 78.259 16.5118
1.850000 78.535 15.3919
1.875000 78.805 14.3121
1.900000 79.069 13.2673
1.925000 79.328 12.2534
1.950000 79.582 11.2661
1.975000 79.831 10.3009
2.000000 80.075 9.3538
2.030000 80.362 8.2349
2.060000 80.643 7.1284
2.090000 80.919 6.0268
2.120000 81.189 4.9227
2.140000 81.367 4.1816
2.180000 81.717 2.6776
2.200000 81.889 1.9103
2.240000 82.226 0.3611
2.270000 82.471 -0.8054
2.300000 82.710 -1.9738
2.330000 82.944 -3.1422
2.360000 83.173 -4.3087
2.400000 83.471 -5.8581
2.430000 83.688 -7.0131
2.470000 83.972 -8.5402
2.500000 84.181 -9.6734
2.540000 84.454 -11.1648
2.580000 84.720 -12.6314
2.620000 84.979 -14.0842
2.650000 85.168 -15.1658
2.690000 85.413 -16.5957
2.720000 85.592 -17.6578
2.760000 85.825 -19.0587
2.800000 86.051 -20.4404
2.850000 86.326 -22.1374
2.900000 86.594 -23.7975
2.950000 86.854 -25.4161
3.000000 87.105 -26.9869
3.040000 87.299 -28.2129
3.070000 87.441 -29.1172
3.110000 87.625 -30.3061
3.150000 87.804 -31.4793
3.200000 88.022 -32.9303
3.250000 88.234 -34.3713
3.300000 88.441 -35.8104
3.350000 88.641 -37.2515
3.400000 88.834 -38.6888
3.450000 89.020 -40.1146
3.500000 89.201 -41.5215
3.550000 89.376 -42.9021
3.600000 89.546 -44.2487
3.650000 89.713 -45.5541
3.700000 89.875 -46.8114
3.750000 90.033 -48.0229
3.820000 90.244 -49.6570
3.870000 90.390 -50.7911
3.950000 90.616 -52.5705
4.000000 90.754 -53.6733
4.060000 90.916 -54.9975
4.120000 91.072 -56.3129
4.180000 91.224 -57.6126
4.250000 91.395 -59.1023
4.310000 91.537 -60.3506
4.370000 91.677 -61.5671
4.440000 91.836 -62.9390
4.500000 91.969 -64.0733
4.550000 92.076 -64.9949
4.620000 92.223 -66.2577
4.680000 92.346 -67.3228
4.750000 92.487 -68.5560
4.820000 92.624 -69.7824
4.870000 92.719 -70.6481
4.940000 92.850 -71.8450
5.000000 92.959 -72.8560
5.080000 93.101 -74.1817
5.150000 93.221 -75.3195
5.220000 93.339 -76.4346
5.300000 93.469 -77.6838
5.380000 93.595 -78.9101
5.450000 93.702 -79.9680
5.520000 93.806 -81.0142
5.600000 93.921 -82.1927
5.700000 94.060 -83.6392
5.800000 94.192 -85.0570
5.900000 94.319 -86.4471
6.000000 94.440 -87.8103
6.080000 94.532 -88.8802
6.150000 94.611 -89.8005
6.220000 94.687 -90.7052
6.300000 94.770 -91.7195
6.400000 94.870 -92.9590
6.500000 94.965 -94.1687
6.600000 95.056 -95.3505
6.700000 95.143 -96.5051
6.800000 95.226 -97.6314
6.900000 95.305 -98.7281
7.000000 95.381 -99.7936
7.100000 95.454 -100.8266
7.200000 95.524 -101.8302
7.300000 95.593 -102.8085
7.400000 95.659 -103.7626
7.500000 95.723 -104.6899
7.620000 95.799 -105.7723
7.750000 95.879 -106.9126
7.880000 95.957 -108.0145
8.000000 96.028 -109.0069
8.120000 96.098 -109.9845
8.250000 96.173 -111.0211
8.380000 96.247 -112.0423
8.500000 96.313 -112.9783
8.620000 96.379 -113.9046
8.750000 96.447 -114.8995
8.850000 96.497 -115.6609
9.000000 96.569 -116.7965
9.120000 96.623 -117.6941
9.250000 96.677 -118.6537
9.380000 96.727 -119.6019
9.500000 96.770 -120.4577
9.620000 96.809 -121.2908
9.750000 96.848 -122.1710
9.880000 96.885 -123.0220
10.000000 96.917 -123.7777
10.150000 96.955 -124.6862
10.300000 96.993 -125.5598
10.440000 97.030 -126.3390
10.600000 97.072 -127.2043
10.750000 97.115 -128.0009
10.900000 97.159 -128.7834
11.060000 97.208 -129.6255
11.200000 97.251 -130.3664
11.380000 97.304 -131.3301
11.500000 97.338 -131.9846
11.720000 97.394 -133.1895
11.800000 97.411 -133.6261
12.060000 97.458 -135.0305
12.200000 97.477 -135.7522
12.410000 97.498 -136.7870
12.500000 97.506 -137.2026
12.650000 97.517 -137.8593
12.800000 97.529 -138.4757
13.150000 97.566 -139.7598
13.200000 97.573 -139.9341
13.400000 97.607 -140.6040
13.600000 97.648 -141.2737
13.800000 97.696 -141.9584
14.000000 97.746 -142.6755
14.300000 97.821 -143.8142
14.500000 97.866 -144.6073
14.750000 97.914 -145.6042
15.000000 97.954 -146.5905
15.250000 97.987 -147.5370
15.500000 98.017 -148.4430
15.750000 98.045 -149.3107
16.000000 98.074 -150.1530
16.250000 98.103 -150.9827
16.500000 98.131 -151.8032
16.750000 98.157 -152.6165
17.000000 98.181 -153.4158
17.250000 98.203 -154.2002
17.500000 98.225 -154.9683
17.750000 98.246 -155.7288
18.000000 98.266 -156.4872
18.250000 98.285 -157.2494
18.500000 98.299 -158.0120
18.750000 98.310 -158.7628
19.000000 98.315 -159.4906
19.250000 98.317 -160.1754
19.500000 98.320 -160.8163
19.750000 98.326 -161.4140
20.000000 98.337 -161.9874
20.299999 98.358 -162.6758
20.600000 98.386 -163.3928
20.900000 98.415 -164.1564
21.200001 98.441 -164.9615
21.400000 98.455 -165.5063
21.799999 98.474 -166.5849
22.000000 98.480 -167.1059
22.400000 98.490 -168.0986
22.700001 98.499 -168.8063
23.000000 98.508 -169.4923
23.299999 98.519 -170.1627
23.600000 98.532 -170.8209
24.000000 98.551 -171.6866
24.299999 98.567 -172.3368
24.700001 98.588 -173.2175
25.000000 98.601 -173.8883
25.400000 98.612 -174.7779
25.799999 98.615 -175.6285
26.200001 98.618 -176.4254
26.500000 98.621 -177.0024
26.900000 98.628 -177.7764
27.200001 98.631 -178.3718
27.600000 98.627 -179.1672
28.000000 98.615 -179.9066
28.500000 98.601 179.3075
29.000000 98.613 178.5950
29.500000 98.650 177.7665
30.000000 98.686 176.7159
30.400000 98.697 175.7790
30.700001 98.693 175.0833
31.100000 98.679 174.2227
31.500000 98.665 173.4393
32.000000 98.657 172.4993
32.500000 98.654 171.5324
33.000000 98.648 170.5521
33.500000 98.637 169.6141
34.000000 98.631 168.7269
34.500000 98.631 167.8449
35.000000 98.632 166.9404
35.500000 98.629 166.0360
36.000000 98.624 165.1670
36.500000 98.620 164.3329
37.000000 98.619 163.5037
37.500000 98.619 162.6599
38.200001 98.613 161.4731
38.700001 98.605 160.6438
39.500000 98.594 159.3470
40.000000 98.587 158.5403
40.599998 98.579 157.5697
41.200001 98.570 156.5964
41.799999 98.560 155.6194
42.500000 98.547 154.4790
43.099998 98.534 153.5097
43.700001 98.520 152.5502
44.400002 98.504 151.4382
45.000000 98.489 150.4897
45.500000 98.477 149.7026
46.200001 98.459 148.6065
46.799999 98.443 147.6760
47.500000 98.426 146.6031
48.200001 98.412 145.5207
48.700001 98.401 144.7293
49.400002 98.380 143.6187
50.000000 98.358 142.7025
50.799999 98.335 141.5245
51.500000 98.318 140.4727
52.200001 98.297 139.4006
53.000000 98.268 138.2072
53.799999 98.240 137.0293
54.500000 98.214 135.9863
55.200001 98.186 134.9634
56.000000 98.160 133.7976
57.000000 98.125 132.2376
58.000000 98.069 130.7300
59.000000 98.025 129.3869
60.000000 98.003 128.0055
60.799999 97.986 126.8268
61.500000 97.965 125.7668
62.200001 97.935 124.7141
63.000000 97.895 123.5527
64.000000 97.840 122.1573
65.000000 97.785 120.8338
66.000000 97.747 119.5591
67.000000 97.730 118.1769
68.000000 97.709 116.6132
69.000000 97.664 114.9830
70.000000 97.593 113.4366
71.000000 97.511 112.0255
72.000000 97.420 110.7268
73.000000 97.321 109.5543
74.000000 97.223 108.5466
75.000000 97.139 107.6843
76.199997 97.062 106.7809
77.500000 97.003 106.0181
78.800003 96.971 105.5497
80.000000 96.956 105.3847
81.199997 96.944 105.4757
82.500000 96.921 105.7812
83.800003 96.874 106.2405
85.000000 96.811 106.7344
86.199997 96.735 107.2215
87.500000 96.643 107.7081
88.500000 96.571 108.0684
90.000000 96.471 108.6117
91.199997 96.397 109.0785
92.500000 96.320 109.6548
93.800003 96.246 110.2903
95.000000 96.173 110.9094
96.199997 96.093 111.5704
97.500000 96.006 112.3226
98.800003 95.918 113.0940
100.000000 95.836 113.8427
101.500000 95.737 114.8286
103.000000 95.638 115.8411
104.400002 95.540 116.8231
106.000000 95.424 118.0059
107.500000 95.317 119.1471
109.000000 95.209 120.3140
110.599998 95.094 121.6061
112.000000 94.992 122.7880
113.800003 94.862 124.3754
115.000000 94.776 125.4572
117.199997 94.614 127.4776
118.000000 94.554 128.2438
120.599998 94.367 130.8379
122.000000 94.266 132.2827
124.099998 94.111 134.5464
125.000000 94.046 135.5391
126.500000 93.936 137.2073
128.000000 93.825 138.9066
131.500000 93.567 143.0776
132.000000 93.531 143.6949
134.000000 93.389 146.2083
136.000000 93.249 148.7971
138.000000 93.112 151.4522
140.000000 92.978 154.1646
143.000000 92.778 158.3535
145.000000 92.648 161.2177
147.500000 92.490 164.8683
150.000000 92.340 168.5953
152.500000 92.192 172.4142
155.000000 92.049 176.3354
157.500000 91.917 -179.6746
160.000000 91.791 -175.6232
162.500000 91.668 -171.4624
165.000000 91.551 -167.1991
167.500000 91.442 -162.8929
170.000000 91.340 -158.5560
172.500000 91.247 -154.1821
175.000000 91.159 -149.7557
177.500000 91.081 -145.2497
180.000000 91.015 -140.6780
182.500000 90.957 -136.0701
185.000000 90.900 -131.4503
187.500000 90.845 -126.8030
190.000000 90.801 -122.1290
192.500000 90.762 -117.4250
195.000000 90.724 -112.6566
197.500000 90.687 -107.8389
200.000000 90.658 -103.0290
203.000000 90.627 -97.2702
206.000000 90.602 -91.4729
209.000000 90.582 -85.6294
212.000000 90.567 -79.7313
214.000000 90.558 -75.7598
218.000000 90.547 -67.7642
220.000000 90.546 -63.7674
224.000000 90.547 -55.7607
227.000000 90.548 -49.7223
230.000000 90.548 -43.6885
233.000000 90.548 -37.6404
236.000000 90.550 -31.5400
240.000000 90.554 -23.3252
243.000000 90.563 -17.1315
247.000000 90.579 -8.8533
250.000000 90.590 -2.6163
254.000000 90.602 5.7553
258.000000 90.615 14.2039
262.000000 90.626 22.6750
265.000000 90.632 29.0235
269.000000 90.642 37.5364
272.000000 90.653 43.9581
276.000000 90.670 52.5612
280.000000 90.689 61.2173
285.000000 90.707 72.0619
290.000000 90.716 82.9554
295.000000 90.726 93.9590
300.000000 90.735 105.0823
304.000000 90.747 114.0535
307.000000 90.754 120.7869
311.000000 90.758 129.8733
315.000000 90.779 139.0059
320.000000 90.761 150.3196
325.000000 90.723 162.4621
330.000000 90.924 174.8062
335.000000 91.302 -175.0525
340.000000 91.536 -168.2535
345.000000 91.456 -164.7498
350.000000 91.141 -164.6331
355.000000 90.856 -167.4107
360.000000 90.804 -171.0952
365.000000 90.844 -174.2360
370.000000 90.837 -177.3192
375.000000 90.828 179.3430
382.000000 90.811 174.5009
387.000000 90.798 170.9161
395.000000 90.785 164.9689
400.000000 90.776 161.1458
406.000000 90.765 156.4335
412.000000 90.752 151.5319
418.000000 90.736 146.4776
425.000000 90.717 140.3565
431.000000 90.698 134.9221
437.000000 90.676 129.3422
444.000000 90.651 122.6590
450.000000 90.634 116.7902
455.000000 90.620 111.8041
462.000000 90.599 104.7207
468.000000 90.579 98.5679
475.000000 90.555 91.2626
482.000000 90.535 83.8014
487.000000 90.522 78.3652
494.000000 90.502 70.5926
500.000000 90.486 63.7730
508.000000 90.463 54.4463
515.000000 90.442 46.1033
522.000000 90.420 37.5957
530.000000 90.390 27.6519
538.000000 90.361 17.5070
545.000000 90.341 8.4978
552.000000 90.325 -0.6428
560.000000 90.303 -11.2654
570.000000 90.274 -24.8545
580.000000 90.244 -38.7395
590.000000 90.220 -52.8378
600.000000 90.199 -67.1905
608.000000 90.180 -78.8555
615.000000 90.163 -89.1648
622.000000 90.151 -99.5825
630.000000 90.142 -111.6396
640.000000 90.129 -126.9529
650.000000 90.109 -142.6020
660.000000 90.092 -158.5799
670.000000 90.080 -174.8023
680.000000 90.071 168.7551
690.000000 90.065 152.0731
700.000000 90.061 135.1555
710.000000 90.060 118.0015
720.000000 90.058 100.6078
730.000000 90.058 83.0065
740.000000 90.063 65.1898
750.000000 90.073 47.1768
762.000000 90.085 25.3209
775.000000 90.103 1.3552
788.000000 90.133 -22.9053
800.000000 90.167 -45.6244
812.000000 90.200 -68.7382
825.000000 90.236 -94.2317
838.000000 90.278 -120.1436
850.000000 90.324 -144.4030
862.000000 90.373 -168.9805
875.000000 90.431 164.0554
885.000000 90.484 143.0738
900.000000 90.563 111.1992
912.000000 90.626 85.3846
925.000000 90.705 57.1226
938.000000 90.793 28.5616
950.000000 90.875 1.9014
962.000000 90.959 -25.0693
975.000000 91.057 -54.6615
988.000000 91.132 -84.7521
1000.000000 91.076 -112.4054
1015.000000 90.900 -143.6436
1030.000000 91.020 -168.3899
1044.000000 91.388 174.3962
1060.000000 91.680 158.6460
1075.000000 91.811 144.3972
1090.000000 91.931 130.0366
1106.000000 92.060 114.6787
1120.000000 92.169 101.1798
1138.000000 92.304 83.7522
1150.000000 92.394 72.0861
1172.000000 92.552 50.6353
1180.000000 92.608 42.8232
1206.000000 92.793 17.3113
1220.000000 92.884 3.4219
1241.000000 93.004 -17.6522
1250.000000 93.055 -26.7347
1265.000000 93.144 -41.8925
1280.000000 93.233 -57.0770
1315.000000 93.416 -92.7710
1320.000000 93.440 -97.8955
1340.000000 93.538 -118.3811
1360.000000 93.639 -138.8156
1380.000000 93.743 -159.3021
1400.000000 93.832 -179.9695
1430.000000 93.958 148.8109
1450.000000 94.048 127.9937
1475.000000 94.158 101.9595
1500.000000 94.265 75.8843
1525.000000 94.371 49.8229
1550.000000 94.482 23.7954
1575.000000 94.598 -2.3237
1600.000000 94.706 -28.6564
1625.000000 94.813 -55.1278
1650.000000 94.927 -81.6633
1675.000000 95.043 -108.3243
1700.000000 95.157 -135.1294
1725.000000 95.273 -161.9979
1750.000000 95.392 171.1407
1775.000000 95.518 144.2448
1800.000000 95.642 117.1541
1825.000000 95.759 89.7988
1850.000000 95.884 62.2460
1875.000000 96.009 34.5273
1900.000000 96.133 6.6548
1925.000000 96.262 -21.3082
1950.000000 96.393 -49.3171
1975.000000 96.529 -77.3940
2000.000000 96.664 -105.6060
2030.000000 96.823 -139.7163
2060.000000 96.980 -174.0591
2090.000000 97.138 151.4736
2120.000000 97.298 116.9072
2140.000000 97.403 93.7964
2180.000000 97.612 47.3762
2200.000000 97.711 24.0674
2240.000000 97.906 -22.7036
2270.000000 98.046 -57.9248
2300.000000 98.176 -93.2373
2330.000000 98.301 -128.5684
2360.000000 98.412 -163.9302
2400.000000 98.538 148.8696
2430.000000 98.625 113.4233
2470.000000 98.714 65.7932
2500.000000 98.750 29.6301
2540.000000 98.765 -18.9958
2580.000000 98.750 -67.8254
2620.000000 98.694 -116.7939
2650.000000 98.626 -153.5303
2690.000000 98.508 157.6846
2720.000000 98.409 121.3098
2760.000000 98.258 72.9258
2800.000000 98.091 24.5337
2850.000000 97.896 -35.7273
2900.000000 97.743 -95.6858
2950.000000 97.634 -155.6816
3000.000000 97.581 144.0540
3040.000000 97.556 95.4043
3070.000000 97.543 58.7725
3110.000000 97.543 10.0693
3150.000000 97.547 -38.4771
3200.000000 97.526 -99.4404
3250.000000 97.464 -160.9919
3300.000000 97.379 137.0393
3350.000000 97.278 74.7451
3400.000000 97.175 12.2114
3450.000000 97.086 -50.4583
3500.000000 97.012 -113.3892
3550.000000 96.937 -176.6577
3600.000000 96.860 120.0295
3650.000000 96.785 56.9717
3700.000000 96.700 -5.8926
3750.000000 96.607 -68.6133
3820.000000 96.473 -156.2832
3870.000000 96.369 140.9790
3950.000000 96.192 40.2295
4000.000000 96.073 -23.1035
4060.000000 95.908 -99.5049
4120.000000 95.735 -175.9653
4180.000000 95.564 107.7109
4250.000000 95.384 18.7700
4310.000000 95.253 -57.5923
4370.000000 95.136 -134.2085
4440.000000 95.027 136.2559
4500.000000 94.952 59.3101
4550.000000 94.895 -5.0898
4620.000000 94.825 -95.6025
4680.000000 94.774 -173.4380
4750.000000 94.729 95.3926
4820.000000 94.684 3.3940
4870.000000 94.647 -62.8691
4940.000000 94.606 -155.7651
5000.000000 94.591 124.8340
5080.000000 94.577 18.8594
5150.000000 94.571 -74.1191
5220.000000 94.573 -167.1118
5300.000000 94.591 86.7822
5380.000000 94.615 -19.3989
5450.000000 94.637 -112.6211
5520.000000 94.659 153.7637
5600.000000 94.679 46.2368
5700.000000 94.705 -88.8081
5800.000000 94.734 135.5991
5900.000000 94.783 -0.1890
6000.000000 94.846 -136.3267
6080.000000 94.902 114.4253
6150.000000 94.959 18.8691
6220.000000 95.026 -76.5479
6300.000000 95.100 174.3169
6400.000000 95.190 37.5850
6500.000000 95.274 -99.6221
6600.000000 95.345 122.6025
6700.000000 95.404 -15.5625
6800.000000 95.452 -153.9590
6900.000000 95.492 67.2695
7000.000000 95.512 -72.4473
7100.000000 95.514 146.5166
7200.000000 95.501 4.2900
7300.000000 95.485 -138.5068
7400.000000 95.465 78.4834
7500.000000 95.426 -64.8623
7620.000000 95.357 122.8994
7750.000000 95.257 -63.7070
7880.000000 95.136 109.2695
8000.000000 95.006 -64.0430
8120.000000 94.896 122.6416
8250.000000 94.817 -64.8877
8380.000000 94.795 107.8760
8500.000000 94.807 -65.1953
8620.000000 94.816 120.8945
8750.000000 94.790 -68.4639
8850.000000 94.721 145.1660
9000.000000 94.507 -75.6699
9120.000000 94.238 106.7188
9250.000000 93.853 -86.3945
9380.000000 93.394 80.3340
9500.000000 92.923 -97.7842
9620.000000 92.416 84.2705
9750.000000 91.829 -108.5068
9880.000000 91.211 58.6250
10000.000000 90.615 -119.7773
10150.000000 89.832 16.6787
10300.000000 89.044 153.9600
10440.000000 88.319 -52.7090
10600.000000 87.516 71.6660
10750.000000 86.783 -149.9600
10900.000000 86.082 -12.3223
11060.000000 85.377 110.2334
11200.000000 84.805 -97.4424
11380.000000 84.126 -5.2471
11500.000000 83.702 175.1211
11720.000000 82.990 -156.1367
11800.000000 82.755 82.9834
12060.000000 82.066 48.5732
12200.000000 81.743 -164.4307
12410.000000 81.317 -123.7695
12500.000000 81.162 99.8516
12650.000000 80.939 -127.0820
12800.000000 80.745 5.5547
13150.000000 80.421 -167.9766
13200.000000 80.389 115.3691
13400.000000 80.305 167.9414
13600.000000 80.278 -140.2500
13800.000000 80.305 -88.5742
14000.000000 80.397 -37.4414
14300.000000 80.614 -144.1797
14500.000000 80.806 -97.4648
14750.000000 81.108 -130.7539
15000.000000 81.448 -165.3301
15250.000000 81.806 161.5938
15500.000000 82.137 129.6660
15750.000000 82.385 96.1836
16000.000000 82.484 59.4961
16250.000000 82.420 21.1328
16500.000000 82.186 -18.1406
16750.000000 81.806 -58.0859
17000.000000 81.337 -96.4785
17250.000000 80.853 -132.1230
17500.000000 80.395 -167.4805
17750.000000 80.008 155.8164
18000.000000 79.750 117.4766
18250.000000 79.640 77.3516
18500.000000 79.731 36.0742
18750.000000 80.104 -6.0410
19000.000000 80.591 -50.6738
19250.000000 80.815 -98.8867
19500.000000 80.476 -148.8652
19750.000000 79.474 162.0254
20000.000000 77.895 115.2305
20300.000000 75.463 -9.4043
20600.000000 72.693 -130.2520
20900.000000 69.802 112.2832
21200.000000 66.911 -2.7930
21400.000000 64.994 40.8320
21800.000000 61.096 124.9180
22000.000000 59.029 163.5156
22400.000000 54.383 -150.2930
22700.000000 50.216 -97.9648
23000.000000 45.242 -175.5938
23300.000000 39.322 26.0117
23600.000000 32.406 78.5312
24000.000000 23.034 -31.2500
