* Measurement data measured by REW V5.20.13
* Source: Headset (DS by VECLAN.COM), MICROPHONE (Master Volume), L, volume: 0.720. Timing signal peak level -15.9 dBFS, measurement signal peak level -15.6 dBFS
* Format: 4M Log Swept Sine, 1 sweep at -12.0 dBFS using an acoustic timing reference
* Dated: Dec 6, 2023 1:55:14 PM
* REW Settings:
*  C-weighting compensation: Off
*  Target level: 75.0 dB
* Note: ; Apple + Abigail Delay -0.0658 ms (-23 mm, -0.89 in) using estimated IR delay relative to Acoustic reference played from  R with no timing offset Clock adjustment: -0.2 ppm
* Measurement: Brass Silicone R
* Smoothing: 1/24 octave
* Frequency Step: 1/48 octave
* Start Frequency: 1.000 Hz
*
* Freq(Hz) SPL(dB) Phase(degrees)
1.000000 66.321 -2.8349
1.015000 66.982 -3.9609
1.030000 67.616 -5.0573
1.044000 68.179 -6.0503
1.060000 68.783 -7.1448
1.075000 69.304 -8.1273
1.090000 69.776 -9.0634
1.106000 70.225 -10.0088
1.120000 70.593 -10.8058
1.138000 71.042 -11.7951
1.150000 71.327 -12.4337
1.172000 71.819 -13.5633
1.180000 71.989 -13.9615
1.206000 72.513 -15.2130
1.220000 72.777 -15.8616
1.241000 73.153 -16.8042
1.250000 73.307 -17.1978
1.265000 73.554 -17.8412
1.280000 73.792 -18.4699
1.315000 74.313 -19.8872
1.320000 74.384 -20.0847
1.340000 74.661 -20.8645
1.360000 74.930 -21.6301
1.380000 75.191 -22.3848
1.400000 75.449 -23.1316
1.430000 75.831 -24.2443
1.450000 76.087 -24.9857
1.475000 76.411 -25.9146
1.500000 76.717 -26.8237
1.525000 77.002 -27.7081
1.550000 77.268 -28.5686
1.575000 77.518 -29.4063
1.600000 77.753 -30.2220
1.625000 77.976 -31.0169
1.650000 78.187 -31.7917
1.675000 78.390 -32.5475
1.700000 78.587 -33.2853
1.725000 78.778 -34.0060
1.750000 78.967 -34.7105
1.775000 79.156 -35.3999
1.800000 79.346 -36.0751
1.825000 79.539 -36.7370
1.850000 79.734 -37.3813
1.875000 79.923 -37.9973
1.900000 80.106 -38.5874
1.925000 80.285 -39.1544
1.950000 80.458 -39.7015
1.975000 80.628 -40.2314
2.000000 80.795 -40.7471
2.030000 80.990 -41.3514
2.060000 81.183 -41.9446
2.090000 81.373 -42.5318
2.120000 81.562 -43.1179
2.140000 81.688 -43.5107
2.180000 81.940 -44.3076
2.200000 82.066 -44.7148
2.240000 82.319 -45.5294
2.270000 82.506 -46.1348
2.300000 82.692 -46.7361
2.330000 82.876 -47.3336
2.360000 83.059 -47.9278
2.400000 83.298 -48.7157
2.430000 83.476 -49.3038
2.470000 83.709 -50.0852
2.500000 83.881 -50.6697
2.540000 84.107 -51.4478
2.580000 84.328 -52.2254
2.620000 84.546 -53.0021
2.650000 84.706 -53.5835
2.690000 84.916 -54.3567
2.720000 85.071 -54.9345
2.760000 85.274 -55.7018
2.800000 85.473 -56.4645
2.850000 85.717 -57.4105
2.900000 85.955 -58.3469
2.950000 86.188 -59.2720
3.000000 86.414 -60.1855
3.040000 86.590 -60.9089
3.070000 86.720 -61.4478
3.110000 86.889 -62.1620
3.150000 87.056 -62.8720
3.200000 87.259 -63.7549
3.250000 87.458 -64.6343
3.300000 87.652 -65.5118
3.350000 87.842 -66.3890
3.400000 88.026 -67.2648
3.450000 88.205 -68.1369
3.500000 88.380 -69.0033
3.550000 88.551 -69.8617
3.600000 88.717 -70.7099
3.650000 88.880 -71.5459
3.700000 89.039 -72.3681
3.750000 89.194 -73.1778
3.820000 89.405 -74.2937
3.870000 89.550 -75.0802
3.950000 89.775 -76.3250
4.000000 89.911 -77.0970
4.060000 90.071 -78.0200
4.120000 90.225 -78.9395
4.180000 90.373 -79.8525
4.250000 90.541 -80.9049
4.310000 90.680 -81.7923
4.370000 90.815 -82.6626
4.440000 90.969 -83.6531
4.500000 91.096 -84.4824
4.550000 91.198 -85.1616
4.620000 91.338 -86.0967
4.680000 91.454 -86.8860
4.750000 91.587 -87.7959
4.820000 91.717 -88.6944
4.870000 91.807 -89.3272
4.940000 91.930 -90.2010
5.000000 92.033 -90.9391
5.080000 92.165 -91.9081
5.150000 92.278 -92.7423
5.220000 92.387 -93.5637
5.300000 92.508 -94.4863
5.380000 92.624 -95.3915
5.450000 92.722 -96.1693
5.520000 92.818 -96.9334
5.600000 92.924 -97.7899
5.700000 93.050 -98.8357
5.800000 93.171 -99.8552
5.900000 93.290 -100.8487
6.000000 93.404 -101.8127
6.080000 93.492 -102.5658
6.150000 93.568 -103.2145
6.220000 93.642 -103.8560
6.300000 93.725 -104.5795
6.400000 93.826 -105.4668
6.500000 93.924 -106.3379
6.600000 94.018 -107.1960
6.700000 94.109 -108.0424
6.800000 94.197 -108.8753
6.900000 94.281 -109.6924
7.000000 94.363 -110.4920
7.100000 94.442 -111.2737
7.200000 94.518 -112.0394
7.300000 94.592 -112.7913
7.400000 94.664 -113.5297
7.500000 94.734 -114.2533
7.620000 94.815 -115.1054
7.750000 94.900 -116.0124
7.880000 94.983 -116.9008
8.000000 95.056 -117.7062
8.120000 95.126 -118.4998
8.250000 95.199 -119.3456
8.380000 95.269 -120.1751
8.500000 95.331 -120.9250
8.620000 95.390 -121.6603
8.750000 95.451 -122.4400
8.850000 95.497 -123.0272
9.000000 95.563 -123.8868
9.120000 95.614 -124.5600
9.250000 95.670 -125.2766
9.380000 95.725 -125.9788
9.500000 95.773 -126.6187
9.620000 95.817 -127.2534
9.750000 95.862 -127.9331
9.880000 95.900 -128.6046
10.000000 95.926 -129.2194
10.150000 95.948 -129.9780
10.300000 95.962 -130.7131
10.440000 95.966 -131.3770
10.600000 95.966 -132.1117
10.750000 95.966 -132.7750
10.900000 95.965 -133.4166
11.060000 95.966 -134.0887
11.200000 95.968 -134.6659
11.380000 95.971 -135.3902
11.500000 95.973 -135.8607
11.720000 95.978 -136.7023
11.800000 95.981 -137.0023
12.060000 95.993 -137.9584
12.200000 96.001 -138.4711
12.410000 96.015 -139.2346
12.500000 96.021 -139.5582
12.650000 96.029 -140.0938
12.800000 96.037 -140.6215
13.150000 96.049 -141.8153
13.200000 96.051 -141.9807
13.400000 96.057 -142.6295
13.600000 96.064 -143.2543
13.800000 96.071 -143.8527
14.000000 96.079 -144.4312
14.300000 96.092 -145.2658
14.500000 96.101 -145.8055
14.750000 96.113 -146.4700
15.000000 96.127 -147.1279
15.250000 96.143 -147.7884
15.500000 96.159 -148.4425
15.750000 96.171 -149.0839
16.000000 96.180 -149.7011
16.250000 96.186 -150.2897
16.500000 96.190 -150.8481
16.750000 96.194 -151.3746
17.000000 96.201 -151.8751
17.250000 96.210 -152.3554
17.500000 96.222 -152.8224
17.750000 96.234 -153.2874
18.000000 96.247 -153.7549
18.250000 96.259 -154.2298
18.500000 96.270 -154.7075
18.750000 96.281 -155.1836
19.000000 96.290 -155.6541
19.250000 96.299 -156.1172
19.500000 96.308 -156.5710
19.750000 96.315 -157.0144
20.000000 96.321 -157.4451
20.299999 96.329 -157.9456
20.600000 96.336 -158.4295
20.900000 96.343 -158.8995
21.200001 96.350 -159.3607
21.400000 96.355 -159.6658
21.799999 96.363 -160.2731
22.000000 96.366 -160.5752
22.400000 96.370 -161.1728
22.700001 96.370 -161.6075
23.000000 96.368 -162.0229
23.299999 96.367 -162.4174
23.600000 96.367 -162.7945
24.000000 96.370 -163.2805
24.299999 96.374 -163.6419
24.700001 96.381 -164.1270
25.000000 96.386 -164.4924
25.400000 96.391 -164.9756
25.799999 96.395 -165.4472
26.200001 96.398 -165.9061
26.500000 96.399 -166.2426
26.900000 96.400 -166.6792
27.200001 96.399 -166.9936
27.600000 96.397 -167.3909
28.000000 96.397 -167.7664
28.500000 96.399 -168.2281
29.000000 96.404 -168.7080
29.500000 96.403 -169.2016
30.000000 96.393 -169.6689
30.400000 96.381 -169.9998
30.700001 96.373 -170.2231
31.100000 96.367 -170.5070
31.500000 96.365 -170.8003
32.000000 96.365 -171.2029
32.500000 96.361 -171.6306
33.000000 96.351 -172.0458
33.500000 96.340 -172.4351
34.000000 96.334 -172.8222
34.500000 96.330 -173.2353
35.000000 96.324 -173.6700
35.500000 96.314 -174.0934
36.000000 96.303 -174.4782
36.500000 96.294 -174.8284
37.000000 96.288 -175.1765
37.500000 96.283 -175.5436
38.200001 96.270 -176.0599
38.700001 96.258 -176.3968
39.500000 96.240 -176.8796
40.000000 96.232 -177.1723
40.599998 96.223 -177.5297
41.200001 96.210 -177.8845
41.799999 96.196 -178.2238
42.500000 96.182 -178.6059
43.099998 96.171 -178.9405
43.700001 96.159 -179.2821
44.400002 96.144 -179.6721
45.000000 96.130 -179.9942
45.500000 96.120 179.7403
46.200001 96.104 179.3724
46.799999 96.091 179.0698
47.500000 96.075 178.7398
48.200001 96.063 178.4255
48.700001 96.056 178.2010
49.400002 96.045 177.8785
50.000000 96.035 177.5991
50.799999 96.018 177.2343
51.500000 96.002 176.9258
52.200001 95.986 176.6249
53.000000 95.968 176.2821
53.799999 95.949 175.9357
54.500000 95.930 175.6326
55.200001 95.910 175.3323
56.000000 95.886 174.9968
57.000000 95.856 174.6127
58.000000 95.829 174.2613
59.000000 95.804 173.8848
60.000000 95.772 173.5172
60.799999 95.748 173.2575
61.500000 95.732 173.0385
62.200001 95.715 172.8109
63.000000 95.693 172.5444
64.000000 95.663 172.2198
65.000000 95.634 171.9120
66.000000 95.608 171.6107
67.000000 95.582 171.3091
68.000000 95.554 171.0182
69.000000 95.525 170.7365
70.000000 95.495 170.4616
71.000000 95.464 170.1973
72.000000 95.433 169.9393
73.000000 95.402 169.6884
74.000000 95.370 169.4511
75.000000 95.338 169.2188
76.199997 95.300 168.9338
77.500000 95.261 168.6130
78.800003 95.221 168.2717
80.000000 95.178 167.9561
81.199997 95.130 167.7209
82.500000 95.093 167.5225
83.800003 95.062 167.2583
85.000000 95.029 167.0024
86.199997 94.994 166.7627
87.500000 94.957 166.5123
88.500000 94.928 166.3220
90.000000 94.882 166.0502
91.199997 94.846 165.8464
92.500000 94.809 165.6293
93.800003 94.773 165.4079
95.000000 94.736 165.2072
96.199997 94.698 165.0186
97.500000 94.656 164.8273
98.800003 94.613 164.6534
100.000000 94.574 164.4961
101.500000 94.525 164.2908
103.000000 94.480 164.0896
104.400002 94.436 163.9090
106.000000 94.383 163.7185
107.500000 94.334 163.5697
109.000000 94.287 163.4360
110.599998 94.238 163.3064
112.000000 94.197 163.1953
113.800003 94.143 163.0493
115.000000 94.107 162.9470
117.199997 94.041 162.7090
118.000000 94.015 162.6205
120.599998 93.938 162.3864
122.000000 93.901 162.2787
124.099998 93.845 162.1257
125.000000 93.820 162.0636
126.500000 93.777 161.9722
128.000000 93.734 161.8929
131.500000 93.641 161.7154
132.000000 93.628 161.6888
134.000000 93.575 161.5838
136.000000 93.522 161.4831
138.000000 93.471 161.3790
140.000000 93.420 161.2779
143.000000 93.348 161.1900
145.000000 93.302 161.1376
147.500000 93.239 161.0699
150.000000 93.179 161.0250
152.500000 93.121 160.9886
155.000000 93.061 160.9489
157.500000 92.999 160.9233
160.000000 92.940 160.9063
162.500000 92.882 160.9156
165.000000 92.828 160.9383
167.500000 92.772 160.9586
170.000000 92.714 160.9839
172.500000 92.656 160.9991
175.000000 92.600 161.0117
177.500000 92.544 161.0420
180.000000 92.488 161.0739
182.500000 92.429 161.1011
185.000000 92.371 161.1349
187.500000 92.313 161.1777
190.000000 92.257 161.2410
192.500000 92.204 161.3137
195.000000 92.153 161.3819
197.500000 92.102 161.4570
200.000000 92.053 161.5327
203.000000 91.997 161.6261
206.000000 91.943 161.7133
209.000000 91.889 161.7911
212.000000 91.836 161.8918
214.000000 91.801 161.9753
218.000000 91.729 162.1399
220.000000 91.694 162.2155
224.000000 91.625 162.3583
227.000000 91.573 162.4719
230.000000 91.519 162.6042
233.000000 91.469 162.7565
236.000000 91.421 162.9077
240.000000 91.356 163.0922
243.000000 91.306 163.2396
247.000000 91.242 163.4579
250.000000 91.196 163.6307
254.000000 91.139 163.8645
258.000000 91.080 164.0834
262.000000 91.021 164.3029
265.000000 90.979 164.4883
269.000000 90.924 164.7369
272.000000 90.885 164.9140
276.000000 90.837 165.1599
280.000000 90.789 165.4175
285.000000 90.730 165.7361
290.000000 90.671 166.0656
295.000000 90.614 166.4117
300.000000 90.559 166.7798
304.000000 90.514 167.0661
307.000000 90.483 167.2541
311.000000 90.444 167.5056
315.000000 90.405 167.7865
320.000000 90.358 168.1437
325.000000 90.310 168.4743
330.000000 90.266 168.7975
335.000000 90.226 169.1302
340.000000 90.185 169.4716
345.000000 90.142 169.8226
350.000000 90.100 170.1694
355.000000 90.057 170.5157
360.000000 90.015 170.8748
365.000000 89.976 171.2311
370.000000 89.938 171.5832
375.000000 89.901 171.9299
382.000000 89.853 172.4149
387.000000 89.817 172.7722
395.000000 89.759 173.3394
400.000000 89.725 173.6830
406.000000 89.686 174.1273
412.000000 89.647 174.5759
418.000000 89.610 175.0104
425.000000 89.568 175.5283
431.000000 89.532 175.9722
437.000000 89.496 176.4042
444.000000 89.458 176.9104
450.000000 89.427 177.3457
455.000000 89.401 177.7104
462.000000 89.366 178.2246
468.000000 89.337 178.6726
475.000000 89.305 179.1940
482.000000 89.274 179.7111
487.000000 89.254 -179.9181
494.000000 89.229 -179.4053
500.000000 89.209 -178.9683
508.000000 89.183 -178.3790
515.000000 89.159 -177.8572
522.000000 89.136 -177.3293
530.000000 89.114 -176.7272
538.000000 89.094 -176.1327
545.000000 89.077 -175.6071
552.000000 89.061 -175.0734
560.000000 89.044 -174.4630
570.000000 89.025 -173.7146
580.000000 89.008 -172.9519
590.000000 88.991 -172.1787
600.000000 88.975 -171.4083
608.000000 88.961 -170.7825
615.000000 88.952 -170.2179
622.000000 88.946 -169.6393
630.000000 88.938 -168.9769
640.000000 88.931 -168.1625
650.000000 88.929 -167.3445
660.000000 88.931 -166.5171
670.000000 88.935 -165.7063
680.000000 88.945 -164.9188
690.000000 88.960 -164.1414
700.000000 88.977 -163.3802
710.000000 88.998 -162.6309
720.000000 89.019 -161.8936
730.000000 89.038 -161.1781
740.000000 89.059 -160.4648
750.000000 89.082 -159.7484
762.000000 89.109 -158.8848
775.000000 89.139 -157.9409
788.000000 89.170 -157.0027
800.000000 89.202 -156.1480
812.000000 89.237 -155.2806
825.000000 89.279 -154.3458
838.000000 89.326 -153.4273
850.000000 89.370 -152.5752
862.000000 89.419 -151.7303
875.000000 89.477 -150.8383
885.000000 89.522 -150.1623
900.000000 89.596 -149.1671
912.000000 89.661 -148.3777
925.000000 89.734 -147.5499
938.000000 89.808 -146.7521
950.000000 89.880 -146.0331
962.000000 89.956 -145.3288
975.000000 90.041 -144.5713
988.000000 90.133 -143.8332
1000.000000 90.218 -143.1901
1015.000000 90.314 -142.4580
1030.000000 90.416 -141.7735
1044.000000 90.519 -141.1651
1060.000000 90.639 -140.4832
1075.000000 90.749 -139.8854
1090.000000 90.863 -139.3388
1106.000000 90.992 -138.7945
1120.000000 91.107 -138.3537
1138.000000 91.255 -137.8369
1150.000000 91.351 -137.5112
1172.000000 91.524 -136.9555
1180.000000 91.586 -136.7646
1206.000000 91.782 -136.2031
1220.000000 91.889 -135.9411
1241.000000 92.047 -135.5695
1250.000000 92.114 -135.4120
1265.000000 92.224 -135.1615
1280.000000 92.331 -134.9200
1315.000000 92.568 -134.3888
1320.000000 92.601 -134.3183
1340.000000 92.724 -134.0415
1360.000000 92.826 -133.7618
1380.000000 92.924 -133.4872
1400.000000 93.031 -133.2248
1430.000000 93.196 -132.8316
1450.000000 93.306 -132.5758
1475.000000 93.440 -132.2533
1500.000000 93.573 -131.9337
1525.000000 93.703 -131.6288
1550.000000 93.826 -131.3288
1575.000000 93.945 -131.0301
1600.000000 94.063 -130.7433
1625.000000 94.181 -130.4671
1650.000000 94.301 -130.1845
1675.000000 94.422 -129.9124
1700.000000 94.542 -129.6578
1725.000000 94.660 -129.4095
1750.000000 94.778 -129.1767
1775.000000 94.898 -128.9559
1800.000000 95.017 -128.7467
1825.000000 95.136 -128.5650
1850.000000 95.255 -128.4046
1875.000000 95.374 -128.2552
1900.000000 95.493 -128.1202
1925.000000 95.612 -127.9995
1950.000000 95.731 -127.8995
1975.000000 95.853 -127.8219
2000.000000 95.975 -127.7785
2030.000000 96.111 -127.7809
2060.000000 96.246 -127.8023
2090.000000 96.383 -127.8395
2120.000000 96.519 -127.9139
2140.000000 96.607 -127.9880
2180.000000 96.779 -128.1842
2200.000000 96.861 -128.3066
2240.000000 97.021 -128.5925
2270.000000 97.136 -128.8454
2300.000000 97.247 -129.1311
2330.000000 97.352 -129.4449
2360.000000 97.454 -129.7858
2400.000000 97.582 -130.2673
2430.000000 97.671 -130.6459
2470.000000 97.782 -131.1852
2500.000000 97.857 -131.6054
2540.000000 97.947 -132.1871
2580.000000 98.029 -132.7827
2620.000000 98.100 -133.3943
2650.000000 98.147 -133.8668
2690.000000 98.200 -134.4987
2720.000000 98.231 -134.9633
2760.000000 98.261 -135.5708
2800.000000 98.282 -136.1643
2850.000000 98.295 -136.8856
2900.000000 98.295 -137.5717
2950.000000 98.282 -138.2099
3000.000000 98.257 -138.7942
3040.000000 98.229 -139.2537
3070.000000 98.204 -139.5832
3110.000000 98.166 -139.9840
3150.000000 98.123 -140.3435
3200.000000 98.060 -140.7410
3250.000000 97.989 -141.0807
3300.000000 97.911 -141.3494
3350.000000 97.828 -141.5369
3400.000000 97.740 -141.6329
3450.000000 97.653 -141.6085
3500.000000 97.570 -141.4392
3550.000000 97.498 -141.1221
3600.000000 97.444 -140.6732
3650.000000 97.421 -140.1580
3700.000000 97.430 -139.7048
3750.000000 97.464 -139.4295
3820.000000 97.509 -139.3962
3870.000000 97.519 -139.5468
3950.000000 97.487 -139.8552
4000.000000 97.446 -140.0214
4060.000000 97.388 -140.1682
4120.000000 97.321 -140.2508
4180.000000 97.250 -140.2877
4250.000000 97.161 -140.2936
4310.000000 97.078 -140.2826
4370.000000 96.982 -140.2520
4440.000000 96.861 -140.1764
4500.000000 96.755 -140.0844
4550.000000 96.666 -140.0070
4620.000000 96.536 -139.9160
4680.000000 96.414 -139.8556
4750.000000 96.252 -139.7570
4820.000000 96.066 -139.5382
4870.000000 95.923 -139.2512
4940.000000 95.719 -138.6388
5000.000000 95.557 -137.9300
5080.000000 95.371 -136.8055
5150.000000 95.235 -135.7864
5220.000000 95.117 -134.7958
5300.000000 94.995 -133.7107
5380.000000 94.879 -132.6672
5450.000000 94.779 -131.7653
5520.000000 94.683 -130.8561
5600.000000 94.575 -129.7899
5700.000000 94.445 -128.3838
5800.000000 94.325 -126.8852
5900.000000 94.224 -125.2995
6000.000000 94.153 -123.6770
6080.000000 94.120 -122.3958
6150.000000 94.107 -121.3161
6220.000000 94.107 -120.3068
6300.000000 94.116 -119.2849
6400.000000 94.119 -118.2260
6500.000000 94.092 -117.3264
6600.000000 94.022 -116.3676
6700.000000 93.922 -115.0997
6800.000000 93.837 -113.3754
6900.000000 93.827 -111.2146
7000.000000 93.927 -108.7985
7100.000000 94.141 -106.3832
7200.000000 94.466 -104.2125
7300.000000 94.892 -102.5199
7400.000000 95.401 -101.5126
7500.000000 95.972 -101.3587
7620.000000 96.711 -102.5515
7750.000000 97.480 -105.8463
7880.000000 98.005 -111.3069
8000.000000 98.171 -117.8693
8120.000000 97.978 -124.9795
8250.000000 97.368 -132.0194
8380.000000 96.440 -137.3508
8500.000000 95.417 -140.4329
8620.000000 94.332 -141.8824
8750.000000 93.159 -141.9449
8850.000000 92.289 -141.1549
9000.000000 91.063 -138.9301
9120.000000 90.162 -136.4654
9250.000000 89.270 -133.3049
9380.000000 88.458 -129.7842
9500.000000 87.769 -126.3000
9620.000000 87.135 -122.6549
9750.000000 86.505 -118.5467
9880.000000 85.929 -114.2612
10000.000000 85.440 -110.1582
10150.000000 84.879 -104.8520
10300.000000 84.370 -99.3451
10440.000000 83.941 -94.0088
10600.000000 83.510 -87.6765
10750.000000 83.169 -81.5498
10900.000000 82.894 -75.2817
11060.000000 82.681 -68.4718
11200.000000 82.562 -62.4397
11380.000000 82.503 -54.5887
11500.000000 82.529 -49.3070
11720.000000 82.723 -39.6125
11800.000000 82.843 -36.1066
12060.000000 83.433 -24.9214
12200.000000 83.887 -19.1211
12410.000000 84.771 -10.9529
12500.000000 85.236 -7.7460
12650.000000 86.144 -2.9670
12800.000000 87.230 0.8288
13150.000000 90.328 2.6978
13200.000000 90.782 1.7316
13400.000000 92.325 -6.1849
13600.000000 93.017 -19.4728
13800.000000 92.608 -33.2293
14000.000000 91.335 -42.3654
14300.000000 88.906 -45.7060
14500.000000 87.483 -43.3851
14750.000000 86.127 -37.9770
15000.000000 85.216 -31.2837
15250.000000 84.705 -24.2821
15500.000000 84.598 -17.7008
15750.000000 84.876 -12.2677
16000.000000 85.446 -8.9864
16250.000000 86.129 -9.1882
16500.000000 86.551 -13.8778
16750.000000 86.240 -21.4996
17000.000000 85.016 -26.9361
17250.000000 83.329 -26.9270
17500.000000 81.744 -23.0370
17750.000000 80.433 -17.0154
18000.000000 79.404 -9.8283
18250.000000 78.635 -2.3050
18500.000000 78.077 5.0613
18750.000000 77.665 12.0745
19000.000000 77.344 18.6427
19250.000000 77.057 24.7227
19500.000000 76.754 30.2867
19750.000000 76.416 35.3495
20000.000000 75.967 40.0457
20300.000000 75.281 45.5791
20600.000000 74.537 51.6966
20900.000000 73.774 59.0755
21200.000000 73.135 67.9321
21400.000000 72.885 74.3254
21800.000000 72.923 85.6507
22000.000000 73.090 87.0226
22400.000000 72.699 -10.3906
22700.000000 70.257 -60.9158
23000.000000 64.911 -86.0762
23300.000000 57.083 -59.2529
23600.000000 48.078 -171.9414
24000.000000 40.860 148.5859
