* Measurement data measured by REW V5.20.13
* Source: Headset (DS by VECLAN.COM), MICROPHONE (Master Volume), L, volume: 0.720. Timing signal peak level -16.3 dBFS, measurement signal peak level -15.6 dBFS
* Format: 4M Log Swept Sine, 1 sweep at -12.0 dBFS using an acoustic timing reference
* Dated: Dec 6, 2023 1:00:16 PM
* REW Settings:
*  C-weighting compensation: Off
*  Target level: 75.0 dB
* Note: ; Apple + Abigail Delay -0.0650 ms (-22 mm, -0.88 in) using estimated IR delay relative to Acoustic reference played from  R with no timing offset
* Measurement: Moondrop KATO S1 W1 R
* Smoothing: 1/24 octave
* Frequency Step: 1/48 octave
* Start Frequency: 1.000 Hz
*
* Freq(Hz) SPL(dB) Phase(degrees)
1.000000 67.479 -7.2032
1.015000 67.713 -8.3619
1.030000 67.949 -9.4842
1.044000 68.170 -10.4947
1.060000 68.423 -11.6008
1.075000 68.661 -12.5857
1.090000 68.899 -13.5153
1.106000 69.155 -14.4432
1.120000 69.383 -15.2142
1.138000 69.685 -16.1562
1.150000 69.891 -16.7551
1.172000 70.277 -17.7966
1.180000 70.419 -18.1584
1.206000 70.889 -19.2765
1.220000 71.144 -19.8451
1.241000 71.530 -20.6588
1.250000 71.696 -20.9943
1.265000 71.973 -21.5378
1.280000 72.249 -22.0635
1.315000 72.887 -23.2325
1.320000 72.977 -23.3942
1.340000 73.334 -24.0304
1.360000 73.683 -24.6540
1.380000 74.024 -25.2702
1.400000 74.353 -25.8840
1.430000 74.824 -26.8114
1.450000 75.119 -27.4416
1.475000 75.466 -28.2472
1.500000 75.793 -29.0382
1.525000 76.103 -29.8067
1.550000 76.399 -30.5537
1.575000 76.681 -31.2804
1.600000 76.950 -31.9879
1.625000 77.208 -32.6775
1.650000 77.457 -33.3503
1.675000 77.697 -34.0075
1.700000 77.930 -34.6502
1.725000 78.157 -35.2796
1.750000 78.380 -35.8968
1.775000 78.600 -36.5031
1.800000 78.818 -37.0996
1.825000 79.036 -37.6874
1.850000 79.251 -38.2627
1.875000 79.459 -38.8154
1.900000 79.659 -39.3473
1.925000 79.852 -39.8610
1.950000 80.039 -40.3591
1.975000 80.221 -40.8439
2.000000 80.398 -41.3180
2.030000 80.605 -41.8764
2.060000 80.808 -42.4273
2.090000 81.009 -42.9751
2.120000 81.208 -43.5240
2.140000 81.340 -43.8927
2.180000 81.606 -44.6426
2.200000 81.740 -45.0263
2.240000 82.008 -45.7972
2.270000 82.207 -46.3735
2.300000 82.403 -46.9485
2.330000 82.597 -47.5224
2.360000 82.790 -48.0955
2.400000 83.042 -48.8585
2.430000 83.229 -49.4303
2.470000 83.473 -50.1925
2.500000 83.654 -50.7642
2.540000 83.890 -51.5271
2.580000 84.121 -52.2913
2.620000 84.346 -53.0588
2.650000 84.513 -53.6360
2.690000 84.730 -54.4067
2.720000 84.890 -54.9845
2.760000 85.099 -55.7535
2.800000 85.304 -56.5195
2.850000 85.555 -57.4703
2.900000 85.800 -58.4109
2.950000 86.038 -59.3386
3.000000 86.270 -60.2550
3.040000 86.450 -60.9815
3.070000 86.583 -61.5229
3.110000 86.756 -62.2409
3.150000 86.925 -62.9551
3.200000 87.132 -63.8437
3.250000 87.335 -64.7291
3.300000 87.532 -65.6128
3.350000 87.724 -66.4971
3.400000 87.911 -67.3813
3.450000 88.092 -68.2625
3.500000 88.268 -69.1379
3.550000 88.440 -70.0047
3.600000 88.607 -70.8601
3.650000 88.771 -71.7013
3.700000 88.931 -72.5266
3.750000 89.086 -73.3382
3.820000 89.297 -74.4545
3.870000 89.442 -75.2402
3.950000 89.667 -76.4814
4.000000 89.803 -77.2500
4.060000 89.962 -78.1680
4.120000 90.116 -79.0810
4.180000 90.264 -79.9862
4.250000 90.431 -81.0278
4.310000 90.570 -81.9046
4.370000 90.705 -82.7630
4.440000 90.859 -83.7378
4.500000 90.986 -84.5516
4.550000 91.089 -85.2166
4.620000 91.229 -86.1310
4.680000 91.346 -86.9023
4.750000 91.480 -87.7917
4.820000 91.611 -88.6701
4.870000 91.703 -89.2881
4.940000 91.828 -90.1410
5.000000 91.932 -90.8617
5.080000 92.068 -91.8094
5.150000 92.184 -92.6274
5.220000 92.296 -93.4339
5.300000 92.421 -94.3412
5.380000 92.541 -95.2336
5.450000 92.643 -96.0027
5.520000 92.743 -96.7613
5.600000 92.853 -97.6148
5.700000 92.985 -98.6615
5.800000 93.112 -99.6865
5.900000 93.235 -100.6899
6.000000 93.353 -101.6697
6.080000 93.445 -102.4383
6.150000 93.523 -103.1018
6.220000 93.599 -103.7582
6.300000 93.684 -104.4999
6.400000 93.787 -105.4121
6.500000 93.885 -106.3083
6.600000 93.980 -107.1890
6.700000 94.070 -108.0560
6.800000 94.156 -108.9079
6.900000 94.239 -109.7409
7.000000 94.319 -110.5517
7.100000 94.396 -111.3402
7.200000 94.470 -112.1091
7.300000 94.542 -112.8610
7.400000 94.612 -113.5962
7.500000 94.681 -114.3126
7.620000 94.761 -115.1536
7.750000 94.846 -116.0490
7.880000 94.929 -116.9240
8.000000 95.003 -117.7184
8.120000 95.074 -118.5054
8.250000 95.150 -119.3477
8.380000 95.222 -120.1779
8.500000 95.285 -120.9331
8.620000 95.346 -121.6785
8.750000 95.408 -122.4712
8.850000 95.454 -123.0686
9.000000 95.520 -123.9462
9.120000 95.571 -124.6317
9.250000 95.624 -125.3563
9.380000 95.677 -126.0626
9.500000 95.722 -126.7011
9.620000 95.765 -127.3274
9.750000 95.808 -127.9913
9.880000 95.844 -128.6431
10.000000 95.870 -129.2358
10.150000 95.894 -129.9627
10.300000 95.911 -130.6709
10.440000 95.919 -131.3129
10.600000 95.925 -132.0321
10.750000 95.931 -132.6959
10.900000 95.937 -133.3502
11.060000 95.944 -134.0497
11.200000 95.950 -134.6644
11.380000 95.955 -135.4418
11.500000 95.957 -135.9509
11.720000 95.957 -136.8570
11.800000 95.957 -137.1735
12.060000 95.955 -138.1598
12.200000 95.956 -138.6639
12.410000 95.959 -139.3856
12.500000 95.961 -139.6829
12.650000 95.965 -140.1597
12.800000 95.971 -140.6234
13.150000 95.992 -141.6750
13.200000 95.995 -141.8257
13.400000 96.013 -142.4313
13.600000 96.031 -143.0451
13.800000 96.050 -143.6710
14.000000 96.064 -144.2992
14.300000 96.078 -145.2353
14.500000 96.081 -145.8328
14.750000 96.081 -146.5317
15.000000 96.079 -147.1710
15.250000 96.083 -147.7558
15.500000 96.093 -148.3035
15.750000 96.110 -148.8278
16.000000 96.130 -149.3538
16.250000 96.152 -149.8997
16.500000 96.174 -150.4690
16.750000 96.193 -151.0599
17.000000 96.209 -151.6531
17.250000 96.220 -152.2371
17.500000 96.228 -152.7970
17.750000 96.234 -153.3281
18.000000 96.238 -153.8347
18.250000 96.242 -154.3222
18.500000 96.248 -154.7983
18.750000 96.255 -155.2661
19.000000 96.264 -155.7283
19.250000 96.273 -156.1875
19.500000 96.282 -156.6417
19.750000 96.291 -157.0894
20.000000 96.299 -157.5277
20.299999 96.308 -158.0415
20.600000 96.317 -158.5426
20.900000 96.324 -159.0314
21.200001 96.330 -159.5071
21.400000 96.334 -159.8148
21.799999 96.339 -160.4060
22.000000 96.342 -160.6907
22.400000 96.349 -161.2456
22.700001 96.354 -161.6571
23.000000 96.360 -162.0703
23.299999 96.364 -162.4841
23.600000 96.366 -162.8927
24.000000 96.367 -163.4175
24.299999 96.367 -163.7901
24.700001 96.368 -164.2621
25.000000 96.370 -164.6069
25.400000 96.375 -165.0680
25.799999 96.379 -165.5357
26.200001 96.380 -166.0009
26.500000 96.380 -166.3392
26.900000 96.378 -166.7699
27.200001 96.377 -167.0796
27.600000 96.377 -167.4843
28.000000 96.378 -167.8905
28.500000 96.377 -168.4019
29.000000 96.375 -168.8987
29.500000 96.374 -169.3698
30.000000 96.372 -169.8294
30.400000 96.370 -170.2018
30.700001 96.367 -170.4840
31.100000 96.361 -170.8560
31.500000 96.353 -171.2132
32.000000 96.344 -171.6329
32.500000 96.336 -172.0347
33.000000 96.329 -172.4369
33.500000 96.320 -172.8416
34.000000 96.310 -173.2370
34.500000 96.301 -173.6162
35.000000 96.296 -173.9886
35.500000 96.292 -174.3703
36.000000 96.287 -174.7602
36.500000 96.278 -175.1393
37.000000 96.266 -175.4938
37.500000 96.255 -175.8276
38.200001 96.245 -176.2863
38.700001 96.238 -176.6225
39.500000 96.222 -177.1635
40.000000 96.211 -177.4831
40.599998 96.197 -177.8423
41.200001 96.184 -178.1898
41.799999 96.172 -178.5374
42.500000 96.160 -178.9468
43.099998 96.148 -179.3003
43.700001 96.135 -179.6452
44.400002 96.119 179.9766
45.000000 96.107 179.6671
45.500000 96.097 179.4100
46.200001 96.084 179.0527
46.799999 96.072 178.7533
47.500000 96.059 178.4055
48.200001 96.044 178.0619
48.700001 96.032 177.8259
49.400002 96.016 177.5035
50.000000 96.003 177.2235
50.799999 95.983 176.8483
51.500000 95.964 176.5295
52.200001 95.945 176.2176
53.000000 95.926 175.8620
53.799999 95.908 175.4911
54.500000 95.887 175.1552
55.200001 95.861 174.8525
56.000000 95.836 174.5707
57.000000 95.819 174.2235
58.000000 95.804 173.8383
59.000000 95.787 173.3913
60.000000 95.749 172.9438
60.799999 95.715 172.6966
61.500000 95.696 172.5229
62.200001 95.681 172.3256
63.000000 95.660 172.0762
64.000000 95.629 171.7695
65.000000 95.599 171.4733
66.000000 95.570 171.1808
67.000000 95.542 170.8751
68.000000 95.510 170.5702
69.000000 95.477 170.2737
70.000000 95.444 169.9933
71.000000 95.413 169.7223
72.000000 95.384 169.4404
73.000000 95.355 169.1675
74.000000 95.325 168.9099
75.000000 95.291 168.6598
76.199997 95.248 168.3867
77.500000 95.201 168.0810
78.800003 95.147 167.7534
80.000000 95.088 167.4756
81.199997 95.035 167.3242
82.500000 95.010 167.1173
83.800003 94.985 166.7641
85.000000 94.955 166.4688
86.199997 94.925 166.2126
87.500000 94.892 165.9983
88.500000 94.868 165.8471
90.000000 94.826 165.6074
91.199997 94.788 165.4185
92.500000 94.748 165.2105
93.800003 94.709 164.9830
95.000000 94.671 164.7737
96.199997 94.632 164.5833
97.500000 94.591 164.3801
98.800003 94.547 164.1768
100.000000 94.506 163.9907
101.500000 94.455 163.7327
103.000000 94.405 163.4972
104.400002 94.363 163.3054
106.000000 94.316 163.1219
107.500000 94.273 162.9725
109.000000 94.230 162.8339
110.599998 94.181 162.6846
112.000000 94.137 162.5657
113.800003 94.082 162.4092
115.000000 94.044 162.2855
117.199997 93.965 162.0419
118.000000 93.934 161.9678
120.599998 93.851 161.7943
122.000000 93.817 161.6728
124.099998 93.765 161.4819
125.000000 93.740 161.4090
126.500000 93.696 161.3048
128.000000 93.650 161.2238
131.500000 93.552 161.0318
132.000000 93.538 161.0037
134.000000 93.487 160.8995
136.000000 93.437 160.8137
138.000000 93.386 160.7351
140.000000 93.333 160.6373
143.000000 93.258 160.5231
145.000000 93.211 160.4602
147.500000 93.149 160.3924
150.000000 93.088 160.3533
152.500000 93.029 160.3167
155.000000 92.968 160.2641
157.500000 92.905 160.2225
160.000000 92.844 160.2005
162.500000 92.786 160.1992
165.000000 92.728 160.2062
167.500000 92.670 160.2139
170.000000 92.609 160.2302
172.500000 92.548 160.2563
175.000000 92.490 160.2722
177.500000 92.429 160.2869
180.000000 92.368 160.3164
182.500000 92.310 160.3476
185.000000 92.252 160.3756
187.500000 92.192 160.4225
190.000000 92.135 160.4952
192.500000 92.082 160.5796
195.000000 92.031 160.6609
197.500000 91.979 160.7370
200.000000 91.928 160.8141
203.000000 91.870 160.9049
206.000000 91.812 161.0086
209.000000 91.753 161.1092
212.000000 91.696 161.2233
214.000000 91.660 161.3173
218.000000 91.586 161.5028
220.000000 91.550 161.5947
224.000000 91.479 161.7714
227.000000 91.427 161.8932
230.000000 91.376 162.0281
233.000000 91.328 162.1885
236.000000 91.283 162.3442
240.000000 91.219 162.5238
243.000000 91.170 162.6911
247.000000 91.108 162.9398
250.000000 91.064 163.1036
254.000000 91.006 163.2903
258.000000 90.947 163.5096
262.000000 90.889 163.7599
265.000000 90.848 163.9278
269.000000 90.795 164.1542
272.000000 90.757 164.3395
276.000000 90.707 164.5905
280.000000 90.658 164.8382
285.000000 90.598 165.1455
290.000000 90.538 165.4546
295.000000 90.480 165.7960
300.000000 90.423 166.1575
304.000000 90.378 166.4172
307.000000 90.346 166.5906
311.000000 90.305 166.8409
315.000000 90.266 167.1275
320.000000 90.219 167.4615
325.000000 90.170 167.7637
330.000000 90.122 168.0882
335.000000 90.076 168.4340
340.000000 90.032 168.7855
345.000000 89.988 169.1446
350.000000 89.946 169.4966
355.000000 89.902 169.8528
360.000000 89.858 170.2283
365.000000 89.818 170.5998
370.000000 89.779 170.9608
375.000000 89.742 171.3154
382.000000 89.690 171.8189
387.000000 89.654 172.1859
395.000000 89.596 172.7672
400.000000 89.561 173.1201
406.000000 89.521 173.5728
412.000000 89.482 174.0291
418.000000 89.444 174.4698
425.000000 89.402 174.9905
431.000000 89.366 175.4367
437.000000 89.331 175.8709
444.000000 89.293 176.3794
450.000000 89.262 176.8196
455.000000 89.236 177.1888
462.000000 89.201 177.7041
468.000000 89.171 178.1524
475.000000 89.136 178.6741
482.000000 89.105 179.1891
487.000000 89.086 179.5570
494.000000 89.061 -179.9304
500.000000 89.040 -179.4899
508.000000 89.013 -178.8942
515.000000 88.989 -178.3685
522.000000 88.966 -177.8415
530.000000 88.944 -177.2469
538.000000 88.924 -176.6637
545.000000 88.906 -176.1429
552.000000 88.890 -175.6106
560.000000 88.872 -175.0021
570.000000 88.853 -174.2613
580.000000 88.834 -173.5079
590.000000 88.816 -172.7433
600.000000 88.799 -171.9889
608.000000 88.784 -171.3751
615.000000 88.774 -170.8184
622.000000 88.766 -170.2476
630.000000 88.758 -169.5938
640.000000 88.749 -168.7895
650.000000 88.744 -167.9752
660.000000 88.743 -167.1490
670.000000 88.745 -166.3458
680.000000 88.753 -165.5577
690.000000 88.765 -164.7727
700.000000 88.780 -164.0000
710.000000 88.800 -163.2388
720.000000 88.821 -162.4929
730.000000 88.841 -161.7687
740.000000 88.862 -161.0523
750.000000 88.885 -160.3379
762.000000 88.912 -159.4818
775.000000 88.940 -158.5511
788.000000 88.972 -157.6153
800.000000 89.005 -156.7655
812.000000 89.040 -155.9068
825.000000 89.083 -154.9792
838.000000 89.130 -154.0706
850.000000 89.174 -153.2239
862.000000 89.221 -152.3795
875.000000 89.277 -151.4935
885.000000 89.320 -150.8245
900.000000 89.392 -149.8371
912.000000 89.456 -149.0527
925.000000 89.529 -148.2309
938.000000 89.603 -147.4354
950.000000 89.674 -146.7195
962.000000 89.749 -146.0212
975.000000 89.834 -145.2764
988.000000 89.925 -144.5515
1000.000000 90.009 -143.9201
1015.000000 90.104 -143.2038
1030.000000 90.200 -142.5342
1044.000000 90.299 -141.9319
1060.000000 90.418 -141.2787
1075.000000 90.527 -140.7023
1090.000000 90.637 -140.1539
1106.000000 90.764 -139.6261
1120.000000 90.880 -139.2025
1138.000000 91.024 -138.7005
1150.000000 91.118 -138.3868
1172.000000 91.286 -137.8510
1180.000000 91.346 -137.6667
1206.000000 91.536 -137.1274
1220.000000 91.639 -136.8740
1241.000000 91.792 -136.5149
1250.000000 91.857 -136.3608
1265.000000 91.962 -136.1132
1280.000000 92.065 -135.8761
1315.000000 92.292 -135.3521
1320.000000 92.322 -135.2817
1340.000000 92.437 -135.0009
1360.000000 92.532 -134.7203
1380.000000 92.621 -134.4398
1400.000000 92.719 -134.1635
1430.000000 92.869 -133.7376
1450.000000 92.970 -133.4436
1475.000000 93.094 -133.0571
1500.000000 93.222 -132.6588
1525.000000 93.353 -132.2705
1550.000000 93.482 -131.9122
1575.000000 93.609 -131.6068
1600.000000 93.732 -131.3401
1625.000000 93.848 -131.0930
1650.000000 93.962 -130.8366
1675.000000 94.075 -130.5759
1700.000000 94.185 -130.3227
1725.000000 94.293 -130.0696
1750.000000 94.400 -129.8243
1775.000000 94.507 -129.5860
1800.000000 94.612 -129.3489
1825.000000 94.716 -129.1280
1850.000000 94.819 -128.9157
1875.000000 94.921 -128.6957
1900.000000 95.020 -128.4674
1925.000000 95.118 -128.2300
1950.000000 95.216 -127.9789
1975.000000 95.318 -127.7017
2000.000000 95.421 -127.3997
2030.000000 95.547 -127.0152
2060.000000 95.692 -126.6019
2090.000000 95.865 -126.2306
2120.000000 96.055 -126.0186
2140.000000 96.185 -125.9973
2180.000000 96.428 -126.1972
2200.000000 96.536 -126.3791
2240.000000 96.727 -126.8111
2270.000000 96.854 -127.1553
2300.000000 96.970 -127.5023
2330.000000 97.079 -127.8527
2360.000000 97.182 -128.2107
2400.000000 97.312 -128.6865
2430.000000 97.403 -129.0380
2470.000000 97.517 -129.5145
2500.000000 97.598 -129.8735
2540.000000 97.702 -130.3736
2580.000000 97.802 -130.9001
2620.000000 97.897 -131.4630
2650.000000 97.964 -131.9164
2690.000000 98.046 -132.5505
2720.000000 98.097 -133.0381
2760.000000 98.153 -133.6993
2800.000000 98.195 -134.3685
2850.000000 98.232 -135.1990
2900.000000 98.251 -135.9837
2950.000000 98.255 -136.7072
3000.000000 98.248 -137.3638
3040.000000 98.237 -137.8756
3070.000000 98.225 -138.2482
3110.000000 98.205 -138.7198
3150.000000 98.181 -139.1683
3200.000000 98.139 -139.6963
3250.000000 98.086 -140.1774
3300.000000 98.024 -140.5920
3350.000000 97.956 -140.9375
3400.000000 97.885 -141.2159
3450.000000 97.815 -141.4276
3500.000000 97.749 -141.5845
3550.000000 97.683 -141.6970
3600.000000 97.613 -141.7614
3650.000000 97.537 -141.7740
3700.000000 97.458 -141.7281
3750.000000 97.382 -141.6036
3820.000000 97.285 -141.3027
3870.000000 97.224 -141.0399
3950.000000 97.137 -140.6161
4000.000000 97.085 -140.3698
4060.000000 97.027 -140.0938
4120.000000 96.967 -139.8218
4180.000000 96.904 -139.5481
4250.000000 96.828 -139.2146
4310.000000 96.757 -138.9027
4370.000000 96.678 -138.5482
4440.000000 96.585 -138.0802
4500.000000 96.509 -137.6554
4550.000000 96.450 -137.2971
4620.000000 96.372 -136.7926
4680.000000 96.306 -136.3662
4750.000000 96.230 -135.8691
4820.000000 96.157 -135.3727
4870.000000 96.105 -135.0184
4940.000000 96.033 -134.5338
5000.000000 95.975 -134.1237
5080.000000 95.903 -133.5613
5150.000000 95.842 -133.0854
5220.000000 95.783 -132.6424
5300.000000 95.719 -132.1803
5380.000000 95.656 -131.7756
5450.000000 95.601 -131.4813
5520.000000 95.543 -131.2631
5600.000000 95.464 -131.1053
5700.000000 95.339 -131.0022
5800.000000 95.169 -130.9497
5900.000000 94.945 -130.8312
6000.000000 94.665 -130.4540
6080.000000 94.413 -129.8389
6150.000000 94.183 -129.0159
6220.000000 93.957 -127.9134
6300.000000 93.719 -126.3379
6400.000000 93.466 -123.9836
6500.000000 93.277 -121.3303
6600.000000 93.158 -118.4781
6700.000000 93.116 -115.5118
6800.000000 93.160 -112.5459
6900.000000 93.306 -109.6804
7000.000000 93.552 -107.0153
7100.000000 93.878 -104.6541
7200.000000 94.275 -102.6882
7300.000000 94.738 -101.2429
7400.000000 95.254 -100.4433
7500.000000 95.810 -100.4165
7620.000000 96.509 -101.6144
7750.000000 97.221 -104.6507
7880.000000 97.700 -109.5348
8000.000000 97.859 -115.3160
8120.000000 97.707 -121.5845
8250.000000 97.191 -127.9093
8380.000000 96.383 -132.8682
8500.000000 95.471 -135.8706
8620.000000 94.482 -137.3880
8750.000000 93.394 -137.5890
8850.000000 92.576 -136.9058
9000.000000 91.416 -134.7952
9120.000000 90.560 -132.3864
9250.000000 89.714 -129.2581
9380.000000 88.950 -125.7139
9500.000000 88.310 -122.1413
9620.000000 87.731 -118.3561
9750.000000 87.169 -114.0929
9880.000000 86.670 -109.6983
10000.000000 86.259 -105.5469
10150.000000 85.805 -100.2509
10300.000000 85.408 -94.8541
10440.000000 85.087 -89.7398
10600.000000 84.779 -83.7790
10750.000000 84.551 -78.0648
10900.000000 84.385 -72.2563
11060.000000 84.284 -65.9916
11200.000000 84.260 -60.4593
11380.000000 84.323 -53.2773
11500.000000 84.432 -48.4821
11720.000000 84.783 -39.7968
11800.000000 84.962 -36.7051
12060.000000 85.769 -27.0483
12200.000000 86.366 -22.2247
12410.000000 87.519 -15.9379
12500.000000 88.122 -13.7871
12650.000000 89.277 -11.3337
12800.000000 90.579 -10.9593
13150.000000 93.265 -22.9339
13200.000000 93.472 -26.2277
13400.000000 93.573 -41.0251
13600.000000 92.552 -53.4738
13800.000000 90.852 -59.8234
14000.000000 89.032 -60.6839
14300.000000 86.736 -55.9008
14500.000000 85.583 -50.6856
14750.000000 84.519 -43.2305
15000.000000 83.807 -35.4163
15250.000000 83.406 -27.6606
15500.000000 83.326 -20.3494
15750.000000 83.550 -13.9544
16000.000000 84.004 -9.1290
16250.000000 84.580 -6.7706
16500.000000 85.035 -7.7145
16750.000000 84.983 -11.0581
17000.000000 84.327 -12.7366
17250.000000 83.607 -11.4827
17500.000000 82.994 -9.8297
17750.000000 82.310 -7.5159
18000.000000 81.637 -3.9925
18250.000000 81.051 0.2005
18500.000000 80.560 4.3776
18750.000000 80.137 8.2753
19000.000000 79.720 11.7972
19250.000000 79.236 14.9666
19500.000000 78.626 17.9753
19750.000000 77.880 21.1523
20000.000000 76.948 24.8971
20300.000000 75.623 30.7413
20600.000000 74.264 38.6962
20900.000000 73.025 49.0703
21200.000000 72.099 61.4975
21400.000000 71.762 70.3664
21800.000000 71.852 86.3717
22000.000000 72.147 88.8806
22400.000000 72.118 -38.8737
22700.000000 69.898 86.2736
23000.000000 64.691 83.0137
23300.000000 56.966 177.6543
23600.000000 48.164 -101.7363
24000.000000 41.528 -154.8828
