* Measurement data measured by REW V5.20.13
* Source: Headset (DS by VECLAN.COM), MICROPHONE (Master Volume), L, volume: 0.720. Timing signal peak level -14.1 dBFS, measurement signal peak level -12.0 dBFS
* Format: 2M Log Swept Sine, 1 sweep at -11.8 dBFS using an acoustic timing reference
* Dated: Feb 15, 2024 2:21:43 PM
* REW Settings:
*  C-weighting compensation: Off
*  Target level: 75.0 dB
* Note: ; Delay -0.0700 ms (-24 mm, -0.95 in) using estimated IR delay relative to Acoustic reference played from HEADPHONE R with no timing offset
* Measurement: ND Earphone ND-X12 UUU R
* Smoothing: 1/24 octave
* Frequency Step: 1/48 octave
* Start Frequency: 1.000 Hz
*
* Freq(Hz) SPL(dB) Phase(degrees)
1.000000 71.787 -79.3675
1.015000 71.776 -80.4852
1.030000 71.775 -81.5310
1.044000 71.784 -82.4349
1.060000 71.807 -83.3735
1.075000 71.841 -84.1532
1.090000 71.888 -84.8273
1.106000 71.954 -85.4260
1.120000 72.026 -85.8760
1.138000 72.138 -86.3657
1.150000 72.224 -86.6389
1.172000 72.404 -87.0347
1.180000 72.475 -87.1464
1.206000 72.729 -87.3977
1.220000 72.877 -87.4661
1.241000 73.113 -87.4875
1.250000 73.218 -87.4685
1.265000 73.399 -87.4016
1.280000 73.585 -87.2932
1.315000 74.034 -86.8954
1.320000 74.099 -86.8235
1.340000 74.361 -86.5031
1.360000 74.624 -86.1349
1.380000 74.884 -85.7257
1.400000 75.139 -85.2825
1.430000 75.509 -84.5691
1.450000 75.742 -84.0711
1.475000 76.017 -83.4186
1.500000 76.287 -82.5989
1.525000 76.556 -81.6040
1.550000 76.824 -80.4632
1.575000 77.092 -79.2058
1.600000 77.360 -77.8612
1.625000 77.627 -76.4587
1.650000 77.895 -75.0276
1.675000 78.163 -73.5974
1.700000 78.432 -72.1972
1.725000 78.701 -70.8565
1.750000 78.972 -69.6046
1.775000 79.243 -68.4708
1.800000 79.517 -67.4844
1.825000 79.792 -66.6749
1.850000 80.069 -66.0384
1.875000 80.353 -65.5064
1.900000 80.640 -65.0683
1.925000 80.931 -64.7164
1.950000 81.224 -64.4432
1.975000 81.518 -64.2409
2.000000 81.812 -64.1019
2.030000 82.164 -64.0079
2.060000 82.511 -63.9808
2.090000 82.853 -64.0074
2.120000 83.187 -64.0746
2.140000 83.404 -64.1353
2.180000 83.825 -64.2775
2.200000 84.026 -64.3516
2.240000 84.418 -64.5743
2.270000 84.703 -64.8221
2.300000 84.982 -65.1302
2.330000 85.254 -65.4906
2.360000 85.520 -65.8951
2.400000 85.864 -66.4892
2.430000 86.114 -66.9654
2.470000 86.438 -67.6259
2.500000 86.674 -68.1300
2.540000 86.979 -68.7984
2.580000 87.273 -69.4514
2.620000 87.553 -70.1311
2.650000 87.755 -70.6634
2.690000 88.014 -71.3987
2.720000 88.201 -71.9668
2.760000 88.441 -72.7421
2.800000 88.672 -73.5332
2.850000 88.947 -74.5363
2.900000 89.211 -75.5460
2.950000 89.464 -76.5571
3.000000 89.703 -77.6025
3.040000 89.882 -78.4613
3.070000 90.012 -79.1136
3.110000 90.177 -79.9882
3.150000 90.334 -80.8614
3.200000 90.521 -81.9395
3.250000 90.699 -82.9890
3.300000 90.869 -83.9950
3.350000 91.029 -84.9663
3.400000 91.177 -85.9159
3.450000 91.314 -86.8444
3.500000 91.442 -87.7522
3.550000 91.562 -88.6399
3.600000 91.676 -89.5079
3.650000 91.785 -90.3567
3.700000 91.889 -91.1900
3.750000 91.984 -92.0127
3.820000 92.104 -93.1365
3.870000 92.184 -93.9115
3.950000 92.303 -95.0879
4.000000 92.375 -95.7745
4.060000 92.460 -96.5397
4.120000 92.538 -97.2405
4.180000 92.612 -97.8873
4.250000 92.693 -98.5886
4.310000 92.763 -99.1565
4.370000 92.834 -99.7057
4.440000 92.921 -100.3250
4.500000 92.994 -100.8166
4.550000 93.056 -101.2041
4.620000 93.144 -101.7243
4.680000 93.221 -102.1602
4.750000 93.316 -102.6711
4.820000 93.416 -103.1777
4.870000 93.490 -103.5233
4.940000 93.597 -103.9991
5.000000 93.691 -104.4133
5.080000 93.818 -104.9974
5.150000 93.929 -105.5574
5.220000 94.045 -106.1474
5.300000 94.180 -106.8532
5.380000 94.315 -107.5990
5.450000 94.430 -108.2896
5.520000 94.540 -109.0208
5.600000 94.665 -109.9107
5.700000 94.816 -111.0894
5.800000 94.957 -112.3194
5.900000 95.083 -113.5829
6.000000 95.196 -114.9085
6.080000 95.278 -115.9957
6.150000 95.342 -116.9475
6.220000 95.399 -117.8845
6.300000 95.454 -118.9477
6.400000 95.509 -120.2839
6.500000 95.551 -121.5859
6.600000 95.584 -122.8089
6.700000 95.604 -123.9582
6.800000 95.613 -125.0444
6.900000 95.617 -126.0488
7.000000 95.623 -126.9529
7.100000 95.624 -127.7542
7.200000 95.625 -128.4707
7.300000 95.634 -129.1221
7.400000 95.653 -129.7053
7.500000 95.679 -130.2023
7.620000 95.722 -130.7549
7.750000 95.789 -131.3768
7.880000 95.878 -131.9777
8.000000 95.971 -132.5746
8.120000 96.071 -133.2783
8.250000 96.192 -134.1325
8.380000 96.311 -135.0875
8.500000 96.411 -136.0786
8.620000 96.505 -137.1788
8.750000 96.592 -138.4317
8.850000 96.642 -139.4130
9.000000 96.694 -140.9601
9.120000 96.715 -142.1674
9.250000 96.715 -143.3848
9.380000 96.691 -144.5451
9.500000 96.655 -145.4879
9.620000 96.607 -146.2653
9.750000 96.540 -146.9530
9.880000 96.471 -147.4675
10.000000 96.409 -147.7593
10.150000 96.334 -147.9147
10.300000 96.285 -147.9613
10.440000 96.263 -147.8653
10.600000 96.268 -147.7545
10.750000 96.309 -147.7688
10.900000 96.378 -147.8729
11.060000 96.456 -148.2244
11.200000 96.534 -148.7363
11.380000 96.615 -149.5882
11.500000 96.650 -150.2993
11.720000 96.673 -151.7176
11.800000 96.663 -152.2225
12.060000 96.576 -153.7964
12.200000 96.500 -154.4203
12.410000 96.359 -155.0653
12.500000 96.302 -155.1871
12.650000 96.204 -155.1727
12.800000 96.125 -154.9817
13.150000 96.078 -154.0098
13.200000 96.088 -153.8859
13.400000 96.177 -153.4109
13.600000 96.307 -153.2366
13.800000 96.472 -153.4768
14.000000 96.622 -154.1191
14.300000 96.795 -155.7644
14.500000 96.843 -157.1255
14.750000 96.829 -158.8058
15.000000 96.737 -160.2937
15.250000 96.599 -161.3209
15.500000 96.457 -161.8633
15.750000 96.335 -161.9530
16.000000 96.271 -161.7507
16.250000 96.269 -161.5326
16.500000 96.319 -161.4391
16.750000 96.402 -161.6414
17.000000 96.485 -162.1366
17.250000 96.552 -162.8691
17.500000 96.588 -163.7513
17.750000 96.592 -164.6325
18.000000 96.568 -165.4461
18.250000 96.523 -166.1216
18.500000 96.473 -166.6277
18.750000 96.425 -166.9830
19.000000 96.388 -167.2055
19.250000 96.370 -167.3573
19.500000 96.369 -167.4880
19.750000 96.385 -167.6385
20.000000 96.414 -167.8633
20.299999 96.456 -168.2565
20.600000 96.495 -168.7923
20.900000 96.523 -169.4491
21.200001 96.532 -170.1784
21.400000 96.528 -170.6726
21.799999 96.495 -171.6360
22.000000 96.469 -172.0865
22.400000 96.404 -172.9045
22.700001 96.346 -173.4347
23.000000 96.283 -173.8758
23.299999 96.218 -174.2066
23.600000 96.159 -174.4180
24.000000 96.103 -174.5381
24.299999 96.087 -174.5717
24.700001 96.101 -174.6637
25.000000 96.129 -174.8450
25.400000 96.173 -175.2757
25.799999 96.205 -175.8686
26.200001 96.216 -176.5130
26.500000 96.212 -176.9692
26.900000 96.198 -177.5005
27.200001 96.185 -177.8344
27.600000 96.170 -178.2023
28.000000 96.161 -178.5070
28.500000 96.163 -178.8706
29.000000 96.173 -179.3260
29.500000 96.169 -179.9137
30.000000 96.131 179.4932
30.400000 96.081 179.1482
30.700001 96.044 178.9938
31.100000 96.011 178.8642
31.500000 95.999 178.6960
32.000000 95.994 178.2751
32.500000 95.963 177.6786
33.000000 95.896 177.1823
33.500000 95.828 176.9544
34.000000 95.801 176.8590
34.500000 95.813 176.6088
35.000000 95.827 176.1013
35.500000 95.813 175.4957
36.000000 95.778 174.9929
36.500000 95.746 174.6169
37.000000 95.723 174.2584
37.500000 95.697 173.8680
38.200001 95.644 173.4119
38.700001 95.608 173.2175
39.500000 95.582 172.9022
40.000000 95.567 172.5966
40.599998 95.533 172.2003
41.200001 95.492 171.8828
41.799999 95.461 171.6068
42.500000 95.435 171.2189
43.099998 95.410 170.8367
43.700001 95.382 170.4792
44.400002 95.354 170.1091
45.000000 95.338 169.7882
45.500000 95.324 169.5024
46.200001 95.300 169.1114
46.799999 95.277 168.8252
47.500000 95.255 168.5277
48.200001 95.235 168.2066
48.700001 95.214 167.9628
49.400002 95.176 167.6489
50.000000 95.139 167.4234
50.799999 95.089 167.1630
51.500000 95.050 166.9534
52.200001 95.017 166.7166
53.000000 94.978 166.3561
53.799999 94.926 165.9846
54.500000 94.880 165.7364
55.200001 94.845 165.5142
56.000000 94.813 165.2361
57.000000 94.777 164.9014
58.000000 94.747 164.5343
59.000000 94.700 164.1411
60.000000 94.635 163.9270
60.799999 94.599 163.8858
61.500000 94.583 163.7885
62.200001 94.560 163.5801
63.000000 94.514 163.3626
64.000000 94.462 163.2496
65.000000 94.442 163.0628
66.000000 94.427 162.6485
67.000000 94.385 162.0805
68.000000 94.313 161.6197
69.000000 94.244 161.3258
70.000000 94.182 161.0820
71.000000 94.125 160.8604
72.000000 94.065 160.6398
73.000000 94.004 160.4909
74.000000 93.955 160.3324
75.000000 93.900 160.0694
76.199997 93.810 159.8566
77.500000 93.740 159.7899
78.800003 93.691 159.5089
80.000000 93.629 159.2389
81.199997 93.578 159.0358
82.500000 93.527 158.8466
83.800003 93.486 158.7016
85.000000 93.448 158.5541
86.199997 93.404 158.4143
87.500000 93.353 158.2370
88.500000 93.307 158.0500
90.000000 93.220 157.7709
91.199997 93.150 157.6095
92.500000 93.085 157.4996
93.800003 93.038 157.3693
95.000000 92.989 157.1951
96.199997 92.927 157.0865
97.500000 92.869 157.0716
98.800003 92.829 156.9648
100.000000 92.785 156.7430
101.500000 92.713 156.4891
103.000000 92.641 156.3478
104.400002 92.585 156.2652
106.000000 92.521 156.1937
107.500000 92.465 156.1490
109.000000 92.406 156.0762
110.599998 92.336 156.0112
112.000000 92.268 155.9977
113.800003 92.181 156.0887
115.000000 92.127 156.1393
117.199997 92.022 156.1161
118.000000 91.982 156.0828
120.599998 91.859 156.0231
122.000000 91.819 155.9968
124.099998 91.768 155.8635
125.000000 91.744 155.8255
126.500000 91.705 155.7638
128.000000 91.654 155.6754
131.500000 91.513 155.6937
132.000000 91.497 155.7084
134.000000 91.437 155.7294
136.000000 91.368 155.7266
138.000000 91.287 155.8132
140.000000 91.219 155.9026
143.000000 91.130 155.9610
145.000000 91.077 156.0896
147.500000 90.998 156.2420
150.000000 90.900 156.4432
152.500000 90.833 156.5087
155.000000 90.787 156.5132
157.500000 90.740 156.5824
160.000000 90.676 156.7045
162.500000 90.601 156.8235
165.000000 90.524 156.9540
167.500000 90.446 157.1358
170.000000 90.370 157.3770
172.500000 90.296 157.6325
175.000000 90.222 157.8820
177.500000 90.157 158.0721
180.000000 90.099 158.1538
182.500000 90.039 158.2921
185.000000 89.979 158.5381
187.500000 89.922 158.7237
190.000000 89.868 158.8076
192.500000 89.825 158.9194
195.000000 89.782 159.0964
197.500000 89.722 159.2400
200.000000 89.647 159.3250
203.000000 89.574 159.4147
206.000000 89.519 159.6130
209.000000 89.460 159.9860
212.000000 89.389 160.3922
214.000000 89.338 160.6020
218.000000 89.250 160.9008
220.000000 89.217 161.0836
224.000000 89.160 161.5416
227.000000 89.107 161.7719
230.000000 89.047 161.9136
233.000000 88.988 162.1420
236.000000 88.923 162.4717
240.000000 88.830 162.8557
243.000000 88.773 163.0546
247.000000 88.717 163.2836
250.000000 88.682 163.5361
254.000000 88.631 164.0489
258.000000 88.572 164.6116
262.000000 88.516 165.0721
265.000000 88.468 165.3240
269.000000 88.401 165.6103
272.000000 88.365 165.8803
276.000000 88.318 166.3067
280.000000 88.277 166.6863
285.000000 88.236 167.3404
290.000000 88.143 167.8570
295.000000 88.096 168.1510
300.000000 88.071 168.7478
304.000000 88.020 169.1971
307.000000 87.972 169.4305
311.000000 87.924 169.7386
315.000000 87.889 170.1398
320.000000 87.852 170.6547
325.000000 87.813 171.1953
330.000000 87.766 171.7121
335.000000 87.721 172.2413
340.000000 87.676 172.7750
345.000000 87.633 173.2888
350.000000 87.594 173.8037
355.000000 87.552 174.3198
360.000000 87.511 174.8377
365.000000 87.473 175.3615
370.000000 87.437 175.8777
375.000000 87.403 176.3749
382.000000 87.357 177.0606
387.000000 87.320 177.5769
395.000000 87.262 178.4445
400.000000 87.228 178.9894
406.000000 87.194 179.6177
412.000000 87.168 -179.8239
418.000000 87.143 -179.2837
425.000000 87.109 -178.5634
431.000000 87.075 -177.9005
437.000000 87.040 -177.2592
444.000000 87.005 -176.5663
450.000000 86.982 -175.9897
455.000000 86.964 -175.5024
462.000000 86.936 -174.7970
468.000000 86.911 -174.1704
475.000000 86.884 -173.4458
482.000000 86.860 -172.7517
487.000000 86.847 -172.2636
494.000000 86.830 -171.5594
500.000000 86.815 -170.9498
508.000000 86.797 -170.1675
515.000000 86.784 -169.4887
522.000000 86.772 -168.7882
530.000000 86.757 -167.9818
538.000000 86.744 -167.1843
545.000000 86.735 -166.4977
552.000000 86.730 -165.8175
560.000000 86.728 -165.0426
570.000000 86.727 -164.0724
580.000000 86.722 -163.0654
590.000000 86.719 -162.0882
600.000000 86.714 -161.1443
608.000000 86.709 -160.3651
615.000000 86.704 -159.6602
622.000000 86.701 -158.9554
630.000000 86.704 -158.1722
640.000000 86.718 -157.2361
650.000000 86.733 -156.3036
660.000000 86.741 -155.3348
670.000000 86.744 -154.3368
680.000000 86.745 -153.3561
690.000000 86.752 -152.3881
700.000000 86.767 -151.4175
710.000000 86.783 -150.4499
720.000000 86.798 -149.4617
730.000000 86.810 -148.3966
740.000000 86.825 -147.2361
750.000000 86.860 -146.0176
762.000000 86.933 -144.6661
775.000000 87.013 -143.4906
788.000000 87.074 -142.4333
800.000000 87.124 -141.4013
812.000000 87.174 -140.2395
825.000000 87.231 -138.8709
838.000000 87.303 -137.4668
850.000000 87.394 -136.2143
862.000000 87.502 -135.1006
875.000000 87.623 -134.0378
885.000000 87.705 -133.2643
900.000000 87.812 -132.1342
912.000000 87.892 -131.2536
925.000000 87.985 -130.3254
938.000000 88.087 -129.4209
950.000000 88.181 -128.5894
962.000000 88.271 -127.7424
975.000000 88.362 -126.8150
988.000000 88.453 -125.9152
1000.000000 88.542 -125.1156
1015.000000 88.657 -124.1412
1030.000000 88.773 -123.1979
1044.000000 88.880 -122.3387
1060.000000 89.003 -121.3773
1075.000000 89.125 -120.5156
1090.000000 89.256 -119.7021
1106.000000 89.400 -118.8500
1120.000000 89.525 -118.0960
1138.000000 89.686 -117.1630
1150.000000 89.794 -116.5765
1172.000000 89.990 -115.4938
1180.000000 90.062 -115.1045
1206.000000 90.305 -113.9238
1220.000000 90.437 -113.2838
1241.000000 90.631 -112.3121
1250.000000 90.714 -111.9064
1265.000000 90.855 -111.2439
1280.000000 90.996 -110.5910
1315.000000 91.326 -109.0646
1320.000000 91.374 -108.8494
1340.000000 91.561 -108.0088
1360.000000 91.731 -107.1714
1380.000000 91.895 -106.3393
1400.000000 92.069 -105.5134
1430.000000 92.338 -104.2688
1450.000000 92.530 -103.4663
1475.000000 92.785 -102.5031
1500.000000 93.048 -101.5581
1525.000000 93.309 -100.6422
1550.000000 93.566 -99.7517
1575.000000 93.827 -98.8916
1600.000000 94.101 -98.1018
1625.000000 94.383 -97.3797
1650.000000 94.669 -96.6895
1675.000000 94.964 -96.0515
1700.000000 95.280 -95.5186
1725.000000 95.613 -95.0969
1750.000000 95.943 -94.7481
1775.000000 96.264 -94.4709
1800.000000 96.584 -94.3084
1825.000000 96.915 -94.2894
1850.000000 97.260 -94.4085
1875.000000 97.612 -94.6768
1900.000000 97.966 -95.1093
1925.000000 98.315 -95.7256
1950.000000 98.652 -96.4996
1975.000000 98.976 -97.4212
2000.000000 99.286 -98.5202
2030.000000 99.639 -100.0731
2060.000000 99.969 -101.8279
2090.000000 100.271 -103.8085
2120.000000 100.538 -106.0454
2140.000000 100.690 -107.6454
2180.000000 100.925 -111.0160
2200.000000 101.004 -112.7586
2240.000000 101.085 -116.2414
2270.000000 101.079 -118.7545
2300.000000 101.021 -121.1034
2330.000000 100.915 -123.2513
2360.000000 100.768 -125.1516
2400.000000 100.522 -127.2711
2430.000000 100.317 -128.5549
2470.000000 100.037 -129.8764
2500.000000 99.835 -130.5963
2540.000000 99.579 -131.2400
2580.000000 99.334 -131.5823
2620.000000 99.088 -131.6534
2650.000000 98.906 -131.5639
2690.000000 98.674 -131.2822
2720.000000 98.511 -130.9489
2760.000000 98.319 -130.3807
2800.000000 98.155 -129.6873
2850.000000 97.974 -128.6460
2900.000000 97.817 -127.4612
2950.000000 97.695 -126.1950
3000.000000 97.602 -124.8781
3040.000000 97.542 -123.8152
3070.000000 97.503 -123.0283
3110.000000 97.463 -122.0027
3150.000000 97.441 -121.0271
3200.000000 97.432 -119.8632
3250.000000 97.430 -118.7377
3300.000000 97.422 -117.6480
3350.000000 97.397 -116.5270
3400.000000 97.350 -115.2189
3450.000000 97.303 -113.5300
3500.000000 97.306 -111.4503
3550.000000 97.399 -109.1709
3600.000000 97.591 -106.9744
3650.000000 97.864 -105.0602
3700.000000 98.184 -103.4892
3750.000000 98.530 -102.2790
3820.000000 99.049 -101.2269
3870.000000 99.436 -100.9622
3950.000000 100.074 -101.4693
4000.000000 100.473 -102.4480
4060.000000 100.924 -104.3843
4120.000000 101.300 -107.1757
4180.000000 101.553 -110.7055
4250.000000 101.653 -115.4145
4310.000000 101.544 -119.5013
4370.000000 101.257 -123.1869
4440.000000 100.750 -126.5808
4500.000000 100.227 -128.5183
4550.000000 99.764 -129.4240
4620.000000 99.125 -129.6945
4680.000000 98.620 -129.1567
4750.000000 98.119 -127.9288
4820.000000 97.731 -126.4191
4870.000000 97.518 -125.3689
4940.000000 97.283 -124.1527
5000.000000 97.108 -123.4520
5080.000000 96.857 -123.0209
5150.000000 96.581 -122.9620
5220.000000 96.231 -122.9271
5300.000000 95.745 -122.5406
5380.000000 95.198 -121.5095
5450.000000 94.700 -120.0164
5520.000000 94.212 -117.9882
5600.000000 93.704 -115.0620
5700.000000 93.199 -110.9136
5800.000000 92.797 -106.7288
5900.000000 92.450 -102.4901
6000.000000 92.143 -98.0929
6080.000000 91.931 -94.4501
6150.000000 91.778 -91.1931
6220.000000 91.657 -87.8843
6300.000000 91.555 -84.0496
6400.000000 91.481 -79.1999
6500.000000 91.472 -74.3103
6600.000000 91.534 -69.4184
6700.000000 91.669 -64.5730
6800.000000 91.878 -59.8211
6900.000000 92.181 -55.2301
7000.000000 92.589 -50.8736
7100.000000 93.095 -46.8373
7200.000000 93.690 -43.2096
7300.000000 94.376 -40.1095
7400.000000 95.158 -37.6973
7500.000000 96.036 -36.2018
7620.000000 97.220 -36.1448
7750.000000 98.543 -39.2015
7880.000000 99.564 -46.4155
8000.000000 99.954 -56.2924
8120.000000 99.646 -66.9268
8250.000000 98.593 -76.0597
8380.000000 97.096 -81.0551
8500.000000 95.604 -82.2617
8620.000000 94.175 -81.0667
8750.000000 92.778 -77.9461
8850.000000 91.821 -74.6744
9000.000000 90.565 -68.8206
9120.000000 89.704 -63.5613
9250.000000 88.911 -57.4889
9380.000000 88.254 -51.1722
9500.000000 87.755 -45.2324
9620.000000 87.352 -39.2755
9750.000000 87.017 -32.8654
9880.000000 86.781 -26.5328
10000.000000 86.644 -20.7901
10150.000000 86.587 -13.8472
10300.000000 86.661 -7.3528
10440.000000 86.846 -1.9112
10600.000000 87.170 3.3015
10750.000000 87.547 6.9402
10900.000000 87.939 9.1223
11060.000000 88.306 9.6306
11200.000000 88.504 8.5038
11380.000000 88.460 5.2471
11500.000000 88.190 2.3750
11720.000000 87.147 -2.8957
11800.000000 86.610 -4.5131
12060.000000 84.483 -9.7616
12200.000000 83.056 -14.7874
12410.000000 80.166 -32.1582
12500.000000 78.585 -47.1531
12650.000000 76.163 -87.1510
12800.000000 76.535 -137.7656
13150.000000 81.777 151.3702
13200.000000 82.246 147.1808
13400.000000 83.578 137.5606
13600.000000 84.499 134.5946
13800.000000 85.427 134.6225
14000.000000 86.554 135.2317
14300.000000 88.552 132.3536
14500.000000 89.656 124.7343
14750.000000 89.922 109.2464
15000.000000 88.585 95.9626
15250.000000 86.297 92.4217
15500.000000 84.242 96.5175
15750.000000 82.981 102.9160
16000.000000 82.348 109.4526
16250.000000 82.363 114.4172
16500.000000 82.880 113.9171
16750.000000 83.089 104.2838
17000.000000 81.956 89.4314
17250.000000 79.207 80.3763
17500.000000 75.472 81.9945
17750.000000 71.630 91.7292
18000.000000 68.207 106.7571
18250.000000 65.443 126.3198
18500.000000 64.064 149.0442
18750.000000 64.643 166.6259
19000.000000 65.121 173.3444
19250.000000 64.441 179.6223
19500.000000 63.312 -169.2374
19750.000000 62.307 -156.7328
20000.000000 61.436 -146.0846
20300.000000 60.325 -139.5468
20600.000000 58.674 -160.0278
20900.000000 55.800 -23.8792
21200.000000 51.364 114.1844
21400.000000 47.617 -144.8096
21800.000000 39.910 167.5186
22000.000000 37.347 -71.3535
22400.000000 34.202 -178.4414
22700.000000 32.806 -164.0156
23000.000000 32.239 177.7891
23300.000000 31.954 114.8594
23600.000000 31.798 26.6016
24000.000000 31.792 84.2969
