* Measurement data measured by REW V5.20.13
* Source: Headset (DS by VECLAN.COM), MICROPHONE (Master Volume), L, volume: 0.720. Timing signal peak level -13.3 dBFS, measurement signal peak level -13.7 dBFS
* Format: 2M Log Swept Sine, 1 sweep at -11.8 dBFS using an acoustic timing reference
* Dated: Feb 15, 2024 2:27:27 PM
* REW Settings:
*  C-weighting compensation: Off
*  Target level: 75.0 dB
* Note: ; Delay -0.0660 ms (-23 mm, -0.89 in) using estimated IR delay relative to Acoustic reference played from HEADPHONE L with no timing offset
* Measurement: ND Earphone ND-X12 DDD L
* Smoothing: 1/24 octave
* Frequency Step: 1/48 octave
* Start Frequency: 1.000 Hz
*
* Freq(Hz) SPL(dB) Phase(degrees)
1.000000 70.369 -27.5730
1.015000 70.841 -27.8964
1.030000 71.293 -28.2286
1.044000 71.695 -28.5462
1.060000 72.127 -28.9176
1.075000 72.502 -29.2735
1.090000 72.845 -29.6366
1.106000 73.173 -30.0335
1.120000 73.442 -30.4013
1.138000 73.770 -30.9035
1.150000 73.977 -31.2550
1.172000 74.334 -31.9306
1.180000 74.458 -32.1852
1.206000 74.835 -33.0409
1.220000 75.024 -33.5170
1.241000 75.292 -34.2467
1.250000 75.401 -34.5639
1.265000 75.575 -35.0973
1.280000 75.742 -35.6346
1.315000 76.101 -36.8926
1.320000 76.150 -37.0717
1.340000 76.338 -37.7838
1.360000 76.518 -38.4853
1.380000 76.691 -39.1716
1.400000 76.858 -39.8379
1.430000 77.103 -40.7898
1.450000 77.264 -41.3857
1.475000 77.464 -42.0814
1.500000 77.646 -42.7386
1.525000 77.807 -43.3655
1.550000 77.949 -43.9656
1.575000 78.075 -44.5427
1.600000 78.188 -45.1005
1.625000 78.288 -45.6428
1.650000 78.379 -46.1731
1.675000 78.462 -46.6954
1.700000 78.540 -47.2131
1.725000 78.615 -47.7302
1.750000 78.690 -48.2502
1.775000 78.766 -48.7769
1.800000 78.846 -49.3141
1.825000 78.932 -49.8653
1.850000 79.022 -50.4312
1.875000 79.108 -51.0049
1.900000 79.191 -51.5846
1.925000 79.270 -52.1685
1.950000 79.346 -52.7548
1.975000 79.421 -53.3420
2.000000 79.493 -53.9284
2.030000 79.579 -54.6284
2.060000 79.664 -55.3218
2.090000 79.749 -56.0055
2.120000 79.836 -56.6768
2.140000 79.894 -57.1159
2.180000 80.015 -57.9699
2.200000 80.078 -58.3832
2.240000 80.207 -59.1891
2.270000 80.305 -59.7788
2.300000 80.405 -60.3564
2.330000 80.505 -60.9225
2.360000 80.607 -61.4778
2.400000 80.742 -62.2022
2.430000 80.842 -62.7344
2.470000 80.975 -63.4302
2.500000 81.074 -63.9424
2.540000 81.202 -64.6136
2.580000 81.327 -65.2722
2.620000 81.449 -65.9141
2.650000 81.539 -66.3844
2.690000 81.657 -66.9972
2.720000 81.744 -67.4467
2.760000 81.859 -68.0332
2.800000 81.974 -68.6058
2.850000 82.118 -69.3035
2.900000 82.261 -69.9827
2.950000 82.407 -70.6445
3.000000 82.552 -71.2854
3.040000 82.667 -71.7828
3.070000 82.754 -72.1474
3.110000 82.870 -72.6225
3.150000 82.985 -73.0857
3.200000 83.130 -73.6486
3.250000 83.277 -74.1948
3.300000 83.424 -74.7251
3.350000 83.573 -75.2286
3.400000 83.723 -75.7028
3.450000 83.873 -76.1566
3.500000 84.025 -76.5985
3.550000 84.177 -77.0375
3.600000 84.330 -77.4821
3.650000 84.484 -77.9412
3.700000 84.640 -78.4152
3.750000 84.797 -78.8902
3.820000 85.019 -79.5597
3.870000 85.178 -80.0443
3.950000 85.434 -80.8369
4.000000 85.593 -81.3466
4.060000 85.784 -81.9739
4.120000 85.976 -82.6082
4.180000 86.169 -83.2533
4.250000 86.393 -84.0272
4.310000 86.582 -84.7157
4.370000 86.768 -85.4334
4.440000 86.980 -86.3145
4.500000 87.159 -87.1047
4.550000 87.307 -87.7841
4.620000 87.510 -88.7612
4.680000 87.678 -89.6177
4.750000 87.868 -90.6319
4.820000 88.049 -91.6656
4.870000 88.175 -92.4223
4.940000 88.346 -93.5007
5.000000 88.486 -94.4362
5.080000 88.663 -95.6887
5.150000 88.807 -96.7815
5.220000 88.943 -97.8890
5.300000 89.087 -99.1667
5.380000 89.220 -100.4378
5.450000 89.327 -101.5286
5.520000 89.425 -102.5885
5.600000 89.526 -103.7861
5.700000 89.636 -105.2511
5.800000 89.732 -106.6488
5.900000 89.816 -107.9504
6.000000 89.884 -109.1753
6.080000 89.929 -110.0961
6.150000 89.965 -110.8518
6.220000 90.001 -111.5548
6.300000 90.038 -112.2895
6.400000 90.077 -113.1129
6.500000 90.115 -113.8437
6.600000 90.159 -114.4950
6.700000 90.209 -115.0447
6.800000 90.262 -115.5046
6.900000 90.323 -115.9224
7.000000 90.397 -116.3350
7.100000 90.482 -116.7011
7.200000 90.577 -117.0528
7.300000 90.679 -117.4435
7.400000 90.789 -117.8958
7.500000 90.910 -118.3779
7.620000 91.059 -119.0320
7.750000 91.216 -119.8818
7.880000 91.376 -120.8703
8.000000 91.515 -121.8876
8.120000 91.638 -123.0007
8.250000 91.757 -124.3331
8.380000 91.855 -125.7360
8.500000 91.921 -127.0580
8.620000 91.966 -128.4357
8.750000 91.990 -129.9124
8.850000 91.990 -130.9978
9.000000 91.958 -132.5951
9.120000 91.912 -133.7714
9.250000 91.843 -134.8912
9.380000 91.752 -135.8807
9.500000 91.660 -136.6341
9.620000 91.562 -137.2045
9.750000 91.447 -137.6367
9.880000 91.336 -137.8924
10.000000 91.241 -137.9543
10.150000 91.130 -137.8229
10.300000 91.050 -137.5880
10.440000 91.003 -137.2375
10.600000 90.986 -136.8329
10.750000 91.013 -136.5560
10.900000 91.077 -136.3621
11.060000 91.164 -136.4012
11.200000 91.264 -136.6338
11.380000 91.391 -137.2003
11.500000 91.473 -137.7658
11.720000 91.604 -139.0955
11.800000 91.640 -139.6544
12.060000 91.720 -141.7151
12.200000 91.731 -142.8754
12.410000 91.707 -144.6525
12.500000 91.682 -145.3621
12.650000 91.619 -146.5068
12.800000 91.538 -147.5341
13.150000 91.301 -149.3060
13.200000 91.267 -149.4836
13.400000 91.131 -149.9832
13.600000 91.018 -150.2324
13.800000 90.941 -150.2357
14.000000 90.908 -150.1747
14.300000 90.941 -150.0827
14.500000 91.010 -150.2018
14.750000 91.120 -150.6475
15.000000 91.242 -151.4576
15.250000 91.342 -152.5975
15.500000 91.407 -153.9213
15.750000 91.427 -155.3245
16.000000 91.400 -156.6397
16.250000 91.342 -157.7540
16.500000 91.264 -158.6233
16.750000 91.184 -159.2111
17.000000 91.120 -159.5833
17.250000 91.078 -159.7979
17.500000 91.061 -159.9346
17.750000 91.063 -160.0675
18.000000 91.077 -160.2066
18.250000 91.099 -160.3595
18.500000 91.126 -160.4917
18.750000 91.164 -160.6002
19.000000 91.215 -160.6839
19.250000 91.287 -160.7985
19.500000 91.376 -161.0102
19.750000 91.477 -161.3701
20.000000 91.577 -161.9403
20.299999 91.673 -162.8687
20.600000 91.727 -163.9743
20.900000 91.727 -165.1011
21.200001 91.679 -166.0609
21.400000 91.632 -166.5318
21.799999 91.532 -167.0653
22.000000 91.494 -167.1674
22.400000 91.463 -167.2265
22.700001 91.476 -167.3110
23.000000 91.503 -167.5266
23.299999 91.528 -167.8522
23.600000 91.547 -168.2260
24.000000 91.567 -168.7080
24.299999 91.589 -169.0444
24.700001 91.636 -169.5401
25.000000 91.678 -170.0283
25.400000 91.726 -170.8828
25.799999 91.738 -171.8824
26.200001 91.704 -172.8223
26.500000 91.655 -173.3607
26.900000 91.583 -173.7680
27.200001 91.543 -173.8521
27.600000 91.529 -173.7788
28.000000 91.569 -173.7085
28.500000 91.672 -173.9676
29.000000 91.765 -174.7984
29.500000 91.780 -176.0025
30.000000 91.692 -177.0560
30.400000 91.579 -177.4833
30.700001 91.496 -177.5254
31.100000 91.420 -177.3461
31.500000 91.394 -177.1245
32.000000 91.413 -177.0973
32.500000 91.442 -177.4577
33.000000 91.447 -178.1055
33.500000 91.417 -178.8925
34.000000 91.351 -179.6554
34.500000 91.262 179.7869
35.000000 91.181 179.5252
35.500000 91.145 179.4388
36.000000 91.158 179.2643
36.500000 91.189 178.8497
37.000000 91.203 178.2859
37.500000 91.196 177.7726
38.200001 91.187 177.2748
38.700001 91.195 176.9576
39.500000 91.200 176.3356
40.000000 91.183 175.9650
40.599998 91.149 175.6329
41.200001 91.115 175.3875
41.799999 91.083 175.1622
42.500000 91.045 174.9017
43.099998 91.018 174.6580
43.700001 90.998 174.3422
44.400002 90.973 173.8564
45.000000 90.942 173.3748
45.500000 90.908 172.9835
46.200001 90.857 172.5553
46.799999 90.830 172.3213
47.500000 90.835 172.0169
48.200001 90.847 171.5119
48.700001 90.838 171.1132
49.400002 90.810 170.6997
50.000000 90.795 170.4371
50.799999 90.778 169.9838
51.500000 90.730 169.5843
52.200001 90.670 169.4112
53.000000 90.635 169.3581
53.799999 90.630 169.0922
54.500000 90.613 168.6539
55.200001 90.572 168.1731
56.000000 90.503 167.7493
57.000000 90.431 167.5979
58.000000 90.440 167.5071
59.000000 90.481 166.9107
60.000000 90.461 165.9114
60.799999 90.372 165.1699
61.500000 90.260 164.8323
62.200001 90.151 164.7581
63.000000 90.038 164.8907
64.000000 89.948 165.4494
65.000000 89.940 165.9026
66.000000 89.950 166.4479
67.000000 90.092 166.9420
68.000000 90.209 166.3287
69.000000 90.203 165.8507
70.000000 90.195 165.3402
71.000000 90.070 164.7636
72.000000 89.948 164.7907
73.000000 89.874 164.2348
74.000000 89.707 163.5378
75.000000 89.588 163.3159
76.199997 89.552 162.4595
77.500000 89.461 161.5120
78.800003 89.443 161.2894
80.000000 89.483 160.9580
81.199997 89.452 160.5435
82.500000 89.355 160.5856
83.800003 89.281 160.8368
85.000000 89.250 160.8149
86.199997 89.229 160.4014
87.500000 89.187 159.5853
88.500000 89.105 159.0179
90.000000 88.976 158.8613
91.199997 88.923 158.9443
92.500000 88.880 158.8653
93.800003 88.818 158.6788
95.000000 88.769 158.4825
96.199997 88.718 158.0743
97.500000 88.618 157.7423
98.800003 88.530 157.9169
100.000000 88.506 158.1696
101.500000 88.479 158.2167
103.000000 88.438 158.0624
104.400002 88.347 157.5434
106.000000 88.187 157.4137
107.500000 88.141 157.4429
109.000000 88.125 157.1560
110.599998 88.107 157.0705
112.000000 88.109 157.0910
113.800003 88.086 157.1311
115.000000 88.060 157.1304
117.199997 87.965 156.8717
118.000000 87.918 156.8068
120.599998 87.803 156.5490
122.000000 87.741 156.3754
124.099998 87.643 156.3057
125.000000 87.612 156.3438
126.500000 87.569 156.3059
128.000000 87.513 156.2161
131.500000 87.396 156.0059
132.000000 87.383 155.9404
134.000000 87.316 155.7086
136.000000 87.262 155.8065
138.000000 87.205 155.8883
140.000000 87.103 156.1838
143.000000 87.018 156.1029
145.000000 86.945 155.9000
147.500000 86.932 156.0585
150.000000 86.887 155.7359
152.500000 86.720 155.4721
155.000000 86.605 155.6025
157.500000 86.555 155.9466
160.000000 86.503 156.2639
162.500000 86.459 156.2223
165.000000 86.472 156.1660
167.500000 86.504 156.5667
170.000000 86.439 157.1598
172.500000 86.284 157.2887
175.000000 86.147 156.9354
177.500000 86.068 157.0267
180.000000 85.999 157.6835
182.500000 85.879 157.9665
185.000000 85.766 157.6177
187.500000 85.743 157.2260
190.000000 85.749 157.1791
192.500000 85.706 157.3800
195.000000 85.641 157.6703
197.500000 85.586 158.0684
200.000000 85.509 158.4587
203.000000 85.392 158.5177
206.000000 85.325 158.3488
209.000000 85.289 158.5469
212.000000 85.198 158.9478
214.000000 85.130 159.1299
218.000000 85.047 159.3680
220.000000 85.012 159.5401
224.000000 84.927 159.8703
227.000000 84.877 160.0936
230.000000 84.825 160.3477
233.000000 84.759 160.5898
236.000000 84.697 160.8548
240.000000 84.629 161.1872
243.000000 84.574 161.4243
247.000000 84.501 161.7221
250.000000 84.447 161.9539
254.000000 84.372 162.3221
258.000000 84.297 162.7176
262.000000 84.231 163.1139
265.000000 84.181 163.4014
269.000000 84.113 163.6747
272.000000 84.074 163.8370
276.000000 84.041 164.1426
280.000000 83.993 164.5668
285.000000 83.893 165.1792
290.000000 83.788 165.9837
295.000000 83.724 166.5116
300.000000 83.683 166.7716
304.000000 83.641 167.3054
307.000000 83.607 167.6718
311.000000 83.573 167.9416
315.000000 83.551 168.1221
320.000000 83.507 168.4695
325.000000 83.444 169.0094
330.000000 83.385 169.5878
335.000000 83.330 170.0826
340.000000 83.277 170.5342
345.000000 83.232 171.0216
350.000000 83.186 171.5127
355.000000 83.136 172.0125
360.000000 83.089 172.5359
365.000000 83.047 173.0488
370.000000 83.003 173.5284
375.000000 82.960 174.0164
382.000000 82.900 174.7614
387.000000 82.859 175.3006
395.000000 82.803 176.0667
400.000000 82.771 176.5276
406.000000 82.725 177.1539
412.000000 82.671 177.7841
418.000000 82.625 178.3824
425.000000 82.586 179.1517
431.000000 82.550 179.7924
437.000000 82.513 -179.6259
444.000000 82.469 -178.9552
450.000000 82.433 -178.3546
455.000000 82.404 -177.8238
462.000000 82.367 -177.0599
468.000000 82.336 -176.4448
475.000000 82.300 -175.7557
482.000000 82.268 -175.0622
487.000000 82.250 -174.5511
494.000000 82.229 -173.8188
500.000000 82.212 -173.2008
508.000000 82.194 -172.4044
515.000000 82.181 -171.7290
522.000000 82.165 -171.0369
530.000000 82.140 -170.2123
538.000000 82.124 -169.3886
545.000000 82.114 -168.6710
552.000000 82.108 -167.9774
560.000000 82.104 -167.2286
570.000000 82.088 -166.2066
580.000000 82.075 -165.1529
590.000000 82.059 -164.1616
600.000000 82.037 -163.1514
608.000000 82.020 -162.3444
615.000000 82.011 -161.6590
622.000000 82.005 -160.9595
630.000000 82.006 -160.1292
640.000000 82.017 -159.0795
650.000000 82.026 -158.1214
660.000000 82.026 -157.1003
670.000000 82.016 -156.0446
680.000000 82.016 -155.0775
690.000000 82.024 -154.1475
700.000000 82.036 -153.1874
710.000000 82.047 -152.1746
720.000000 82.051 -151.1535
730.000000 82.048 -150.1201
740.000000 82.041 -149.0637
750.000000 82.031 -147.9538
762.000000 82.019 -146.4345
775.000000 82.037 -144.3637
788.000000 82.179 -142.0448
800.000000 82.406 -140.5947
812.000000 82.582 -139.9853
825.000000 82.667 -139.4464
838.000000 82.708 -138.6387
850.000000 82.747 -137.6453
862.000000 82.801 -136.5258
875.000000 82.879 -135.3399
885.000000 82.949 -134.5263
900.000000 83.060 -133.3866
912.000000 83.148 -132.4637
925.000000 83.240 -131.4701
938.000000 83.331 -130.4753
950.000000 83.414 -129.5539
962.000000 83.496 -128.6444
975.000000 83.587 -127.6755
988.000000 83.680 -126.7262
1000.000000 83.774 -125.8758
1015.000000 83.897 -124.8504
1030.000000 84.018 -123.8383
1044.000000 84.132 -122.9295
1060.000000 84.261 -121.9486
1075.000000 84.379 -121.0240
1090.000000 84.500 -120.1172
1106.000000 84.643 -119.2205
1120.000000 84.773 -118.4552
1138.000000 84.939 -117.4932
1150.000000 85.046 -116.8634
1172.000000 85.244 -115.7143
1180.000000 85.318 -115.3114
1206.000000 85.557 -114.0558
1220.000000 85.682 -113.3864
1241.000000 85.866 -112.3802
1250.000000 85.945 -111.9503
1265.000000 86.080 -111.2310
1280.000000 86.219 -110.5219
1315.000000 86.569 -108.9875
1320.000000 86.619 -108.7718
1340.000000 86.808 -107.8889
1360.000000 86.968 -107.0036
1380.000000 87.122 -106.1186
1400.000000 87.297 -105.2359
1430.000000 87.590 -103.9790
1450.000000 87.798 -103.1683
1475.000000 88.058 -102.1562
1500.000000 88.310 -101.1553
1525.000000 88.566 -100.1957
1550.000000 88.830 -99.2896
1575.000000 89.099 -98.3969
1600.000000 89.374 -97.5468
1625.000000 89.660 -96.7636
1650.000000 89.955 -96.0464
1675.000000 90.255 -95.3753
1700.000000 90.560 -94.7499
1725.000000 90.877 -94.2180
1750.000000 91.204 -93.7872
1775.000000 91.531 -93.4363
1800.000000 91.857 -93.1847
1825.000000 92.183 -93.0421
1850.000000 92.515 -93.0238
1875.000000 92.855 -93.1416
1900.000000 93.199 -93.4003
1925.000000 93.542 -93.8115
1950.000000 93.882 -94.3807
1975.000000 94.213 -95.1111
2000.000000 94.531 -96.0012
2030.000000 94.894 -97.2818
2060.000000 95.240 -98.8079
2090.000000 95.561 -100.5707
2120.000000 95.846 -102.5452
2140.000000 96.011 -103.9515
2180.000000 96.271 -106.9348
2200.000000 96.365 -108.4819
2240.000000 96.480 -111.5828
2270.000000 96.511 -113.8586
2300.000000 96.496 -116.0257
2330.000000 96.439 -118.0269
2360.000000 96.345 -119.8310
2400.000000 96.176 -121.8910
2430.000000 96.022 -123.1572
2470.000000 95.797 -124.4777
2500.000000 95.622 -125.2062
2540.000000 95.388 -125.8467
2580.000000 95.157 -126.1415
2620.000000 94.936 -126.1317
2650.000000 94.782 -125.9529
2690.000000 94.595 -125.5190
2720.000000 94.467 -125.0618
2760.000000 94.313 -124.3083
2800.000000 94.183 -123.4241
2850.000000 94.055 -122.1900
2900.000000 93.959 -120.8419
2950.000000 93.893 -119.4254
3000.000000 93.860 -117.9824
3040.000000 93.866 -116.8551
3070.000000 93.886 -116.0318
3110.000000 93.923 -114.9664
3150.000000 93.965 -113.9537
3200.000000 94.017 -112.7740
3250.000000 94.069 -111.6954
3300.000000 94.118 -110.6810
3350.000000 94.161 -109.6433
3400.000000 94.197 -108.4439
3450.000000 94.241 -106.9606
3500.000000 94.315 -105.1825
3550.000000 94.442 -103.2089
3600.000000 94.642 -101.2281
3650.000000 94.920 -99.4062
3700.000000 95.255 -97.8295
3750.000000 95.628 -96.5591
3820.000000 96.204 -95.4384
3870.000000 96.640 -95.1770
3950.000000 97.343 -95.7327
4000.000000 97.766 -96.6910
4060.000000 98.241 -98.4709
4120.000000 98.657 -100.9534
4180.000000 98.981 -104.1100
4250.000000 99.193 -108.4696
4310.000000 99.202 -112.5107
4370.000000 99.038 -116.4532
4440.000000 98.652 -120.4327
4500.000000 98.196 -122.9756
4550.000000 97.760 -124.3542
4620.000000 97.119 -125.1345
4680.000000 96.591 -124.8551
4750.000000 96.059 -123.7203
4820.000000 95.651 -122.0985
4870.000000 95.437 -120.8712
4940.000000 95.226 -119.3265
5000.000000 95.095 -118.3241
5080.000000 94.935 -117.5709
5150.000000 94.754 -117.3945
5220.000000 94.497 -117.4658
5300.000000 94.094 -117.4611
5380.000000 93.591 -116.8974
5450.000000 93.109 -115.6645
5520.000000 92.634 -113.7000
5600.000000 92.145 -110.7747
5700.000000 91.645 -106.5671
5800.000000 91.270 -102.0424
5900.000000 91.003 -97.4278
6000.000000 90.808 -92.8536
6080.000000 90.680 -89.2006
6150.000000 90.588 -85.9866
6220.000000 90.525 -82.7572
6300.000000 90.491 -79.0489
6400.000000 90.499 -74.3772
6500.000000 90.562 -69.6873
6600.000000 90.673 -64.9841
6700.000000 90.838 -60.2900
6800.000000 91.086 -55.6549
6900.000000 91.438 -51.1189
7000.000000 91.898 -46.7387
7100.000000 92.452 -42.5887
7200.000000 93.099 -38.7758
7300.000000 93.855 -35.4520
7400.000000 94.738 -32.8258
7500.000000 95.755 -31.1881
7620.000000 97.143 -31.1511
7750.000000 98.703 -34.6592
7880.000000 99.923 -43.0307
8000.000000 100.405 -54.5854
8120.000000 100.082 -66.9752
8250.000000 98.922 -77.4290
8380.000000 97.285 -83.0160
8500.000000 95.691 -84.4107
8620.000000 94.199 -83.2968
8750.000000 92.761 -80.2630
8850.000000 91.779 -77.0790
9000.000000 90.485 -71.3981
9120.000000 89.590 -66.3359
9250.000000 88.755 -60.5281
9380.000000 88.042 -54.4903
9500.000000 87.470 -48.7632
9620.000000 86.970 -42.9195
9750.000000 86.509 -36.4759
9880.000000 86.135 -29.9224
10000.000000 85.876 -23.8039
10150.000000 85.677 -16.1628
10300.000000 85.621 -8.7110
10440.000000 85.689 -2.1121
10600.000000 85.883 4.8036
10750.000000 86.159 10.5065
10900.000000 86.513 15.2921
11060.000000 86.951 19.2230
11200.000000 87.346 21.5563
11380.000000 87.799 22.9251
11500.000000 88.027 22.7954
11720.000000 88.183 20.6105
11800.000000 88.129 19.3732
12060.000000 87.561 15.0382
12200.000000 87.108 12.1644
12410.000000 86.106 4.8844
12500.000000 85.426 0.5882
12650.000000 83.782 -7.1002
12800.000000 81.325 -12.2348
13150.000000 72.175 41.7786
13200.000000 71.170 59.2756
13400.000000 72.588 115.5553
13600.000000 76.056 135.9732
13800.000000 78.687 142.4833
14000.000000 80.909 145.8309
14300.000000 83.992 145.6644
14500.000000 85.651 139.3673
14750.000000 86.483 124.2000
15000.000000 85.491 109.9865
15250.000000 83.284 107.0168
15500.000000 81.456 112.9877
15750.000000 80.587 119.2668
16000.000000 80.081 125.3459
16250.000000 80.055 130.8221
16500.000000 80.499 132.2549
16750.000000 80.801 126.2623
17000.000000 80.091 114.6915
17250.000000 78.021 105.9114
17500.000000 75.037 105.3034
17750.000000 71.886 111.4316
18000.000000 69.036 121.3146
18250.000000 66.596 133.2338
18500.000000 64.564 146.4720
18750.000000 62.978 160.7750
19000.000000 61.797 176.3497
19250.000000 60.807 -165.8887
19500.000000 60.042 -145.0459
19750.000000 60.150 -123.7574
20000.000000 60.931 -109.6726
20300.000000 61.137 -104.2786
20600.000000 60.242 -105.7634
20900.000000 58.505 -149.4307
21200.000000 55.852 -141.6999
21400.000000 53.543 123.9972
21800.000000 47.683 -57.7905
22000.000000 44.170 -27.5430
22400.000000 36.718 -103.6367
22700.000000 33.280 -172.5312
23000.000000 32.363 -13.9961
23300.000000 32.097 8.6797
23600.000000 31.969 -27.9297
24000.000000 31.691 105.6328
