* Measurement data measured by REW V5.20.13
* Source: Headset (DS by VECLAN.COM), MICROPHONE (Master Volume), L, volume: 0.720. Timing signal peak level -14.0 dBFS, measurement signal peak level -13.6 dBFS
* Format: 2M Log Swept Sine, 1 sweep at -11.8 dBFS using an acoustic timing reference
* Dated: Feb 15, 2024 1:14:47 PM
* REW Settings:
*  C-weighting compensation: Off
*  Target level: 75.0 dB
* Note: ; Delay -0.0609 ms (-21 mm, -0.82 in) using estimated IR delay relative to Acoustic reference played from HEADPHONE L with no timing offset
* Measurement: ND Earphone ND-001 L
* Smoothing: 1/24 octave
* Frequency Step: 1/48 octave
* Start Frequency: 1.000 Hz
*
* Freq(Hz) SPL(dB) Phase(degrees)
1.000000 71.277 -73.4886
1.015000 71.900 -72.0861
1.030000 72.497 -70.7544
1.044000 73.026 -69.5810
1.060000 73.592 -68.3295
1.075000 74.080 -67.2497
1.090000 74.521 -66.2672
1.106000 74.939 -65.3339
1.120000 75.281 -64.6157
1.138000 75.696 -63.8189
1.150000 75.959 -63.3616
1.172000 76.412 -62.6632
1.180000 76.568 -62.4509
1.206000 77.046 -61.8973
1.220000 77.286 -61.6765
1.241000 77.626 -61.4319
1.250000 77.765 -61.3549
1.265000 77.988 -61.2580
1.280000 78.202 -61.1946
1.315000 78.668 -61.1387
1.320000 78.732 -61.1375
1.340000 78.980 -61.1397
1.360000 79.219 -61.1407
1.380000 79.453 -61.1245
1.400000 79.682 -61.0748
1.430000 80.025 -60.9020
1.450000 80.256 -60.6978
1.475000 80.549 -60.3230
1.500000 80.826 -59.8806
1.525000 81.083 -59.3977
1.550000 81.323 -58.8844
1.575000 81.547 -58.3510
1.600000 81.758 -57.8074
1.625000 81.957 -57.2640
1.650000 82.147 -56.7307
1.675000 82.330 -56.2178
1.700000 82.507 -55.7354
1.725000 82.680 -55.2936
1.750000 82.853 -54.9026
1.775000 83.026 -54.5724
1.800000 83.202 -54.3134
1.825000 83.383 -54.1355
1.850000 83.567 -54.0446
1.875000 83.748 -54.0313
1.900000 83.925 -54.0873
1.925000 84.100 -54.2045
1.950000 84.271 -54.3750
1.975000 84.440 -54.5908
2.000000 84.606 -54.8439
2.030000 84.803 -55.1855
2.060000 84.997 -55.5554
2.090000 85.189 -55.9398
2.120000 85.380 -56.3248
2.140000 85.506 -56.5750
2.180000 85.757 -57.0414
2.200000 85.883 -57.2496
2.240000 86.132 -57.6569
2.270000 86.317 -57.9699
2.300000 86.501 -58.2897
2.330000 86.684 -58.6167
2.360000 86.864 -58.9513
2.400000 87.100 -59.4099
2.430000 87.275 -59.7638
2.470000 87.504 -60.2494
2.500000 87.671 -60.6244
2.540000 87.890 -61.1398
2.580000 88.103 -61.6734
2.620000 88.309 -62.2255
2.650000 88.461 -62.6513
2.690000 88.659 -63.2337
2.720000 88.803 -63.6810
2.760000 88.992 -64.2905
2.800000 89.177 -64.9142
2.850000 89.401 -65.7121
2.900000 89.619 -66.5285
2.950000 89.830 -67.3648
3.000000 90.035 -68.2455
3.040000 90.193 -68.9773
3.070000 90.309 -69.5366
3.110000 90.459 -70.2897
3.150000 90.606 -71.0439
3.200000 90.784 -71.9756
3.250000 90.956 -72.8803
3.300000 91.123 -73.7420
3.350000 91.283 -74.5605
3.400000 91.437 -75.3489
3.450000 91.585 -76.1155
3.500000 91.728 -76.8687
3.550000 91.865 -77.6170
3.600000 91.998 -78.3688
3.650000 92.128 -79.1326
3.700000 92.253 -79.9170
3.750000 92.373 -80.7212
3.820000 92.533 -81.8601
3.870000 92.642 -82.6682
3.950000 92.810 -83.9220
4.000000 92.913 -84.6643
4.060000 93.033 -85.4973
4.120000 93.149 -86.2745
4.180000 93.260 -87.0096
4.250000 93.385 -87.8317
4.310000 93.490 -88.5212
4.370000 93.594 -89.2105
4.440000 93.715 -90.0246
4.500000 93.815 -90.7179
4.550000 93.898 -91.2897
4.620000 94.012 -92.0788
4.680000 94.109 -92.7422
4.750000 94.223 -93.4978
4.820000 94.336 -94.2258
4.870000 94.418 -94.7270
4.940000 94.531 -95.4127
5.000000 94.628 -95.9949
5.080000 94.756 -96.7789
5.150000 94.867 -97.4851
5.220000 94.978 -98.2006
5.300000 95.105 -99.0251
5.380000 95.230 -99.8599
5.450000 95.337 -100.6009
5.520000 95.441 -101.3540
5.600000 95.558 -102.2298
5.700000 95.700 -103.3432
5.800000 95.836 -104.4710
5.900000 95.962 -105.6091
6.000000 96.079 -106.7683
6.080000 96.168 -107.7028
6.150000 96.240 -108.5178
6.220000 96.308 -109.3237
6.300000 96.378 -110.2404
6.400000 96.457 -111.3870
6.500000 96.527 -112.5094
6.600000 96.590 -113.5807
6.700000 96.643 -114.6036
6.800000 96.687 -115.5848
6.900000 96.727 -116.5140
7.000000 96.765 -117.3817
7.100000 96.797 -118.1894
7.200000 96.827 -118.9423
7.300000 96.858 -119.6446
7.400000 96.892 -120.2921
7.500000 96.926 -120.8792
7.620000 96.971 -121.5361
7.750000 97.029 -122.2244
7.880000 97.094 -122.8664
8.000000 97.159 -123.4499
8.120000 97.229 -124.0575
8.250000 97.311 -124.7260
8.380000 97.393 -125.4184
8.500000 97.467 -126.0951
8.620000 97.540 -126.8050
8.750000 97.614 -127.5926
8.850000 97.665 -128.2048
9.000000 97.734 -129.1482
9.120000 97.782 -129.8909
9.250000 97.826 -130.6609
9.380000 97.863 -131.4081
9.500000 97.892 -132.0571
9.620000 97.916 -132.6543
9.750000 97.936 -133.2520
9.880000 97.952 -133.8027
10.000000 97.962 -134.2641
10.150000 97.969 -134.7852
10.300000 97.977 -135.2791
10.440000 97.985 -135.7069
10.600000 97.998 -136.1918
10.750000 98.017 -136.6709
10.900000 98.040 -137.1658
11.060000 98.065 -137.7347
11.200000 98.089 -138.2703
11.380000 98.114 -138.9706
11.500000 98.127 -139.4435
11.720000 98.146 -140.2943
11.800000 98.151 -140.5859
12.060000 98.168 -141.4831
12.200000 98.182 -141.9259
12.410000 98.208 -142.5488
12.500000 98.223 -142.8133
12.650000 98.252 -143.2406
12.800000 98.285 -143.6824
13.150000 98.377 -144.8411
13.200000 98.390 -145.0243
13.400000 98.441 -145.8121
13.600000 98.484 -146.6481
13.800000 98.516 -147.5278
14.000000 98.533 -148.3850
14.300000 98.535 -149.5890
14.500000 98.525 -150.2772
14.750000 98.514 -151.0130
15.000000 98.511 -151.6223
15.250000 98.525 -152.1789
15.500000 98.552 -152.7448
15.750000 98.587 -153.3503
16.000000 98.616 -154.0177
16.250000 98.635 -154.7053
16.500000 98.641 -155.3809
16.750000 98.635 -155.9895
17.000000 98.627 -156.5069
17.250000 98.621 -156.9438
17.500000 98.622 -157.3211
17.750000 98.629 -157.6944
18.000000 98.638 -158.0805
18.250000 98.646 -158.4975
18.500000 98.647 -158.9167
18.750000 98.643 -159.3081
19.000000 98.634 -159.6443
19.250000 98.631 -159.9128
19.500000 98.637 -160.1507
19.750000 98.656 -160.3901
20.000000 98.687 -160.7085
20.299999 98.726 -161.2392
20.600000 98.752 -161.9313
20.900000 98.752 -162.7189
21.200001 98.720 -163.4713
21.400000 98.686 -163.8771
21.799999 98.613 -164.4125
22.000000 98.587 -164.5568
22.400000 98.580 -164.7400
22.700001 98.614 -164.9590
23.000000 98.665 -165.3807
23.299999 98.710 -166.0118
23.600000 98.734 -166.7751
24.000000 98.723 -167.8062
24.299999 98.692 -168.4421
24.700001 98.643 -169.0194
25.000000 98.620 -169.2864
25.400000 98.621 -169.5539
25.799999 98.650 -169.8806
26.200001 98.687 -170.3457
26.500000 98.710 -170.7714
26.900000 98.726 -171.3859
27.200001 98.726 -171.8392
27.600000 98.711 -172.3916
28.000000 98.685 -172.8543
28.500000 98.647 -173.2869
29.000000 98.617 -173.5829
29.500000 98.605 -173.8267
30.000000 98.609 -174.1329
30.400000 98.617 -174.4700
30.700001 98.620 -174.7766
31.100000 98.617 -175.2294
31.500000 98.607 -175.6932
32.000000 98.590 -176.2359
32.500000 98.578 -176.7332
33.000000 98.578 -177.2510
33.500000 98.582 -177.8538
34.000000 98.576 -178.5138
34.500000 98.556 -179.1081
35.000000 98.535 -179.5496
35.500000 98.533 -179.8970
36.000000 98.549 179.6934
36.500000 98.561 179.1467
37.000000 98.546 178.5609
37.500000 98.506 178.1009
38.200001 98.450 177.7661
38.700001 98.432 177.6226
39.500000 98.429 177.2626
40.000000 98.427 176.9257
40.599998 98.414 176.4494
41.200001 98.386 175.9604
41.799999 98.349 175.5309
42.500000 98.312 175.1288
43.099998 98.295 174.7963
43.700001 98.286 174.4127
44.400002 98.271 173.9197
45.000000 98.253 173.5107
45.500000 98.235 173.2037
46.200001 98.213 172.8288
46.799999 98.201 172.5316
47.500000 98.191 172.1537
48.200001 98.179 171.7181
48.700001 98.163 171.3900
49.400002 98.133 170.9428
50.000000 98.101 170.5892
50.799999 98.058 170.1694
51.500000 98.025 169.8322
52.200001 97.996 169.4964
53.000000 97.966 169.1344
53.799999 97.945 168.8087
54.500000 97.936 168.4841
55.200001 97.923 168.1014
56.000000 97.897 167.6841
57.000000 97.857 167.1985
58.000000 97.792 166.7511
59.000000 97.724 166.5935
60.000000 97.711 166.4366
60.799999 97.712 166.0134
61.500000 97.692 165.5231
62.200001 97.659 165.0893
63.000000 97.632 164.6459
64.000000 97.598 163.9565
65.000000 97.524 163.4648
66.000000 97.484 163.3743
67.000000 97.486 163.0930
68.000000 97.447 162.6838
69.000000 97.384 162.4692
70.000000 97.334 162.3431
71.000000 97.298 162.1096
72.000000 97.256 161.7350
73.000000 97.206 161.3329
74.000000 97.154 160.9713
75.000000 97.110 160.6918
76.199997 97.070 160.3495
77.500000 97.020 160.0201
78.800003 96.975 159.6645
80.000000 96.920 159.2388
81.199997 96.853 158.7543
82.500000 96.762 158.3016
83.800003 96.690 158.0679
85.000000 96.657 157.8935
86.199997 96.643 157.6691
87.500000 96.622 157.3027
88.500000 96.581 157.0231
90.000000 96.506 156.7838
91.199997 96.457 156.6246
92.500000 96.410 156.3709
93.800003 96.361 156.0504
95.000000 96.306 155.7601
96.199997 96.249 155.5410
97.500000 96.195 155.3353
98.800003 96.142 155.0918
100.000000 96.090 154.8699
101.500000 96.030 154.6050
103.000000 95.973 154.3100
104.400002 95.917 154.0447
106.000000 95.854 153.7803
107.500000 95.793 153.5364
109.000000 95.733 153.2933
110.599998 95.670 153.0388
112.000000 95.619 152.8262
113.800003 95.552 152.5854
115.000000 95.505 152.4600
117.199997 95.406 152.2944
118.000000 95.368 152.2634
120.599998 95.259 152.0956
122.000000 95.203 151.9037
124.099998 95.121 151.5836
125.000000 95.089 151.4496
126.500000 95.040 151.2396
128.000000 94.991 151.0760
131.500000 94.882 150.8618
132.000000 94.865 150.8278
134.000000 94.785 150.7041
136.000000 94.703 150.6003
138.000000 94.628 150.4638
140.000000 94.562 150.2987
143.000000 94.472 150.0001
145.000000 94.410 149.8328
147.500000 94.328 149.7307
150.000000 94.245 149.7147
152.500000 94.162 149.6869
155.000000 94.080 149.5590
157.500000 93.997 149.4042
160.000000 93.917 149.2830
162.500000 93.836 149.1729
165.000000 93.757 149.0916
167.500000 93.680 149.0896
170.000000 93.600 149.1318
172.500000 93.504 149.1497
175.000000 93.406 149.1528
177.500000 93.325 149.1561
180.000000 93.253 149.1066
182.500000 93.168 149.0291
185.000000 93.076 148.9754
187.500000 92.993 148.9994
190.000000 92.923 149.0901
192.500000 92.848 149.2321
195.000000 92.770 149.3898
197.500000 92.694 149.4930
200.000000 92.626 149.5260
203.000000 92.545 149.4603
206.000000 92.471 149.4684
209.000000 92.412 149.5190
212.000000 92.331 149.6009
214.000000 92.267 149.7795
218.000000 92.150 150.2672
220.000000 92.093 150.4097
224.000000 91.980 150.5046
227.000000 91.910 150.6650
230.000000 91.852 150.8911
233.000000 91.797 151.0213
236.000000 91.736 151.1187
240.000000 91.633 151.2800
243.000000 91.552 151.3872
247.000000 91.460 151.5092
250.000000 91.388 151.6800
254.000000 91.292 151.9927
258.000000 91.175 152.2851
262.000000 91.050 152.5966
265.000000 90.984 152.8455
269.000000 90.930 153.1225
272.000000 90.889 153.3230
276.000000 90.820 153.6127
280.000000 90.737 153.9501
285.000000 90.636 154.4279
290.000000 90.542 154.9285
295.000000 90.447 155.4276
300.000000 90.350 155.8757
304.000000 90.282 156.2385
307.000000 90.236 156.5544
311.000000 90.174 157.0259
315.000000 90.111 157.5156
320.000000 90.028 158.0998
325.000000 89.941 158.6433
330.000000 89.856 159.2447
335.000000 89.786 159.9323
340.000000 89.725 160.5632
345.000000 89.660 161.1414
350.000000 89.596 161.7864
355.000000 89.542 162.5295
360.000000 89.488 163.2945
365.000000 89.438 164.0628
370.000000 89.395 164.8302
375.000000 89.360 165.6080
382.000000 89.318 166.6653
387.000000 89.295 167.4463
395.000000 89.281 168.7408
400.000000 89.263 169.5484
406.000000 89.245 170.5801
412.000000 89.250 171.6541
418.000000 89.274 172.6689
425.000000 89.314 173.6992
431.000000 89.354 174.5515
437.000000 89.400 175.4259
444.000000 89.455 176.5015
450.000000 89.508 177.4680
455.000000 89.570 178.2036
462.000000 89.675 179.0513
468.000000 89.774 179.6533
475.000000 89.900 -179.7377
482.000000 90.031 -179.1612
487.000000 90.122 -178.7686
494.000000 90.247 -178.2742
500.000000 90.358 -177.9077
508.000000 90.509 -177.5356
515.000000 90.644 -177.3217
522.000000 90.780 -177.2043
530.000000 90.928 -177.2126
538.000000 91.068 -177.3487
545.000000 91.185 -177.4886
552.000000 91.292 -177.6642
560.000000 91.397 -177.9307
570.000000 91.513 -178.3669
580.000000 91.625 -178.8508
590.000000 91.724 -179.3820
600.000000 91.808 -179.9514
608.000000 91.863 179.5810
615.000000 91.901 179.1735
622.000000 91.930 178.7718
630.000000 91.955 178.3239
640.000000 91.973 177.7656
650.000000 91.980 177.2117
660.000000 91.983 176.7050
670.000000 91.977 176.2162
680.000000 91.964 175.7389
690.000000 91.952 175.3019
700.000000 91.937 174.8865
710.000000 91.913 174.4861
720.000000 91.877 174.1702
730.000000 91.838 173.9780
740.000000 91.808 173.8141
750.000000 91.793 173.5612
762.000000 91.777 173.1571
775.000000 91.740 172.7400
788.000000 91.681 172.3888
800.000000 91.617 172.1134
812.000000 91.552 171.8620
825.000000 91.478 171.6429
838.000000 91.397 171.5495
850.000000 91.322 171.5545
862.000000 91.256 171.5489
875.000000 91.200 171.5050
885.000000 91.163 171.4808
900.000000 91.102 171.4817
912.000000 91.047 171.5094
925.000000 90.988 171.5374
938.000000 90.934 171.5393
950.000000 90.884 171.5431
962.000000 90.833 171.5632
975.000000 90.777 171.5866
988.000000 90.722 171.6002
1000.000000 90.674 171.6052
1015.000000 90.617 171.5988
1030.000000 90.555 171.5772
1044.000000 90.490 171.5537
1060.000000 90.404 171.5421
1075.000000 90.317 171.5388
1090.000000 90.238 171.5298
1106.000000 90.172 171.4922
1120.000000 90.120 171.4421
1138.000000 90.043 171.4187
1150.000000 89.979 171.4424
1172.000000 89.848 171.5198
1180.000000 89.799 171.5485
1206.000000 89.641 171.6738
1220.000000 89.558 171.7764
1241.000000 89.432 171.9838
1250.000000 89.378 172.0897
1265.000000 89.285 172.2887
1280.000000 89.191 172.5333
1315.000000 88.966 173.2505
1320.000000 88.932 173.3651
1340.000000 88.790 173.8854
1360.000000 88.624 174.4991
1380.000000 88.456 175.1781
1400.000000 88.305 175.9165
1430.000000 88.092 177.1756
1450.000000 87.957 178.0984
1475.000000 87.792 179.3346
1500.000000 87.632 -179.3095
1525.000000 87.480 -177.8712
1550.000000 87.339 -176.3434
1575.000000 87.205 -174.7330
1600.000000 87.076 -173.0348
1625.000000 86.954 -171.2361
1650.000000 86.851 -169.3930
1675.000000 86.769 -167.5045
1700.000000 86.691 -165.5223
1725.000000 86.616 -163.4663
1750.000000 86.553 -161.3587
1775.000000 86.509 -159.2091
1800.000000 86.489 -157.0340
1825.000000 86.488 -154.8219
1850.000000 86.500 -152.5721
1875.000000 86.524 -150.2786
1900.000000 86.565 -147.9697
1925.000000 86.627 -145.6528
1950.000000 86.710 -143.3285
1975.000000 86.809 -141.0159
2000.000000 86.917 -138.6858
2030.000000 87.062 -135.8700
2060.000000 87.244 -133.1033
2090.000000 87.464 -130.3910
2120.000000 87.713 -127.7157
2140.000000 87.892 -125.9617
2180.000000 88.281 -122.5369
2200.000000 88.491 -120.8701
2240.000000 88.952 -117.6785
2270.000000 89.336 -115.4264
2300.000000 89.744 -113.2982
2330.000000 90.176 -111.3037
2360.000000 90.633 -109.4733
2400.000000 91.288 -107.3288
2430.000000 91.814 -105.9694
2470.000000 92.560 -104.5561
2500.000000 93.145 -103.8329
2540.000000 93.942 -103.3574
2580.000000 94.751 -103.5281
2620.000000 95.571 -104.4755
2650.000000 96.181 -105.7511
2690.000000 96.957 -108.2540
2720.000000 97.483 -110.7251
2760.000000 98.078 -114.7348
2800.000000 98.528 -119.3916
2850.000000 98.859 -125.6694
2900.000000 98.926 -131.8260
2950.000000 98.751 -137.2573
3000.000000 98.407 -141.6469
3040.000000 98.068 -144.3672
3070.000000 97.799 -145.9553
3110.000000 97.437 -147.5243
3150.000000 97.084 -148.5455
3200.000000 96.668 -149.1877
3250.000000 96.290 -149.2825
3300.000000 95.958 -148.9930
3350.000000 95.673 -148.4514
3400.000000 95.433 -147.7546
3450.000000 95.231 -146.9884
3500.000000 95.060 -146.2199
3550.000000 94.905 -145.4963
3600.000000 94.749 -144.8242
3650.000000 94.573 -144.1498
3700.000000 94.361 -143.3401
3750.000000 94.106 -142.2061
3820.000000 93.709 -139.7203
3870.000000 93.445 -137.2006
3950.000000 93.176 -132.1745
4000.000000 93.137 -128.7408
4060.000000 93.210 -124.6453
4120.000000 93.383 -120.7782
4180.000000 93.629 -117.2433
4250.000000 93.988 -113.5744
4310.000000 94.348 -110.8226
4370.000000 94.744 -108.4193
4440.000000 95.239 -106.0360
4500.000000 95.684 -104.3605
4550.000000 96.067 -103.2457
4620.000000 96.622 -102.1417
4680.000000 97.113 -101.6595
4750.000000 97.701 -101.6984
4820.000000 98.277 -102.4255
4870.000000 98.665 -103.3842
4940.000000 99.150 -105.3361
5000.000000 99.493 -107.5285
5080.000000 99.834 -111.0986
5150.000000 100.008 -114.6727
5220.000000 100.044 -118.4410
5300.000000 99.899 -122.6670
5380.000000 99.567 -126.4767
5450.000000 99.154 -129.2560
5520.000000 98.662 -131.4122
5600.000000 98.036 -133.1278
5700.000000 97.180 -134.2011
5800.000000 96.272 -133.9426
5900.000000 95.371 -132.2937
6000.000000 94.533 -129.4022
6080.000000 93.939 -126.3636
6150.000000 93.486 -123.3042
6220.000000 93.102 -119.9712
6300.000000 92.741 -115.9371
6400.000000 92.402 -110.7118
6500.000000 92.167 -105.4085
6600.000000 92.019 -100.1181
6700.000000 91.947 -94.8719
6800.000000 91.963 -89.6623
6900.000000 92.086 -84.4588
7000.000000 92.328 -79.2458
7100.000000 92.703 -74.1285
7200.000000 93.233 -69.4285
7300.000000 93.900 -65.5922
7400.000000 94.654 -62.9194
7500.000000 95.457 -61.4297
7620.000000 96.462 -61.3816
7750.000000 97.471 -63.9784
7880.000000 98.151 -69.3584
8000.000000 98.369 -76.1328
8120.000000 98.146 -83.4528
8250.000000 97.445 -90.6261
8380.000000 96.348 -96.1049
8500.000000 95.053 -99.1047
8620.000000 93.563 -99.4798
8750.000000 91.917 -96.8341
8850.000000 90.719 -92.7710
9000.000000 89.506 -83.9244
9120.000000 89.220 -80.0262
9250.000000 88.702 -79.6793
9380.000000 87.767 -79.8127
9500.000000 86.691 -80.0336
9620.000000 85.430 -81.5708
9750.000000 83.719 -87.4412
9880.000000 81.424 -104.3110
10000.000000 79.126 -138.7867
10150.000000 79.774 157.2429
10300.000000 83.335 106.1165
10440.000000 85.708 81.4862
10600.000000 87.265 68.8520
10750.000000 88.157 64.3158
10900.000000 88.865 63.3674
11060.000000 89.621 64.1744
11200.000000 90.337 65.2357
11380.000000 91.311 65.9927
11500.000000 91.951 65.7264
11720.000000 92.956 63.1782
11800.000000 93.228 61.6435
12060.000000 93.662 55.4789
12200.000000 93.604 52.1658
12410.000000 93.217 48.1161
12500.000000 92.976 46.7744
12650.000000 92.513 44.9663
12800.000000 91.990 43.5157
13150.000000 90.467 40.9482
13200.000000 90.201 40.7173
13400.000000 89.000 40.5165
13600.000000 87.604 42.0153
13800.000000 86.115 45.6790
14000.000000 84.656 51.5068
14300.000000 82.699 63.6425
14500.000000 81.630 73.4892
14750.000000 80.650 87.1251
15000.000000 80.130 101.6014
15250.000000 80.153 116.1835
15500.000000 80.840 129.8159
15750.000000 82.211 140.8622
16000.000000 84.005 146.7356
16250.000000 85.555 144.8372
16500.000000 86.130 136.7452
16750.000000 85.589 128.9909
17000.000000 84.422 125.4962
17250.000000 83.110 125.0824
17500.000000 81.719 126.4875
17750.000000 80.203 130.3688
18000.000000 78.707 137.4313
18250.000000 77.582 147.3204
18500.000000 77.404 157.8936
18750.000000 78.290 164.0023
19000.000000 79.134 161.4706
19250.000000 78.812 153.7907
19500.000000 77.020 149.8112
19750.000000 74.131 154.7108
20000.000000 70.814 167.4712
20300.000000 67.120 -172.0254
20600.000000 64.138 -150.0261
20900.000000 61.498 -127.1849
21200.000000 58.977 -108.0623
21400.000000 57.483 -119.1417
21800.000000 54.888 -173.1949
22000.000000 53.186 138.2986
22400.000000 47.455 104.0752
22700.000000 41.317 11.4346
23000.000000 35.351 158.2637
23300.000000 32.601 108.5469
23600.000000 32.122 -178.3633
24000.000000 31.802 -113.6484
