* Measurement data measured by REW V5.20.13
* Source: Headset (DS by VECLAN.COM), MICROPHONE (Master Volume), L, volume: 0.720. Timing signal peak level -14.5 dBFS, measurement signal peak level -14.0 dBFS
* Format: 2M Log Swept Sine, 1 sweep at -11.8 dBFS using an acoustic timing reference
* Dated: Feb 15, 2024 2:24:18 PM
* REW Settings:
*  C-weighting compensation: Off
*  Target level: 75.0 dB
* Note: ; Delay -0.0666 ms (-23 mm, -0.9 in) using estimated IR delay relative to Acoustic reference played from HEADPHONE R with no timing offset
* Measurement: ND Earphone ND-X12 DDD R
* Smoothing: 1/24 octave
* Frequency Step: 1/48 octave
* Start Frequency: 1.000 Hz
*
* Freq(Hz) SPL(dB) Phase(degrees)
1.000000 73.897 4.2665
1.015000 74.235 4.0447
1.030000 74.560 3.7988
1.044000 74.852 3.5468
1.060000 75.168 3.2316
1.075000 75.445 2.9092
1.090000 75.703 2.5598
1.106000 75.954 2.1542
1.120000 76.164 1.7568
1.138000 76.423 1.1874
1.150000 76.589 0.7741
1.172000 76.879 -0.0470
1.180000 76.981 -0.3642
1.206000 77.297 -1.4552
1.220000 77.458 -2.0760
1.241000 77.690 -3.0433
1.250000 77.785 -3.4691
1.265000 77.939 -4.1909
1.280000 78.088 -4.9249
1.315000 78.413 -6.6654
1.320000 78.458 -6.9154
1.340000 78.630 -7.9132
1.360000 78.795 -8.9017
1.380000 78.953 -9.8726
1.400000 79.105 -10.8177
1.430000 79.323 -12.1688
1.450000 79.463 -13.0131
1.475000 79.632 -13.9951
1.500000 79.782 -14.9269
1.525000 79.914 -15.8225
1.550000 80.028 -16.6877
1.575000 80.128 -17.5281
1.600000 80.215 -18.3494
1.625000 80.292 -19.1574
1.650000 80.361 -19.9577
1.675000 80.423 -20.7562
1.700000 80.482 -21.5584
1.725000 80.538 -22.3701
1.750000 80.595 -23.1971
1.775000 80.654 -24.0449
1.800000 80.718 -24.9194
1.825000 80.788 -25.8262
1.850000 80.864 -26.7673
1.875000 80.937 -27.7343
1.900000 81.007 -28.7237
1.925000 81.075 -29.7320
1.950000 81.141 -30.7557
1.975000 81.207 -31.7914
2.000000 81.271 -32.8356
2.030000 81.349 -34.0950
2.060000 81.427 -35.3559
2.090000 81.506 -36.6122
2.120000 81.587 -37.8580
2.140000 81.643 -38.6798
2.180000 81.759 -40.2944
2.200000 81.820 -41.0838
2.240000 81.948 -42.6433
2.270000 82.048 -43.8027
2.300000 82.151 -44.9539
2.330000 82.256 -46.0973
2.360000 82.363 -47.2332
2.400000 82.506 -48.7370
2.430000 82.613 -49.8573
2.470000 82.755 -51.3417
2.500000 82.860 -52.4486
2.540000 82.996 -53.9167
2.580000 83.127 -55.3767
2.620000 83.255 -56.8282
2.650000 83.350 -57.9106
2.690000 83.475 -59.3452
2.720000 83.567 -60.4144
2.760000 83.689 -61.8302
2.800000 83.810 -63.2345
2.850000 83.958 -64.9725
2.900000 84.103 -66.6903
2.950000 84.247 -68.3880
3.000000 84.388 -70.0775
3.040000 84.499 -71.4210
3.070000 84.581 -72.4215
3.110000 84.689 -73.7428
3.150000 84.796 -75.0464
3.200000 84.926 -76.6450
3.250000 85.052 -78.2026
3.300000 85.175 -79.7119
3.350000 85.294 -81.1727
3.400000 85.410 -82.5910
3.450000 85.523 -83.9707
3.500000 85.632 -85.3158
3.550000 85.738 -86.6300
3.600000 85.841 -87.9173
3.650000 85.941 -89.1818
3.700000 86.038 -90.4271
3.750000 86.131 -91.6528
3.820000 86.255 -93.3267
3.870000 86.341 -94.4858
3.950000 86.473 -96.2638
4.000000 86.554 -97.3197
4.060000 86.650 -98.5231
4.120000 86.741 -99.6579
4.180000 86.830 -100.7321
4.250000 86.931 -101.9193
4.310000 87.016 -102.8893
4.370000 87.100 -103.8240
4.440000 87.197 -104.8739
4.500000 87.279 -105.7276
4.550000 87.346 -106.4076
4.620000 87.440 -107.3145
4.680000 87.520 -108.0528
4.750000 87.616 -108.8725
4.820000 87.713 -109.6403
4.870000 87.783 -110.1509
4.940000 87.883 -110.8237
5.000000 87.968 -111.3716
5.080000 88.084 -112.0777
5.150000 88.188 -112.6862
5.220000 88.293 -113.2691
5.300000 88.416 -113.9046
5.380000 88.540 -114.5203
5.450000 88.648 -115.0537
5.520000 88.757 -115.5899
5.600000 88.882 -116.1939
5.700000 89.040 -116.9373
5.800000 89.195 -117.6789
5.900000 89.345 -118.4294
6.000000 89.493 -119.1875
6.080000 89.608 -119.7953
6.150000 89.706 -120.3256
6.220000 89.800 -120.8525
6.300000 89.903 -121.4549
6.400000 90.026 -122.2100
6.500000 90.142 -122.9522
6.600000 90.252 -123.6648
6.700000 90.354 -124.3501
6.800000 90.449 -125.0118
6.900000 90.540 -125.6426
7.000000 90.628 -126.2354
7.100000 90.710 -126.7896
7.200000 90.790 -127.3115
7.300000 90.869 -127.8078
7.400000 90.950 -128.2762
7.500000 91.029 -128.7098
7.620000 91.126 -129.2143
7.750000 91.233 -129.7744
7.880000 91.343 -130.3281
8.000000 91.445 -130.8628
8.120000 91.545 -131.4512
8.250000 91.654 -132.1352
8.380000 91.755 -132.8726
8.500000 91.838 -133.6131
8.620000 91.914 -134.4128
8.750000 91.982 -135.3106
8.850000 92.021 -136.0097
9.000000 92.059 -137.1002
9.120000 92.074 -137.9474
9.250000 92.072 -138.8013
9.380000 92.053 -139.6127
9.500000 92.024 -140.2741
9.620000 91.986 -140.8226
9.750000 91.932 -141.3108
9.880000 91.877 -141.6895
10.000000 91.826 -141.9220
10.150000 91.762 -142.0818
10.300000 91.716 -142.2024
10.440000 91.691 -142.2467
10.600000 91.681 -142.3472
10.750000 91.698 -142.5864
10.900000 91.733 -142.9448
11.060000 91.769 -143.5677
11.200000 91.805 -144.3198
11.380000 91.825 -145.4803
11.500000 91.818 -146.3952
11.720000 91.759 -148.1841
11.800000 91.717 -148.8237
12.060000 91.523 -150.8266
12.200000 91.386 -151.6639
12.410000 91.148 -152.5990
12.500000 91.050 -152.8214
12.650000 90.881 -152.9462
12.800000 90.734 -152.8582
13.150000 90.547 -151.9748
13.200000 90.540 -151.8570
13.400000 90.573 -151.3853
13.600000 90.659 -151.2277
13.800000 90.792 -151.5188
14.000000 90.913 -152.2359
14.300000 91.043 -154.0164
14.500000 91.061 -155.4299
14.750000 91.015 -157.0708
15.000000 90.902 -158.3814
15.250000 90.772 -159.0967
15.500000 90.676 -159.3161
15.750000 90.643 -159.1629
16.000000 90.700 -158.9616
16.250000 90.819 -159.0289
16.500000 90.975 -159.4731
16.750000 91.123 -160.3748
17.000000 91.231 -161.5424
17.250000 91.293 -162.8336
17.500000 91.306 -164.0579
17.750000 91.289 -165.0666
18.000000 91.259 -165.8578
18.250000 91.234 -166.4368
18.500000 91.225 -166.9252
18.750000 91.227 -167.3889
19.000000 91.236 -167.8878
19.250000 91.238 -168.4295
19.500000 91.228 -168.9592
19.750000 91.205 -169.4353
20.000000 91.173 -169.7883
20.299999 91.139 -170.0565
20.600000 91.121 -170.2046
20.900000 91.127 -170.3317
21.200001 91.151 -170.5528
21.400000 91.168 -170.7870
21.799999 91.190 -171.4383
22.000000 91.188 -171.8213
22.400000 91.150 -172.5851
22.700001 91.099 -173.0623
23.000000 91.040 -173.4018
23.299999 90.986 -173.6133
23.600000 90.945 -173.7417
24.000000 90.917 -173.8878
24.299999 90.911 -174.0586
24.700001 90.912 -174.4158
25.000000 90.906 -174.7546
25.400000 90.887 -175.2104
25.799999 90.862 -175.5662
26.200001 90.852 -175.8059
26.500000 90.864 -175.9698
26.900000 90.905 -176.2758
27.200001 90.947 -176.6295
27.600000 90.999 -177.2822
28.000000 91.035 -178.0862
28.500000 91.043 -179.1775
29.000000 91.007 179.7742
29.500000 90.928 178.9312
30.000000 90.824 178.4944
30.400000 90.755 178.4767
30.700001 90.728 178.5908
31.100000 90.730 178.7361
31.500000 90.761 178.7122
32.000000 90.799 178.3697
32.500000 90.803 177.8521
33.000000 90.775 177.3896
33.500000 90.740 177.0236
34.000000 90.707 176.6705
34.500000 90.669 176.3004
35.000000 90.625 175.9574
35.500000 90.585 175.6467
36.000000 90.549 175.3134
36.500000 90.510 174.9496
37.000000 90.466 174.6307
37.500000 90.431 174.3939
38.200001 90.411 174.0318
38.700001 90.398 173.6496
39.500000 90.346 173.1019
40.000000 90.317 172.9508
40.599998 90.315 172.7993
41.200001 90.323 172.4435
41.799999 90.300 171.9957
42.500000 90.248 171.7046
43.099998 90.230 171.6019
43.700001 90.237 171.3371
44.400002 90.226 170.7490
45.000000 90.180 170.2230
45.500000 90.131 169.8907
46.200001 90.070 169.5714
46.799999 90.036 169.3467
47.500000 90.018 169.0467
48.200001 90.012 168.6642
48.700001 90.009 168.3469
49.400002 90.003 167.8584
50.000000 89.989 167.4173
50.799999 89.953 166.8936
51.500000 89.915 166.5691
52.200001 89.881 166.3179
53.000000 89.838 166.0722
53.799999 89.790 165.9521
54.500000 89.761 165.9553
55.200001 89.753 165.9488
56.000000 89.757 165.7519
57.000000 89.723 165.2519
58.000000 89.644 164.9970
59.000000 89.596 164.8266
60.000000 89.534 164.4513
60.799999 89.469 164.1919
61.500000 89.412 163.9567
62.200001 89.347 163.7451
63.000000 89.285 163.6063
64.000000 89.246 163.2994
65.000000 89.190 162.7812
66.000000 89.117 162.4471
67.000000 89.065 162.2767
68.000000 89.029 162.1313
69.000000 89.001 161.9956
70.000000 88.976 161.8017
71.000000 88.933 161.5488
72.000000 88.877 161.3714
73.000000 88.828 161.2389
74.000000 88.787 161.0631
75.000000 88.748 160.8182
76.199997 88.694 160.4351
77.500000 88.623 160.0058
78.800003 88.541 159.6626
80.000000 88.480 159.4245
81.199997 88.430 159.1186
82.500000 88.371 158.7478
83.800003 88.300 158.4507
85.000000 88.238 158.3757
86.199997 88.210 158.3727
87.500000 88.182 158.1498
88.500000 88.134 157.9994
90.000000 88.071 157.8342
91.199997 88.010 157.5344
92.500000 87.920 157.2237
93.800003 87.834 156.9287
95.000000 87.739 156.6293
96.199997 87.633 156.6536
97.500000 87.580 156.9592
98.800003 87.572 157.0415
100.000000 87.551 156.9999
101.500000 87.514 156.9661
103.000000 87.463 156.8419
104.400002 87.391 156.7563
106.000000 87.314 156.7556
107.500000 87.248 156.7500
109.000000 87.196 156.7237
110.599998 87.144 156.5847
112.000000 87.097 156.4464
113.800003 87.028 156.2290
115.000000 86.970 156.1417
117.199997 86.858 156.1397
118.000000 86.816 156.1542
120.599998 86.688 156.3321
122.000000 86.650 156.4149
124.099998 86.607 156.3687
125.000000 86.582 156.3422
126.500000 86.527 156.3798
128.000000 86.468 156.4769
131.500000 86.309 156.3853
132.000000 86.286 156.3520
134.000000 86.214 156.2417
136.000000 86.180 156.1352
138.000000 86.141 156.0925
140.000000 86.082 156.2041
143.000000 85.971 156.3981
145.000000 85.907 156.4658
147.500000 85.833 156.4690
150.000000 85.750 156.6584
152.500000 85.677 156.8817
155.000000 85.593 157.0077
157.500000 85.512 157.2288
160.000000 85.446 157.5069
162.500000 85.389 157.7299
165.000000 85.332 157.8087
167.500000 85.274 157.8897
170.000000 85.219 157.9849
172.500000 85.152 158.0417
175.000000 85.072 158.0834
177.500000 84.990 158.2237
180.000000 84.920 158.4127
182.500000 84.857 158.6625
185.000000 84.794 158.8505
187.500000 84.724 159.1435
190.000000 84.672 159.3874
192.500000 84.602 159.6015
195.000000 84.570 159.8351
197.500000 84.540 159.6943
200.000000 84.447 159.8807
203.000000 84.415 160.6705
206.000000 84.430 160.5661
209.000000 84.308 160.1115
212.000000 84.122 160.5433
214.000000 84.039 161.2033
218.000000 83.993 162.3288
220.000000 83.994 162.6393
224.000000 83.955 162.9327
227.000000 83.879 163.0541
230.000000 83.798 163.1361
233.000000 83.735 163.1434
236.000000 83.706 163.1382
240.000000 83.679 163.4136
243.000000 83.639 163.8536
247.000000 83.575 164.2512
250.000000 83.530 164.4860
254.000000 83.465 164.9786
258.000000 83.393 165.4084
262.000000 83.340 165.7788
265.000000 83.304 166.1520
269.000000 83.240 166.6226
272.000000 83.201 166.8554
276.000000 83.159 167.1609
280.000000 83.106 167.5578
285.000000 83.034 168.1391
290.000000 82.975 168.7512
295.000000 82.922 169.2499
300.000000 82.857 169.7249
304.000000 82.811 170.1756
307.000000 82.787 170.4828
311.000000 82.763 170.8894
315.000000 82.743 171.3432
320.000000 82.707 171.8256
325.000000 82.659 172.3131
330.000000 82.601 172.8852
335.000000 82.555 173.4890
340.000000 82.516 174.0556
345.000000 82.471 174.5692
350.000000 82.432 175.0861
355.000000 82.397 175.6110
360.000000 82.359 176.1483
365.000000 82.320 176.6752
370.000000 82.284 177.1818
375.000000 82.247 177.7153
382.000000 82.188 178.4991
387.000000 82.148 179.0327
395.000000 82.094 179.8843
400.000000 82.066 -179.5961
406.000000 82.038 -179.0103
412.000000 82.011 -178.4037
418.000000 81.983 -177.7274
425.000000 81.948 -176.9170
431.000000 81.914 -176.2648
437.000000 81.885 -175.6345
444.000000 81.859 -174.9263
450.000000 81.837 -174.3206
455.000000 81.816 -173.8042
462.000000 81.786 -173.0534
468.000000 81.760 -172.4098
475.000000 81.731 -171.6893
482.000000 81.710 -170.9773
487.000000 81.701 -170.4964
494.000000 81.694 -169.7911
500.000000 81.682 -169.0868
508.000000 81.655 -168.1673
515.000000 81.633 -167.4362
522.000000 81.615 -166.6964
530.000000 81.602 -165.8215
538.000000 81.594 -164.9860
545.000000 81.592 -164.3144
552.000000 81.590 -163.6364
560.000000 81.587 -162.8496
570.000000 81.582 -161.8871
580.000000 81.589 -160.8503
590.000000 81.601 -159.7900
600.000000 81.605 -158.7983
608.000000 81.607 -158.0045
615.000000 81.612 -157.2903
622.000000 81.618 -156.5763
630.000000 81.620 -155.7706
640.000000 81.625 -154.7721
650.000000 81.634 -153.7369
660.000000 81.642 -152.7222
670.000000 81.642 -151.7164
680.000000 81.642 -150.6900
690.000000 81.654 -149.6462
700.000000 81.677 -148.6284
710.000000 81.701 -147.6158
720.000000 81.719 -146.5607
730.000000 81.734 -145.4294
740.000000 81.759 -144.2078
750.000000 81.810 -142.9743
762.000000 81.901 -141.6958
775.000000 81.986 -140.5815
788.000000 82.037 -139.4713
800.000000 82.079 -138.3634
812.000000 82.130 -137.1678
825.000000 82.194 -135.7434
838.000000 82.272 -134.2585
850.000000 82.363 -132.9348
862.000000 82.471 -131.7492
875.000000 82.591 -130.6389
885.000000 82.680 -129.8504
900.000000 82.806 -128.7238
912.000000 82.899 -127.8583
925.000000 82.998 -126.8780
938.000000 83.097 -125.8615
950.000000 83.188 -124.9660
962.000000 83.279 -124.0986
975.000000 83.378 -123.1302
988.000000 83.477 -122.1714
1000.000000 83.570 -121.3336
1015.000000 83.696 -120.3031
1030.000000 83.828 -119.3090
1044.000000 83.953 -118.4201
1060.000000 84.094 -117.4045
1075.000000 84.219 -116.4822
1090.000000 84.350 -115.5920
1106.000000 84.503 -114.6727
1120.000000 84.645 -113.9094
1138.000000 84.830 -112.9508
1150.000000 84.951 -112.3089
1172.000000 85.170 -111.1583
1180.000000 85.250 -110.7597
1206.000000 85.503 -109.4900
1220.000000 85.636 -108.8059
1241.000000 85.835 -107.7828
1250.000000 85.922 -107.3529
1265.000000 86.067 -106.6551
1280.000000 86.215 -105.9674
1315.000000 86.567 -104.4004
1320.000000 86.616 -104.1755
1340.000000 86.803 -103.2624
1360.000000 86.970 -102.3665
1380.000000 87.140 -101.4931
1400.000000 87.329 -100.6291
1430.000000 87.631 -99.3579
1450.000000 87.838 -98.5280
1475.000000 88.105 -97.4976
1500.000000 88.383 -96.5246
1525.000000 88.661 -95.5835
1550.000000 88.935 -94.6677
1575.000000 89.217 -93.7865
1600.000000 89.515 -92.9697
1625.000000 89.826 -92.2056
1650.000000 90.149 -91.5224
1675.000000 90.469 -90.9151
1700.000000 90.784 -90.3207
1725.000000 91.112 -89.8387
1750.000000 91.461 -89.4909
1775.000000 91.816 -89.2436
1800.000000 92.172 -89.0951
1825.000000 92.532 -89.0833
1850.000000 92.894 -89.2185
1875.000000 93.254 -89.4915
1900.000000 93.611 -89.9316
1925.000000 93.965 -90.5389
1950.000000 94.312 -91.3249
1975.000000 94.650 -92.2851
2000.000000 94.977 -93.4069
2030.000000 95.358 -95.0080
2060.000000 95.713 -96.8529
2090.000000 96.027 -98.9179
2120.000000 96.295 -101.2193
2140.000000 96.447 -102.8711
2180.000000 96.678 -106.3807
2200.000000 96.752 -108.1789
2240.000000 96.817 -111.7422
2270.000000 96.795 -114.2793
2300.000000 96.719 -116.6140
2330.000000 96.600 -118.7247
2360.000000 96.446 -120.5683
2400.000000 96.195 -122.5620
2430.000000 95.983 -123.7136
2470.000000 95.691 -124.8186
2500.000000 95.478 -125.3655
2540.000000 95.207 -125.7579
2580.000000 94.947 -125.8191
2620.000000 94.704 -125.6092
2650.000000 94.535 -125.3013
2690.000000 94.327 -124.6964
2720.000000 94.181 -124.1082
2760.000000 94.007 -123.1873
2800.000000 93.859 -122.1348
2850.000000 93.709 -120.6745
2900.000000 93.595 -119.0857
2950.000000 93.518 -117.4261
3000.000000 93.479 -115.7413
3040.000000 93.470 -114.3997
3070.000000 93.477 -113.4165
3110.000000 93.505 -112.1494
3150.000000 93.546 -110.9339
3200.000000 93.607 -109.4696
3250.000000 93.675 -108.0752
3300.000000 93.750 -106.7581
3350.000000 93.821 -105.4748
3400.000000 93.880 -104.0732
3450.000000 93.944 -102.3902
3500.000000 94.057 -100.4143
3550.000000 94.247 -98.3214
3600.000000 94.516 -96.3533
3650.000000 94.846 -94.6728
3700.000000 95.219 -93.3457
3750.000000 95.617 -92.3844
3820.000000 96.207 -91.6663
3870.000000 96.644 -91.6367
3950.000000 97.348 -92.5174
4000.000000 97.772 -93.7280
4060.000000 98.233 -95.9221
4120.000000 98.610 -98.9574
4180.000000 98.861 -102.7279
4250.000000 98.941 -107.6461
4310.000000 98.798 -111.7990
4370.000000 98.462 -115.3905
4440.000000 97.885 -118.4071
4500.000000 97.308 -119.7937
4550.000000 96.824 -120.1151
4620.000000 96.203 -119.4524
4680.000000 95.754 -118.0825
4750.000000 95.352 -115.9445
4820.000000 95.094 -113.6835
4870.000000 94.987 -112.2209
4940.000000 94.910 -110.5920
5000.000000 94.871 -109.6749
5080.000000 94.802 -109.1371
5150.000000 94.678 -109.1477
5220.000000 94.463 -109.3119
5300.000000 94.105 -109.2528
5380.000000 93.671 -108.5509
5450.000000 93.277 -107.2920
5520.000000 92.906 -105.5329
5600.000000 92.531 -103.1682
5700.000000 92.116 -99.9006
5800.000000 91.751 -96.1662
5900.000000 91.461 -92.0936
6000.000000 91.236 -87.9233
6080.000000 91.099 -84.5483
6150.000000 91.012 -81.5582
6220.000000 90.950 -78.5273
6300.000000 90.905 -75.0070
6400.000000 90.886 -70.5272
6500.000000 90.923 -65.9898
6600.000000 91.031 -61.4395
6700.000000 91.211 -56.9261
6800.000000 91.467 -52.5056
6900.000000 91.820 -48.2446
7000.000000 92.273 -44.2081
7100.000000 92.816 -40.4788
7200.000000 93.443 -37.1607
7300.000000 94.152 -34.3694
7400.000000 94.946 -32.2513
7500.000000 95.832 -31.0317
7620.000000 97.021 -31.2629
7750.000000 98.345 -34.5646
7880.000000 99.358 -41.9323
8000.000000 99.733 -51.8419
8120.000000 99.405 -62.3680
8250.000000 98.341 -71.2525
8380.000000 96.857 -75.9493
8500.000000 95.401 -76.8995
8620.000000 94.021 -75.4747
8750.000000 92.685 -72.1400
8850.000000 91.780 -68.7281
9000.000000 90.612 -62.7109
9120.000000 89.832 -57.3794
9250.000000 89.130 -51.2805
9380.000000 88.566 -45.0186
9500.000000 88.155 -39.2099
9620.000000 87.834 -33.4446
9750.000000 87.578 -27.2961
9880.000000 87.413 -21.2603
10000.000000 87.336 -15.7950
10150.000000 87.338 -9.1462
10300.000000 87.451 -2.8166
10440.000000 87.669 2.6107
10600.000000 88.048 7.9752
10750.000000 88.505 11.9029
10900.000000 89.018 14.4818
11060.000000 89.550 15.5115
11200.000000 89.924 14.9118
11380.000000 90.164 12.4118
11500.000000 90.133 10.0753
11720.000000 89.678 5.7351
11800.000000 89.414 4.4167
12060.000000 88.435 0.8083
12200.000000 87.881 -1.7045
12410.000000 86.907 -8.0078
12500.000000 86.376 -12.1508
12650.000000 85.207 -21.7309
12800.000000 83.497 -35.4644
13150.000000 76.564 -95.3483
13200.000000 75.395 -108.1623
13400.000000 73.278 -159.5228
13600.000000 75.610 168.9162
13800.000000 78.259 157.3827
14000.000000 80.572 153.7534
14300.000000 83.678 148.4276
14500.000000 85.234 139.9501
14750.000000 85.874 123.7652
15000.000000 84.818 110.1412
15250.000000 82.790 106.4232
15500.000000 80.970 110.6248
15750.000000 79.945 117.2632
16000.000000 79.544 123.7590
16250.000000 79.750 128.2211
16500.000000 80.347 126.6744
16750.000000 80.462 116.0192
17000.000000 79.132 101.5484
17250.000000 76.225 94.2211
17500.000000 72.451 97.5621
17750.000000 68.639 108.6415
18000.000000 65.212 125.1535
18250.000000 62.405 147.4002
18500.000000 61.348 174.6149
18750.000000 62.757 -164.3419
19000.000000 63.750 -158.1157
19250.000000 63.283 -153.5103
19500.000000 62.269 -142.8687
19750.000000 61.423 -129.9714
20000.000000 60.798 -118.6666
20300.000000 60.092 -111.3173
20600.000000 58.938 -128.6236
20900.000000 56.643 30.1011
21200.000000 52.903 -41.5491
21400.000000 49.692 72.0862
21800.000000 42.422 28.2734
22000.000000 39.060 -100.6738
22400.000000 34.361 -19.6758
22700.000000 32.702 -41.6406
23000.000000 32.058 -47.7812
23300.000000 31.818 154.1406
23600.000000 31.809 103.4219
24000.000000 31.785 -24.6562
