* Measurement data measured by REW V5.20.13
* Format: Comma/Tab/Space delimited data
* Dated: Aug 16, 2023 10:59:39 AM
* REW Settings:
*  C-weighting compensation: Off
*  Target level: 75.0 dB
* Note: 480 values loaded, 20 Hz to 20,186 Hz log spaced
* Measurement: Neutral Target
* Smoothing: 1/24 octave
* Frequency Step: 1/48 octave
* Start Frequency: 20.000 Hz
*
* Freq(Hz) SPL(dB)
20.000000 7.160
20.299999 7.145
20.600000 7.129
20.900000 7.120
21.200001 7.110
21.400000 7.103
21.799999 7.087
22.000000 7.079
22.400000 7.057
22.700001 7.034
23.000000 7.017
23.299999 7.006
23.600000 6.996
24.000000 6.981
24.299999 6.968
24.700001 6.948
25.000000 6.930
25.400000 6.902
25.799999 6.882
26.200001 6.867
26.500000 6.856
26.900000 6.839
27.200001 6.826
27.600000 6.807
28.000000 6.783
28.500000 6.749
29.000000 6.726
29.500000 6.706
30.000000 6.685
30.400000 6.666
30.700001 6.651
31.100000 6.628
31.500000 6.601
32.000000 6.573
32.500000 6.551
33.000000 6.530
33.500000 6.507
34.000000 6.482
34.500000 6.455
35.000000 6.426
35.500000 6.397
36.000000 6.371
36.500000 6.349
37.000000 6.326
37.500000 6.301
38.200001 6.260
38.700001 6.230
39.500000 6.189
40.000000 6.167
40.599998 6.140
41.200001 6.112
41.799999 6.080
42.500000 6.034
43.099998 6.001
43.700001 5.974
44.400002 5.944
45.000000 5.917
45.500000 5.893
46.200001 5.856
46.799999 5.818
47.500000 5.780
48.200001 5.750
48.700001 5.729
49.400002 5.697
50.000000 5.667
50.799999 5.622
51.500000 5.585
52.200001 5.553
53.000000 5.519
53.799999 5.484
54.500000 5.451
55.200001 5.413
56.000000 5.372
57.000000 5.328
58.000000 5.288
59.000000 5.244
60.000000 5.191
60.799999 5.150
61.500000 5.123
62.200001 5.097
63.000000 5.065
64.000000 5.019
65.000000 4.973
66.000000 4.932
67.000000 4.894
68.000000 4.855
69.000000 4.811
70.000000 4.767
71.000000 4.730
72.000000 4.695
73.000000 4.657
74.000000 4.613
75.000000 4.572
76.199997 4.531
77.500000 4.485
78.800003 4.434
80.000000 4.394
81.199997 4.355
82.500000 4.308
83.800003 4.260
85.000000 4.224
86.199997 4.185
87.500000 4.135
88.500000 4.101
90.000000 4.057
91.199997 4.019
92.500000 3.980
93.800003 3.942
95.000000 3.903
96.199997 3.867
97.500000 3.829
98.800003 3.790
100.000000 3.755
101.500000 3.712
103.000000 3.669
104.400002 3.629
106.000000 3.583
107.500000 3.540
109.000000 3.499
110.599998 3.457
112.000000 3.419
113.800003 3.372
115.000000 3.340
117.199997 3.281
118.000000 3.261
120.599998 3.195
122.000000 3.160
124.099998 3.109
125.000000 3.087
126.500000 3.052
128.000000 3.016
131.500000 2.931
132.000000 2.920
134.000000 2.876
136.000000 2.833
138.000000 2.791
140.000000 2.749
143.000000 2.687
145.000000 2.647
147.500000 2.600
150.000000 2.555
152.500000 2.511
155.000000 2.467
157.500000 2.424
160.000000 2.384
162.500000 2.344
165.000000 2.306
167.500000 2.273
170.000000 2.237
172.500000 2.197
175.000000 2.162
177.500000 2.130
180.000000 2.099
182.500000 2.069
185.000000 2.039
187.500000 2.009
190.000000 1.981
192.500000 1.953
195.000000 1.925
197.500000 1.899
200.000000 1.874
203.000000 1.844
206.000000 1.813
209.000000 1.783
212.000000 1.757
214.000000 1.739
218.000000 1.703
220.000000 1.686
224.000000 1.654
227.000000 1.629
230.000000 1.604
233.000000 1.583
236.000000 1.562
240.000000 1.534
243.000000 1.512
247.000000 1.482
250.000000 1.461
254.000000 1.435
258.000000 1.410
262.000000 1.385
265.000000 1.367
269.000000 1.342
272.000000 1.325
276.000000 1.302
280.000000 1.280
285.000000 1.253
290.000000 1.226
295.000000 1.201
300.000000 1.176
304.000000 1.157
307.000000 1.142
311.000000 1.124
315.000000 1.108
320.000000 1.086
325.000000 1.063
330.000000 1.042
335.000000 1.021
340.000000 1.002
345.000000 0.984
350.000000 0.964
355.000000 0.945
360.000000 0.927
365.000000 0.910
370.000000 0.893
375.000000 0.874
382.000000 0.851
387.000000 0.835
395.000000 0.811
400.000000 0.796
406.000000 0.777
412.000000 0.759
418.000000 0.742
425.000000 0.723
431.000000 0.707
437.000000 0.691
444.000000 0.673
450.000000 0.658
455.000000 0.644
462.000000 0.626
468.000000 0.612
475.000000 0.595
482.000000 0.579
487.000000 0.569
494.000000 0.558
500.000000 0.545
508.000000 0.520
515.000000 0.506
522.000000 0.495
530.000000 0.482
538.000000 0.459
545.000000 0.446
552.000000 0.435
560.000000 0.421
570.000000 0.402
580.000000 0.385
590.000000 0.370
600.000000 0.353
608.000000 0.336
615.000000 0.324
622.000000 0.315
630.000000 0.307
640.000000 0.292
650.000000 0.270
660.000000 0.257
670.000000 0.248
680.000000 0.234
690.000000 0.218
700.000000 0.206
710.000000 0.191
720.000000 0.180
730.000000 0.167
740.000000 0.154
750.000000 0.146
762.000000 0.127
775.000000 0.116
788.000000 0.102
800.000000 0.091
812.000000 0.079
825.000000 0.067
838.000000 0.053
850.000000 0.040
862.000000 0.031
875.000000 0.022
885.000000 0.015
900.000000 0.009
912.000000 0.001
925.000000 -0.012
938.000000 -0.017
950.000000 -0.017
962.000000 -0.016
975.000000 -0.015
988.000000 -0.010
1000.000000 0.010
1015.000000 0.066
1030.000000 0.126
1044.000000 0.185
1060.000000 0.261
1075.000000 0.336
1090.000000 0.424
1106.000000 0.531
1120.000000 0.629
1138.000000 0.757
1150.000000 0.842
1172.000000 0.997
1180.000000 1.052
1206.000000 1.230
1220.000000 1.322
1241.000000 1.457
1250.000000 1.514
1265.000000 1.607
1280.000000 1.696
1315.000000 1.891
1320.000000 1.917
1340.000000 2.019
1360.000000 2.120
1380.000000 2.217
1400.000000 2.315
1430.000000 2.463
1450.000000 2.549
1475.000000 2.653
1500.000000 2.763
1525.000000 2.875
1550.000000 2.987
1575.000000 3.098
1600.000000 3.212
1625.000000 3.331
1650.000000 3.454
1675.000000 3.579
1700.000000 3.709
1725.000000 3.841
1750.000000 3.970
1775.000000 4.092
1800.000000 4.222
1825.000000 4.370
1850.000000 4.524
1875.000000 4.674
1900.000000 4.822
1925.000000 4.970
1950.000000 5.118
1975.000000 5.267
2000.000000 5.414
2030.000000 5.586
2060.000000 5.752
2090.000000 5.915
2120.000000 6.081
2140.000000 6.194
2180.000000 6.415
2200.000000 6.511
2240.000000 6.690
2270.000000 6.831
2300.000000 6.974
2330.000000 7.112
2360.000000 7.244
2400.000000 7.405
2430.000000 7.515
2470.000000 7.651
2500.000000 7.747
2540.000000 7.868
2580.000000 7.983
2620.000000 8.087
2650.000000 8.153
2690.000000 8.228
2720.000000 8.276
2760.000000 8.332
2800.000000 8.377
2850.000000 8.420
2900.000000 8.449
2950.000000 8.464
3000.000000 8.464
3040.000000 8.451
3070.000000 8.438
3110.000000 8.416
3150.000000 8.388
3200.000000 8.344
3250.000000 8.288
3300.000000 8.228
3350.000000 8.171
3400.000000 8.112
3450.000000 8.039
3500.000000 7.965
3550.000000 7.897
3600.000000 7.819
3650.000000 7.731
3700.000000 7.639
3750.000000 7.547
3820.000000 7.417
3870.000000 7.323
3950.000000 7.171
4000.000000 7.076
4060.000000 6.961
4120.000000 6.848
4180.000000 6.736
4250.000000 6.609
4310.000000 6.500
4370.000000 6.391
4440.000000 6.269
4500.000000 6.166
4550.000000 6.082
4620.000000 5.971
4680.000000 5.879
4750.000000 5.776
4820.000000 5.675
4870.000000 5.607
4940.000000 5.517
5000.000000 5.442
5080.000000 5.347
5150.000000 5.262
5220.000000 5.169
5300.000000 5.063
5380.000000 4.984
5450.000000 4.929
5520.000000 4.863
5600.000000 4.773
5700.000000 4.671
5800.000000 4.578
5900.000000 4.469
6000.000000 4.354
6080.000000 4.262
6150.000000 4.183
6220.000000 4.105
6300.000000 4.018
6400.000000 3.912
6500.000000 3.808
6600.000000 3.707
6700.000000 3.607
6800.000000 3.509
6900.000000 3.413
7000.000000 3.322
7100.000000 3.232
7200.000000 3.142
7300.000000 3.053
7400.000000 2.967
7500.000000 2.882
7620.000000 2.783
7750.000000 2.680
7880.000000 2.581
8000.000000 2.492
8120.000000 2.402
8250.000000 2.305
8380.000000 2.209
8500.000000 2.123
8620.000000 2.036
8750.000000 1.944
8850.000000 1.875
9000.000000 1.771
9120.000000 1.685
9250.000000 1.593
9380.000000 1.501
9500.000000 1.417
9620.000000 1.330
9750.000000 1.233
9880.000000 1.134
10000.000000 1.045
10150.000000 0.935
10300.000000 0.817
10440.000000 0.690
10600.000000 0.541
10750.000000 0.413
10900.000000 0.290
11060.000000 0.167
11200.000000 0.059
11380.000000 -0.077
11500.000000 -0.162
11720.000000 -0.322
11800.000000 -0.381
12060.000000 -0.580
12200.000000 -0.688
12410.000000 -0.848
12500.000000 -0.916
12650.000000 -1.029
12800.000000 -1.141
13150.000000 -1.398
13200.000000 -1.434
13400.000000 -1.578
13600.000000 -1.719
13800.000000 -1.860
14000.000000 -2.003
14300.000000 -2.212
14500.000000 -2.349
14750.000000 -2.515
15000.000000 -2.676
15250.000000 -2.837
15500.000000 -2.998
15750.000000 -3.156
16000.000000 -3.310
16250.000000 -3.462
16500.000000 -3.611
16750.000000 -3.757
17000.000000 -3.901
17250.000000 -4.043
17500.000000 -4.182
17750.000000 -4.319
18000.000000 -4.454
18250.000000 -4.587
18500.000000 -4.718
18750.000000 -4.847
19000.000000 -4.973
19250.000000 -5.098
19500.000000 -5.219
19750.000000 -5.328
20000.000000 -5.398
