* Measurement data measured by REW V5.20.13
* Source: Headset (DS by VECLAN.COM), MICROPHONE (Master Volume), L, volume: 0.720. Timing signal peak level -25.9 dBFS, measurement signal peak level -14.9 dBFS
* Format: 2M Log Swept Sine, 1 sweep at -12.0 dBFS using an acoustic timing reference
* Dated: Jan 12, 2024 8:19:06 PM
* REW Settings:
*  C-weighting compensation: Off
*  Target level: 75.0 dB
* Note: ; Delay -0.0624 ms (-21 mm, -0.84 in) using estimated IR delay relative to Acoustic reference played from HEADPHONE L with no timing offset
* Measurement: Nightkar Singularity L
* Smoothing: 1/24 octave
* Frequency Step: 1/48 octave
* Start Frequency: 1.000 Hz
*
* Freq(Hz) SPL(dB) Phase(degrees)
1.000000 87.860 -87.6889
1.015000 88.492 -88.7825
1.030000 89.096 -89.8380
1.044000 89.629 -90.7848
1.060000 90.197 -91.8165
1.075000 90.683 -92.7304
1.090000 91.119 -93.5878
1.106000 91.528 -94.4369
1.120000 91.859 -95.1327
1.138000 92.258 -95.9693
1.150000 92.508 -96.4930
1.172000 92.934 -97.3877
1.180000 93.079 -97.6936
1.206000 93.518 -98.6229
1.220000 93.735 -99.0861
1.241000 94.038 -99.7385
1.250000 94.160 -100.0042
1.265000 94.354 -100.4308
1.280000 94.537 -100.8397
1.315000 94.927 -101.7408
1.320000 94.979 -101.8651
1.340000 95.180 -102.3553
1.360000 95.372 -102.8395
1.380000 95.557 -103.3247
1.400000 95.737 -103.8177
1.430000 96.004 -104.5867
1.450000 96.184 -105.1291
1.475000 96.412 -105.8471
1.500000 96.622 -106.5698
1.525000 96.810 -107.2861
1.550000 96.977 -107.9957
1.575000 97.126 -108.6981
1.600000 97.259 -109.3929
1.625000 97.378 -110.0798
1.650000 97.487 -110.7583
1.675000 97.587 -111.4281
1.700000 97.680 -112.0887
1.725000 97.769 -112.7398
1.750000 97.856 -113.3811
1.775000 97.943 -114.0119
1.800000 98.033 -114.6321
1.825000 98.128 -115.2413
1.850000 98.227 -115.8372
1.875000 98.319 -116.4164
1.900000 98.407 -116.9805
1.925000 98.490 -117.5313
1.950000 98.569 -118.0704
1.975000 98.645 -118.5996
2.000000 98.717 -119.1208
2.030000 98.801 -119.7378
2.060000 98.883 -120.3486
2.090000 98.963 -120.9563
2.120000 99.043 -121.5638
2.140000 99.096 -121.9701
2.180000 99.205 -122.7902
2.200000 99.260 -123.2057
2.240000 99.373 -124.0392
2.270000 99.457 -124.6633
2.300000 99.540 -125.2862
2.330000 99.623 -125.9076
2.360000 99.705 -126.5272
2.400000 99.811 -127.3502
2.430000 99.889 -127.9646
2.470000 99.990 -128.7797
2.500000 100.063 -129.3875
2.540000 100.155 -130.1928
2.580000 100.243 -130.9922
2.620000 100.325 -131.7904
2.650000 100.384 -132.3880
2.690000 100.458 -133.1818
2.720000 100.512 -133.7739
2.760000 100.580 -134.5574
2.800000 100.645 -135.3325
2.850000 100.723 -136.2865
2.900000 100.797 -137.2206
2.950000 100.869 -138.1311
3.000000 100.936 -139.0193
3.040000 100.987 -139.7156
3.070000 101.023 -140.2305
3.110000 101.069 -140.9081
3.150000 101.113 -141.5770
3.200000 101.165 -142.4027
3.250000 101.213 -143.2193
3.300000 101.259 -144.0294
3.350000 101.302 -144.8355
3.400000 101.341 -145.6359
3.450000 101.377 -146.4270
3.500000 101.409 -147.2055
3.550000 101.440 -147.9678
3.600000 101.468 -148.7104
3.650000 101.494 -149.4299
3.700000 101.518 -150.1236
3.750000 101.539 -150.7929
3.820000 101.564 -151.6951
3.870000 101.580 -152.3191
3.950000 101.602 -153.2906
4.000000 101.615 -153.8860
4.060000 101.631 -154.5922
4.120000 101.644 -155.2840
4.180000 101.657 -155.9597
4.250000 101.669 -156.7274
4.310000 101.679 -157.3672
4.370000 101.688 -157.9898
4.440000 101.698 -158.6918
4.500000 101.705 -159.2694
4.550000 101.711 -159.7367
4.620000 101.718 -160.3744
4.680000 101.724 -160.9106
4.750000 101.731 -161.5302
4.820000 101.738 -162.1438
4.870000 101.744 -162.5746
4.940000 101.751 -163.1681
5.000000 101.757 -163.6691
5.080000 101.765 -164.3284
5.150000 101.771 -164.8985
5.220000 101.777 -165.4595
5.300000 101.783 -166.0903
5.380000 101.788 -166.7126
5.450000 101.792 -167.2526
5.520000 101.796 -167.7899
5.600000 101.798 -168.3995
5.700000 101.800 -169.1533
5.800000 101.801 -169.8970
5.900000 101.798 -170.6300
6.000000 101.793 -171.3553
6.080000 101.787 -171.9274
6.150000 101.781 -172.4198
6.220000 101.774 -172.9026
6.300000 101.763 -173.4435
6.400000 101.748 -174.1058
6.500000 101.730 -174.7486
6.600000 101.712 -175.3679
6.700000 101.691 -175.9639
6.800000 101.668 -176.5379
6.900000 101.645 -177.0880
7.000000 101.622 -177.6125
7.100000 101.598 -178.1094
7.200000 101.575 -178.5830
7.300000 101.553 -179.0384
7.400000 101.532 -179.4766
7.500000 101.512 -179.8936
7.620000 101.490 179.6236
7.750000 101.468 179.1111
7.880000 101.450 178.6169
8.000000 101.435 178.1663
8.120000 101.421 177.7103
8.250000 101.407 177.2152
8.380000 101.394 176.7168
8.500000 101.380 176.2494
8.620000 101.365 175.7749
8.750000 101.347 175.2618
8.850000 101.330 174.8714
9.000000 101.301 174.2856
9.120000 101.275 173.8316
9.250000 101.245 173.3644
9.380000 101.211 172.9170
9.500000 101.178 172.5302
9.620000 101.142 172.1743
9.750000 101.100 171.8197
9.880000 101.053 171.4939
10.000000 101.006 171.2210
10.150000 100.941 170.9139
10.300000 100.876 170.6268
10.440000 100.814 170.3842
10.600000 100.744 170.1085
10.750000 100.687 169.8322
10.900000 100.633 169.5419
11.060000 100.578 169.1894
11.200000 100.533 168.8437
11.380000 100.471 168.3718
11.500000 100.426 168.0377
11.720000 100.337 167.4168
11.800000 100.303 167.1982
12.060000 100.182 166.5146
12.200000 100.115 166.1901
12.410000 100.013 165.7595
12.500000 99.970 165.6022
12.650000 99.899 165.3788
12.800000 99.831 165.1874
13.150000 99.694 164.8354
13.200000 99.677 164.7860
13.400000 99.617 164.5913
13.600000 99.566 164.3709
13.800000 99.522 164.1117
14.000000 99.479 163.8137
14.300000 99.414 163.3025
14.500000 99.366 162.9438
14.750000 99.305 162.5022
15.000000 99.243 162.0786
15.250000 99.187 161.6731
15.500000 99.136 161.2727
15.750000 99.090 160.8687
16.000000 99.045 160.4458
16.250000 99.000 160.0025
16.500000 98.953 159.5446
16.750000 98.904 159.0862
17.000000 98.853 158.6428
17.250000 98.802 158.2165
17.500000 98.753 157.8079
17.750000 98.703 157.4060
18.000000 98.653 157.0087
18.250000 98.600 156.6133
18.500000 98.544 156.2382
18.750000 98.483 155.9027
19.000000 98.421 155.6246
19.250000 98.362 155.4202
19.500000 98.311 155.2749
19.750000 98.270 155.1746
20.000000 98.243 155.0723
20.299999 98.223 154.8936
20.600000 98.211 154.6157
20.900000 98.197 154.2294
21.200001 98.170 153.7684
21.400000 98.143 153.4555
21.799999 98.074 152.8715
22.000000 98.035 152.6185
22.400000 97.957 152.1897
22.700001 97.904 151.8991
23.000000 97.855 151.5948
23.299999 97.805 151.2631
23.600000 97.751 150.9171
24.000000 97.670 150.4778
24.299999 97.606 150.2007
24.700001 97.523 149.9160
25.000000 97.468 149.7466
25.400000 97.408 149.5317
25.799999 97.360 149.2776
26.200001 97.318 148.9563
26.500000 97.286 148.6697
26.900000 97.240 148.2361
27.200001 97.199 147.8871
27.600000 97.133 147.4235
28.000000 97.053 147.0192
28.500000 96.946 146.6740
29.000000 96.852 146.4952
29.500000 96.781 146.3559
30.000000 96.722 146.1321
30.400000 96.670 145.9022
30.700001 96.625 145.7388
31.100000 96.564 145.5723
31.500000 96.511 145.4511
32.000000 96.463 145.2616
32.500000 96.421 144.9205
33.000000 96.364 144.4517
33.500000 96.283 143.9910
34.000000 96.193 143.6393
34.500000 96.111 143.3700
35.000000 96.039 143.1050
35.500000 95.970 142.8149
36.000000 95.901 142.5269
36.500000 95.834 142.2527
37.000000 95.772 141.9650
37.500000 95.709 141.6470
38.200001 95.611 141.2162
38.700001 95.539 140.9714
39.500000 95.436 140.6385
40.000000 95.377 140.4076
40.599998 95.301 140.1155
41.200001 95.219 139.8679
41.799999 95.139 139.6839
42.500000 95.054 139.5012
43.099998 94.987 139.3329
43.700001 94.921 139.1560
44.400002 94.844 138.9482
45.000000 94.779 138.7608
45.500000 94.724 138.5938
46.200001 94.647 138.3481
46.799999 94.580 138.1253
47.500000 94.498 137.8617
48.200001 94.413 137.6522
48.700001 94.358 137.5494
49.400002 94.295 137.4016
50.000000 94.249 137.2095
50.799999 94.183 136.8885
51.500000 94.120 136.5704
52.200001 94.042 136.2214
53.000000 93.924 135.9811
53.799999 93.819 136.0186
54.500000 93.758 136.0205
55.200001 93.693 135.8726
56.000000 93.595 135.7360
57.000000 93.480 135.7007
58.000000 93.379 135.6213
59.000000 93.291 135.5031
60.000000 93.216 135.1813
60.799999 93.137 134.7853
61.500000 93.048 134.4936
62.200001 92.954 134.3524
63.000000 92.866 134.3036
64.000000 92.778 134.1802
65.000000 92.681 134.0107
66.000000 92.576 133.9476
67.000000 92.483 133.9885
68.000000 92.409 133.9635
69.000000 92.328 133.8080
70.000000 92.231 133.6679
71.000000 92.138 133.5840
72.000000 92.050 133.4633
73.000000 91.960 133.3796
74.000000 91.885 133.3422
75.000000 91.817 133.2105
76.199997 91.724 133.0767
77.500000 91.631 132.9700
78.800003 91.530 132.8564
80.000000 91.430 132.8000
81.199997 91.329 132.7992
82.500000 91.222 132.8208
83.800003 91.119 132.8419
85.000000 91.030 132.8238
86.199997 90.938 132.7815
87.500000 90.842 132.7773
88.500000 90.775 132.7741
90.000000 90.675 132.7482
91.199997 90.593 132.7377
92.500000 90.503 132.7270
93.800003 90.409 132.6902
95.000000 90.314 132.6969
96.199997 90.224 132.7656
97.500000 90.139 132.8455
98.800003 90.064 132.8958
100.000000 89.998 132.8875
101.500000 89.910 132.8426
103.000000 89.816 132.8092
104.400002 89.730 132.7885
106.000000 89.625 132.8161
107.500000 89.532 132.9498
109.000000 89.447 133.0923
110.599998 89.359 133.1758
112.000000 89.273 133.1836
113.800003 89.152 133.2131
115.000000 89.073 133.3188
117.199997 88.967 133.5582
118.000000 88.932 133.5901
120.599998 88.797 133.6418
122.000000 88.726 133.7093
124.099998 88.633 133.7745
125.000000 88.586 133.7977
126.500000 88.489 133.9363
128.000000 88.384 134.2039
131.500000 88.176 134.6042
132.000000 88.157 134.5959
134.000000 88.101 134.3608
136.000000 88.036 134.2001
138.000000 87.968 134.4749
140.000000 87.915 134.8000
143.000000 87.804 134.8927
145.000000 87.733 134.8614
147.500000 87.640 134.9710
150.000000 87.525 135.2981
152.500000 87.398 135.6910
155.000000 87.291 135.9884
157.500000 87.196 136.2283
160.000000 87.100 136.4831
162.500000 87.000 136.6868
165.000000 86.897 136.9008
167.500000 86.807 137.1466
170.000000 86.718 137.3368
172.500000 86.626 137.5405
175.000000 86.549 137.8129
177.500000 86.480 138.0630
180.000000 86.387 138.2872
182.500000 86.284 138.5709
185.000000 86.193 138.8519
187.500000 86.112 139.1476
190.000000 86.038 139.4150
192.500000 85.957 139.6082
195.000000 85.873 139.7884
197.500000 85.795 140.0193
200.000000 85.724 140.3022
203.000000 85.643 140.6274
206.000000 85.559 140.9308
209.000000 85.480 141.2270
212.000000 85.402 141.5374
214.000000 85.351 141.7618
218.000000 85.250 142.2255
220.000000 85.198 142.4532
224.000000 85.096 142.8809
227.000000 85.022 143.1773
230.000000 84.948 143.4832
233.000000 84.877 143.7679
236.000000 84.807 144.0338
240.000000 84.715 144.4430
243.000000 84.651 144.7757
247.000000 84.567 145.2163
250.000000 84.511 145.4938
254.000000 84.442 145.8538
258.000000 84.349 146.3940
262.000000 84.242 146.8934
265.000000 84.183 147.1462
269.000000 84.112 147.4299
272.000000 84.055 147.6942
276.000000 83.983 148.0911
280.000000 83.907 148.4456
285.000000 83.803 148.9743
290.000000 83.714 149.5599
295.000000 83.624 150.0556
300.000000 83.527 150.5534
304.000000 83.444 150.9713
307.000000 83.387 151.2935
311.000000 83.318 151.7225
315.000000 83.248 152.1850
320.000000 83.157 152.8474
325.000000 83.072 153.5352
330.000000 82.998 154.2025
335.000000 82.936 154.8451
340.000000 82.874 155.4210
345.000000 82.808 155.9599
350.000000 82.753 156.5756
355.000000 82.700 157.3064
360.000000 82.634 158.0138
365.000000 82.576 158.6197
370.000000 82.532 159.2554
375.000000 82.487 159.8532
382.000000 82.413 160.5818
387.000000 82.359 161.1384
395.000000 82.288 162.0721
400.000000 82.249 162.6627
406.000000 82.203 163.3682
412.000000 82.154 164.0845
418.000000 82.098 164.7450
425.000000 82.041 165.5096
431.000000 82.004 166.1921
437.000000 81.968 166.8415
444.000000 81.920 167.5561
450.000000 81.878 168.1999
455.000000 81.847 168.7691
462.000000 81.810 169.5660
468.000000 81.775 170.2053
475.000000 81.734 170.9185
482.000000 81.703 171.6589
487.000000 81.679 172.1693
494.000000 81.640 172.8651
500.000000 81.608 173.4686
508.000000 81.577 174.3074
515.000000 81.556 175.0443
522.000000 81.535 175.7849
530.000000 81.508 176.5836
538.000000 81.479 177.3984
545.000000 81.453 178.1086
552.000000 81.432 178.7769
560.000000 81.416 179.5818
570.000000 81.395 -179.3743
580.000000 81.389 -178.1989
590.000000 81.357 -176.9617
600.000000 81.247 -176.3156
608.000000 81.163 -175.6411
615.000000 81.180 -174.8296
622.000000 81.240 -174.0696
630.000000 81.284 -173.2773
640.000000 81.290 -172.3212
650.000000 81.282 -171.3107
660.000000 81.277 -170.3394
670.000000 81.280 -169.3861
680.000000 81.288 -168.3891
690.000000 81.292 -167.3812
700.000000 81.292 -166.3773
710.000000 81.305 -165.4220
720.000000 81.332 -164.4910
730.000000 81.360 -163.5510
740.000000 81.387 -162.5973
750.000000 81.419 -161.6521
762.000000 81.454 -160.5643
775.000000 81.486 -159.3718
788.000000 81.527 -158.1911
800.000000 81.573 -157.1331
812.000000 81.631 -156.1062
825.000000 81.695 -155.0049
838.000000 81.756 -153.8802
850.000000 81.813 -152.8687
862.000000 81.875 -151.9141
875.000000 81.952 -150.9099
885.000000 82.013 -150.1519
900.000000 82.106 -149.0558
912.000000 82.181 -148.2070
925.000000 82.265 -147.3062
938.000000 82.351 -146.4479
950.000000 82.432 -145.6822
962.000000 82.513 -144.9405
975.000000 82.598 -144.1708
988.000000 82.679 -143.4377
1000.000000 82.754 -142.7781
1015.000000 82.854 -142.0001
1030.000000 82.959 -141.2922
1044.000000 83.057 -140.6579
1060.000000 83.163 -139.9414
1075.000000 83.258 -139.3153
1090.000000 83.358 -138.7272
1106.000000 83.470 -138.1238
1120.000000 83.571 -137.6236
1138.000000 83.699 -137.0191
1150.000000 83.783 -136.6349
1172.000000 83.929 -135.9556
1180.000000 83.981 -135.7151
1206.000000 84.151 -134.9488
1220.000000 84.246 -134.5506
1241.000000 84.391 -133.9833
1250.000000 84.452 -133.7452
1265.000000 84.549 -133.3476
1280.000000 84.642 -132.9465
1315.000000 84.849 -132.0337
1320.000000 84.878 -131.9062
1340.000000 84.986 -131.3940
1360.000000 85.074 -130.8833
1380.000000 85.160 -130.3733
1400.000000 85.262 -129.8734
1430.000000 85.421 -129.1508
1450.000000 85.522 -128.6427
1475.000000 85.647 -128.0050
1500.000000 85.778 -127.3958
1525.000000 85.908 -126.7913
1550.000000 86.034 -126.1913
1575.000000 86.160 -125.6166
1600.000000 86.285 -125.0474
1625.000000 86.406 -124.4852
1650.000000 86.529 -123.9354
1675.000000 86.657 -123.4111
1700.000000 86.790 -122.9174
1725.000000 86.924 -122.4437
1750.000000 87.057 -121.9750
1775.000000 87.190 -121.5329
1800.000000 87.319 -121.1041
1825.000000 87.450 -120.7030
1850.000000 87.583 -120.3498
1875.000000 87.715 -120.0144
1900.000000 87.846 -119.6955
1925.000000 87.980 -119.4209
1950.000000 88.114 -119.1838
1975.000000 88.244 -118.9634
2000.000000 88.372 -118.7691
2030.000000 88.527 -118.5974
2060.000000 88.681 -118.4705
2090.000000 88.830 -118.3749
2120.000000 88.981 -118.3366
2140.000000 89.085 -118.3456
2180.000000 89.284 -118.4203
2200.000000 89.375 -118.4779
2240.000000 89.547 -118.6537
2270.000000 89.673 -118.8482
2300.000000 89.793 -119.0769
2330.000000 89.905 -119.3408
2360.000000 90.012 -119.6402
2400.000000 90.146 -120.0923
2430.000000 90.238 -120.4613
2470.000000 90.349 -120.9878
2500.000000 90.424 -121.4085
2540.000000 90.508 -121.9855
2580.000000 90.574 -122.5757
2620.000000 90.627 -123.1775
2650.000000 90.657 -123.6273
2690.000000 90.683 -124.2068
2720.000000 90.692 -124.6315
2760.000000 90.694 -125.1847
2800.000000 90.679 -125.6953
2850.000000 90.640 -126.2594
2900.000000 90.581 -126.7307
2950.000000 90.503 -127.0611
3000.000000 90.411 -127.2076
3040.000000 90.340 -127.1849
3070.000000 90.295 -127.0988
3110.000000 90.252 -126.9231
3150.000000 90.226 -126.7481
3200.000000 90.206 -126.6302
3250.000000 90.179 -126.6474
3300.000000 90.139 -126.7530
3350.000000 90.085 -126.8731
3400.000000 90.016 -126.9559
3450.000000 89.939 -126.9937
3500.000000 89.860 -126.9965
3550.000000 89.773 -126.9696
3600.000000 89.673 -126.9336
3650.000000 89.556 -126.9070
3700.000000 89.398 -126.8492
3750.000000 89.171 -126.5446
3820.000000 88.768 -124.4847
3870.000000 88.672 -121.4365
3950.000000 89.080 -118.4957
4000.000000 89.269 -118.8085
4060.000000 89.303 -119.4311
4120.000000 89.250 -119.6283
4180.000000 89.176 -119.5310
4250.000000 89.089 -119.2711
4310.000000 89.011 -119.0002
4370.000000 88.921 -118.7037
4440.000000 88.802 -118.3460
4500.000000 88.696 -118.0385
4550.000000 88.604 -117.7764
4620.000000 88.461 -117.3886
4680.000000 88.324 -117.0284
4750.000000 88.155 -116.5730
4820.000000 87.978 -116.0696
4870.000000 87.846 -115.6709
4940.000000 87.652 -115.0503
5000.000000 87.481 -114.4565
5080.000000 87.252 -113.5683
5150.000000 87.045 -112.6870
5220.000000 86.830 -111.6988
5300.000000 86.580 -110.4430
5380.000000 86.332 -109.0653
5450.000000 86.119 -107.7604
5520.000000 85.911 -106.3604
5600.000000 85.680 -104.6494
5700.000000 85.404 -102.3370
5800.000000 85.137 -99.8110
5900.000000 84.888 -97.0865
6000.000000 84.671 -94.1953
6080.000000 84.523 -91.7839
6150.000000 84.413 -89.6230
6220.000000 84.321 -87.4290
6300.000000 84.237 -84.8917
6400.000000 84.165 -81.6883
6500.000000 84.134 -78.4713
6600.000000 84.143 -75.2629
6700.000000 84.188 -72.0941
6800.000000 84.280 -69.0035
6900.000000 84.440 -66.0372
7000.000000 84.675 -63.2505
7100.000000 84.965 -60.7002
7200.000000 85.303 -58.4698
7300.000000 85.688 -56.6790
7400.000000 86.110 -55.4365
7500.000000 86.554 -54.8341
7620.000000 87.105 -55.0693
7750.000000 87.666 -56.6162
7880.000000 88.048 -59.5682
8000.000000 88.193 -63.4677
8120.000000 88.086 -68.1423
8250.000000 87.638 -73.2825
8380.000000 86.871 -77.5047
8500.000000 85.954 -79.9620
8620.000000 84.916 -80.8512
8750.000000 83.743 -80.1997
8850.000000 82.855 -78.7388
9000.000000 81.579 -75.2853
9120.000000 80.627 -71.6706
9250.000000 79.678 -67.1103
9380.000000 78.817 -62.0237
9500.000000 78.090 -56.9537
9620.000000 77.426 -51.5904
9750.000000 76.777 -45.5084
9880.000000 76.198 -39.1929
10000.000000 75.718 -33.1788
10150.000000 75.180 -25.3923
10300.000000 74.713 -17.2284
10440.000000 74.363 -9.1949
10600.000000 74.098 0.3513
10750.000000 73.991 9.4720
10900.000000 74.036 18.6735
11060.000000 74.268 28.3979
11200.000000 74.637 36.5458
11380.000000 75.310 46.1183
11500.000000 75.855 51.8011
11720.000000 76.976 60.5646
11800.000000 77.401 63.2387
12060.000000 78.855 70.5860
12200.000000 79.732 73.6183
12410.000000 81.183 76.1673
12500.000000 81.834 76.2020
12650.000000 82.881 74.3549
12800.000000 83.742 69.7897
13150.000000 84.102 52.0146
13200.000000 83.926 49.5360
13400.000000 82.774 42.1430
13600.000000 81.218 39.5258
13800.000000 79.632 40.9178
14000.000000 78.214 44.9868
14300.000000 76.520 53.9583
14500.000000 75.686 60.9182
14750.000000 74.926 70.0046
15000.000000 74.444 79.0452
15250.000000 74.216 87.5895
15500.000000 74.228 95.1887
15750.000000 74.421 101.3441
16000.000000 74.634 105.6457
16250.000000 74.699 108.2388
16500.000000 74.528 109.8072
16750.000000 74.075 111.1117
17000.000000 73.319 113.1426
17250.000000 72.337 116.7801
17500.000000 71.274 122.3267
17750.000000 70.252 129.5846
18000.000000 69.352 138.1434
18250.000000 68.642 147.5340
18500.000000 68.231 157.3031
18750.000000 68.228 167.0215
19000.000000 68.551 176.1998
19250.000000 68.875 -175.6333
19500.000000 68.872 -168.7627
19750.000000 68.403 -162.7946
20000.000000 67.412 -156.4793
20300.000000 65.638 -146.1553
20600.000000 63.618 -131.1186
20900.000000 61.757 -112.1699
21200.000000 60.335 -93.7183
21400.000000 59.645 -92.0148
21800.000000 58.197 52.6173
22000.000000 56.767 -88.2386
22400.000000 51.246 -29.6453
22700.000000 45.027 94.3281
23000.000000 38.120 -99.2754
23300.000000 33.372 96.0547
23600.000000 32.292 55.9219
24000.000000 32.316 -65.4648
