* Measurement data measured by REW V5.20.13
* Source: Trace Arithmetic result A / B
* Format: Trace Arithmetic result A / B
* Dated: Aug 16, 2023 12:16:35 PM
* REW Settings:
*  C-weighting compensation: Off
*  Target level: 75.0 dB
* Note: Trace Arithmetic A over B A = Coupler-specific Neutral B = Pleasant Tilt
* Measurement: Coupler-specific Pleasnt
* Smoothing: 1/24 octave
* Frequency Step: 1/48 octave
* Start Frequency: 20.000 Hz
*
* Freq(Hz) SPL(dB)
20.000000 9.055
20.299999 9.049
20.600000 9.040
20.900000 9.032
21.200001 9.024
21.400000 9.019
21.799999 9.007
22.000000 9.002
22.400000 8.989
22.700001 8.978
23.000000 8.967
23.299999 8.955
23.600000 8.942
24.000000 8.925
24.299999 8.911
24.700001 8.893
25.000000 8.878
25.400000 8.858
25.799999 8.838
26.200001 8.817
26.500000 8.802
26.900000 8.780
27.200001 8.764
27.600000 8.741
28.000000 8.719
28.500000 8.690
29.000000 8.662
29.500000 8.633
30.000000 8.604
30.400000 8.580
30.700001 8.563
31.100000 8.539
31.500000 8.514
32.000000 8.485
32.500000 8.455
33.000000 8.425
33.500000 8.395
34.000000 8.365
34.500000 8.335
35.000000 8.305
35.500000 8.276
36.000000 8.246
36.500000 8.217
37.000000 8.188
37.500000 8.160
38.200001 8.120
38.700001 8.092
39.500000 8.048
40.000000 8.021
40.599998 7.989
41.200001 7.957
41.799999 7.926
42.500000 7.890
43.099998 7.860
43.700001 7.830
44.400002 7.795
45.000000 7.766
45.500000 7.742
46.200001 7.709
46.799999 7.680
47.500000 7.647
48.200001 7.615
48.700001 7.592
49.400002 7.559
50.000000 7.532
50.799999 7.496
51.500000 7.464
52.200001 7.432
53.000000 7.396
53.799999 7.360
54.500000 7.328
55.200001 7.296
56.000000 7.260
57.000000 7.214
58.000000 7.168
59.000000 7.121
60.000000 7.075
60.799999 7.038
61.500000 7.005
62.200001 6.972
63.000000 6.934
64.000000 6.886
65.000000 6.839
66.000000 6.790
67.000000 6.742
68.000000 6.693
69.000000 6.643
70.000000 6.594
71.000000 6.544
72.000000 6.494
73.000000 6.443
74.000000 6.393
75.000000 6.342
76.199997 6.281
77.500000 6.215
78.800003 6.148
80.000000 6.087
81.199997 6.026
82.500000 5.959
83.800003 5.893
85.000000 5.832
86.199997 5.771
87.500000 5.705
88.500000 5.654
90.000000 5.578
91.199997 5.518
92.500000 5.452
93.800003 5.387
95.000000 5.327
96.199997 5.267
97.500000 5.202
98.800003 5.138
100.000000 5.079
101.500000 5.006
103.000000 4.933
104.400002 4.865
106.000000 4.788
107.500000 4.717
109.000000 4.646
110.599998 4.572
112.000000 4.508
113.800003 4.426
115.000000 4.372
117.199997 4.274
118.000000 4.239
120.599998 4.128
122.000000 4.069
124.099998 3.982
125.000000 3.946
126.500000 3.886
128.000000 3.828
131.500000 3.694
132.000000 3.676
134.000000 3.603
136.000000 3.532
138.000000 3.463
140.000000 3.396
143.000000 3.300
145.000000 3.237
147.500000 3.162
150.000000 3.090
152.500000 3.020
155.000000 2.953
157.500000 2.888
160.000000 2.826
162.500000 2.766
165.000000 2.708
167.500000 2.652
170.000000 2.597
172.500000 2.545
175.000000 2.494
177.500000 2.445
180.000000 2.398
182.500000 2.352
185.000000 2.308
187.500000 2.265
190.000000 2.224
192.500000 2.184
195.000000 2.146
197.500000 2.109
200.000000 2.073
203.000000 2.032
206.000000 1.993
209.000000 1.955
212.000000 1.919
214.000000 1.896
218.000000 1.851
220.000000 1.830
224.000000 1.790
227.000000 1.762
230.000000 1.735
233.000000 1.710
236.000000 1.685
240.000000 1.655
243.000000 1.633
247.000000 1.606
250.000000 1.586
254.000000 1.562
258.000000 1.537
262.000000 1.514
265.000000 1.497
269.000000 1.475
272.000000 1.460
276.000000 1.440
280.000000 1.420
285.000000 1.396
290.000000 1.374
295.000000 1.352
300.000000 1.331
304.000000 1.315
307.000000 1.304
311.000000 1.288
315.000000 1.273
320.000000 1.256
325.000000 1.239
330.000000 1.222
335.000000 1.206
340.000000 1.190
345.000000 1.176
350.000000 1.161
355.000000 1.147
360.000000 1.134
365.000000 1.120
370.000000 1.107
375.000000 1.093
382.000000 1.075
387.000000 1.061
395.000000 1.040
400.000000 1.025
406.000000 1.008
412.000000 0.990
418.000000 0.973
425.000000 0.951
431.000000 0.933
437.000000 0.914
444.000000 0.892
450.000000 0.873
455.000000 0.857
462.000000 0.836
468.000000 0.817
475.000000 0.795
482.000000 0.773
487.000000 0.758
494.000000 0.736
500.000000 0.718
508.000000 0.693
515.000000 0.671
522.000000 0.650
530.000000 0.626
538.000000 0.602
545.000000 0.582
552.000000 0.562
560.000000 0.540
570.000000 0.514
580.000000 0.489
590.000000 0.465
600.000000 0.442
608.000000 0.423
615.000000 0.407
622.000000 0.391
630.000000 0.372
640.000000 0.349
650.000000 0.326
660.000000 0.302
670.000000 0.278
680.000000 0.253
690.000000 0.227
700.000000 0.201
710.000000 0.176
720.000000 0.150
730.000000 0.125
740.000000 0.101
750.000000 0.078
762.000000 0.053
775.000000 0.027
788.000000 0.005
800.000000 -0.013
812.000000 -0.029
825.000000 -0.043
838.000000 -0.054
850.000000 -0.062
862.000000 -0.068
875.000000 -0.072
885.000000 -0.075
900.000000 -0.076
912.000000 -0.076
925.000000 -0.073
938.000000 -0.068
950.000000 -0.062
962.000000 -0.053
975.000000 -0.039
988.000000 -0.021
1000.000000 -0.001
1015.000000 0.030
1030.000000 0.067
1044.000000 0.106
1060.000000 0.155
1075.000000 0.204
1090.000000 0.252
1106.000000 0.303
1120.000000 0.344
1138.000000 0.395
1150.000000 0.427
1172.000000 0.480
1180.000000 0.499
1206.000000 0.558
1220.000000 0.590
1241.000000 0.640
1250.000000 0.662
1265.000000 0.700
1280.000000 0.740
1315.000000 0.838
1320.000000 0.853
1340.000000 0.912
1360.000000 0.973
1380.000000 1.035
1400.000000 1.097
1430.000000 1.191
1450.000000 1.254
1475.000000 1.333
1500.000000 1.413
1525.000000 1.496
1550.000000 1.579
1575.000000 1.664
1600.000000 1.750
1625.000000 1.836
1650.000000 1.924
1675.000000 2.014
1700.000000 2.105
1725.000000 2.198
1750.000000 2.294
1775.000000 2.394
1800.000000 2.497
1825.000000 2.604
1850.000000 2.715
1875.000000 2.830
1900.000000 2.949
1925.000000 3.071
1950.000000 3.198
1975.000000 3.330
2000.000000 3.467
2030.000000 3.637
2060.000000 3.814
2090.000000 3.998
2120.000000 4.187
2140.000000 4.314
2180.000000 4.567
2200.000000 4.690
2240.000000 4.923
2270.000000 5.083
2300.000000 5.228
2330.000000 5.359
2360.000000 5.477
2400.000000 5.619
2430.000000 5.717
2470.000000 5.837
2500.000000 5.921
2540.000000 6.027
2580.000000 6.126
2620.000000 6.217
2650.000000 6.282
2690.000000 6.360
2720.000000 6.413
2760.000000 6.474
2800.000000 6.522
2850.000000 6.566
2900.000000 6.591
2950.000000 6.600
3000.000000 6.591
3040.000000 6.574
3070.000000 6.554
3110.000000 6.522
3150.000000 6.483
3200.000000 6.426
3250.000000 6.362
3300.000000 6.291
3350.000000 6.215
3400.000000 6.137
3450.000000 6.057
3500.000000 5.977
3550.000000 5.900
3600.000000 5.825
3650.000000 5.753
3700.000000 5.685
3750.000000 5.621
3820.000000 5.539
3870.000000 5.487
3950.000000 5.415
4000.000000 5.376
4060.000000 5.335
4120.000000 5.297
4180.000000 5.260
4250.000000 5.215
4310.000000 5.171
4370.000000 5.120
4440.000000 5.054
4500.000000 4.994
4550.000000 4.944
4620.000000 4.874
4680.000000 4.816
4750.000000 4.750
4820.000000 4.687
4870.000000 4.644
4940.000000 4.585
5000.000000 4.538
5080.000000 4.482
5150.000000 4.439
5220.000000 4.403
5300.000000 4.366
5380.000000 4.331
5450.000000 4.300
5520.000000 4.267
5600.000000 4.226
5700.000000 4.170
5800.000000 4.111
5900.000000 4.052
6000.000000 3.997
6080.000000 3.959
6150.000000 3.930
6220.000000 3.907
6300.000000 3.887
6400.000000 3.875
6500.000000 3.875
6600.000000 3.887
6700.000000 3.912
6800.000000 3.946
6900.000000 3.987
7000.000000 4.033
7100.000000 4.078
7200.000000 4.120
7300.000000 4.155
7400.000000 4.179
7500.000000 4.186
7620.000000 4.171
7750.000000 4.118
7880.000000 4.025
8000.000000 3.896
8120.000000 3.724
8250.000000 3.492
8380.000000 3.213
8500.000000 2.922
8620.000000 2.606
8750.000000 2.247
8850.000000 1.971
9000.000000 1.577
9120.000000 1.297
9250.000000 1.049
9380.000000 0.868
9500.000000 0.765
9620.000000 0.723
9750.000000 0.743
9880.000000 0.830
10000.000000 0.971
10150.000000 1.227
10300.000000 1.555
10440.000000 1.899
10600.000000 2.275
10750.000000 2.540
10900.000000 2.669
11060.000000 2.643
11200.000000 2.498
11380.000000 2.181
11500.000000 1.915
11720.000000 1.349
11800.000000 1.134
12060.000000 0.453
12200.000000 0.138
12410.000000 -0.217
12500.000000 -0.329
12650.000000 -0.462
12800.000000 -0.537
13150.000000 -0.586
13200.000000 -0.585
13400.000000 -0.575
13600.000000 -0.570
13800.000000 -0.586
14000.000000 -0.631
14300.000000 -0.751
14500.000000 -0.855
14750.000000 -0.991
15000.000000 -1.106
15250.000000 -1.172
15500.000000 -1.173
15750.000000 -1.102
16000.000000 -0.966
16250.000000 -0.783
16500.000000 -0.573
16750.000000 -0.361
17000.000000 -0.164
17250.000000 -0.001
17500.000000 0.113
17750.000000 0.159
18000.000000 0.118
18250.000000 -0.032
18500.000000 -0.308
18750.000000 -0.723
19000.000000 -1.276
19250.000000 -1.974
19500.000000 -2.894
19750.000000 -4.310
20000.000000 -6.493
