* Measurement data measured by REW V5.20.13
* Source: Microphone (High Definition Audio Device), MICROPHONE (Master Volume), L, volume: 1.000. Timing signal peak level -18.2 dBFS, measurement signal peak level -17.5 dBFS
* Format: 512k Log Swept Sine, 1 sweep at -12.0 dBFS using an acoustic timing reference
* Dated: Dec 7, 2022 10:37:30 AM
* REW Settings:
*  C-weighting compensation: Off
*  Target level: 75.0 dB
* Note: Delay -0.0282 ms (-9.7 mm, -0.38 in) using estimated IR delay relative to Acoustic reference played from HEADPHONE L with no timing offset Clock adjustment: 120.6 ppm
* Measurement: KATO L Dec 7
* Smoothing: 1/24 octave
* Frequency Step: 1/48 octave
* Start Frequency: 1.000 Hz
*
* Freq(Hz)	SPL(dB)	Phase(degrees)
1.000000	78.373	6.7661
1.015000	78.448	3.8716
1.030000	78.527	1.0939
1.044000	78.604	-1.3811
1.060000	78.696	-4.0559
1.075000	78.786	-6.4004
1.090000	78.880	-8.5728
1.106000	78.984	-10.6912
1.120000	79.082	-12.4051
1.138000	79.216	-14.4368
1.150000	79.310	-15.6900
1.172000	79.493	-17.7925
1.180000	79.562	-18.4985
1.206000	79.796	-20.5966
1.220000	79.927	-21.6125
1.241000	80.129	-23.0048
1.250000	80.218	-23.5578
1.265000	80.367	-24.4277
1.280000	80.519	-25.2397
1.315000	80.880	-26.9540
1.320000	80.932	-27.1826
1.340000	81.140	-28.0683
1.360000	81.349	-28.9220
1.380000	81.555	-29.7627
1.400000	81.760	-30.6093
1.430000	82.060	-31.9316
1.450000	82.253	-32.8757
1.475000	82.488	-34.1414
1.500000	82.723	-35.3659
1.525000	82.960	-36.5196
1.550000	83.199	-37.6095
1.575000	83.438	-38.6430
1.600000	83.677	-39.6273
1.625000	83.916	-40.5694
1.650000	84.152	-41.4768
1.675000	84.386	-42.3565
1.700000	84.617	-43.2157
1.725000	84.844	-44.0618
1.750000	85.066	-44.9018
1.775000	85.282	-45.7430
1.800000	85.491	-46.5927
1.825000	85.694	-47.4579
1.850000	85.889	-48.3362
1.875000	86.079	-49.2075
1.900000	86.264	-50.0701
1.925000	86.444	-50.9234
1.950000	86.620	-51.7669
1.975000	86.791	-52.5998
2.000000	86.958	-53.4215
2.030000	87.153	-54.3919
2.060000	87.343	-55.3441
2.090000	87.527	-56.2771
2.120000	87.706	-57.1897
2.140000	87.823	-57.7863
2.180000	88.050	-58.9494
2.200000	88.161	-59.5153
2.240000	88.372	-60.6130
2.270000	88.522	-61.4074
2.300000	88.664	-62.1792
2.330000	88.801	-62.9300
2.360000	88.933	-63.6616
2.400000	89.103	-64.6102
2.430000	89.228	-65.3039
2.470000	89.391	-66.2084
2.500000	89.512	-66.8738
2.540000	89.675	-67.7469
2.580000	89.840	-68.6056
2.620000	90.003	-69.4333
2.650000	90.123	-70.0338
2.690000	90.281	-70.8111
2.720000	90.398	-71.3795
2.760000	90.552	-72.1218
2.800000	90.704	-72.8510
2.850000	90.890	-73.7517
2.900000	91.072	-74.6496
2.950000	91.252	-75.5514
3.000000	91.428	-76.4373
3.040000	91.567	-77.1336
3.070000	91.670	-77.6505
3.110000	91.805	-78.3348
3.150000	91.937	-79.0160
3.200000	92.099	-79.8675
3.250000	92.255	-80.7241
3.300000	92.406	-81.5913
3.350000	92.551	-82.4749
3.400000	92.691	-83.3711
3.450000	92.826	-84.2723
3.500000	92.956	-85.1708
3.550000	93.083	-86.0590
3.600000	93.205	-86.9293
3.650000	93.325	-87.7740
3.700000	93.441	-88.5888
3.750000	93.553	-89.3798
3.820000	93.703	-90.4556
3.870000	93.806	-91.2074
3.950000	93.965	-92.3930
4.000000	94.061	-93.1299
4.060000	94.174	-94.0161
4.120000	94.282	-94.9016
4.180000	94.386	-95.7810
4.250000	94.503	-96.7924
4.310000	94.599	-97.6411
4.370000	94.693	-98.4677
4.440000	94.800	-99.3986
4.500000	94.887	-100.1700
4.550000	94.957	-100.7973
4.620000	95.052	-101.6566
4.680000	95.131	-102.3799
4.750000	95.223	-103.2140
4.820000	95.314	-104.0365
4.870000	95.378	-104.6123
4.940000	95.465	-105.4055
5.000000	95.538	-106.0769
5.080000	95.634	-106.9652
5.150000	95.716	-107.7412
5.220000	95.797	-108.5149
5.300000	95.888	-109.3927
5.380000	95.975	-110.2606
5.450000	96.048	-111.0094
5.520000	96.118	-111.7467
5.600000	96.192	-112.5806
5.700000	96.278	-113.6058
5.800000	96.361	-114.6029
5.900000	96.442	-115.5619
6.000000	96.520	-116.4792
6.080000	96.581	-117.1915
6.150000	96.633	-117.8053
6.220000	96.684	-118.4154
6.300000	96.743	-119.1085
6.400000	96.817	-119.9618
6.500000	96.888	-120.8015
6.600000	96.956	-121.6289
6.700000	97.019	-122.4476
6.800000	97.079	-123.2545
6.900000	97.137	-124.0423
7.000000	97.193	-124.8035
7.100000	97.247	-125.5368
7.200000	97.299	-126.2499
7.300000	97.351	-126.9516
7.400000	97.404	-127.6461
7.500000	97.456	-128.3281
7.620000	97.518	-129.1346
7.750000	97.581	-130.0000
7.880000	97.642	-130.8572
8.000000	97.695	-131.6344
8.120000	97.744	-132.3929
8.250000	97.793	-133.1980
8.380000	97.839	-133.9774
8.500000	97.880	-134.6670
8.620000	97.917	-135.3303
8.750000	97.957	-136.0214
8.850000	97.987	-136.5335
9.000000	98.032	-137.2671
9.120000	98.067	-137.8338
9.250000	98.107	-138.4334
9.380000	98.148	-139.0145
9.500000	98.184	-139.5426
9.620000	98.218	-140.0675
9.750000	98.254	-140.6291
9.880000	98.282	-141.1832
10.000000	98.299	-141.6892
10.150000	98.311	-142.3127
10.300000	98.315	-142.9178
10.440000	98.309	-143.4645
10.600000	98.298	-144.0727
10.750000	98.289	-144.6286
10.900000	98.279	-145.1707
11.060000	98.269	-145.7386
11.200000	98.261	-146.2275
11.380000	98.251	-146.8357
11.500000	98.243	-147.2271
11.720000	98.229	-147.9144
11.800000	98.225	-148.1530
12.060000	98.214	-148.8917
12.200000	98.211	-149.2704
12.410000	98.209	-149.8165
12.500000	98.209	-150.0473
12.650000	98.208	-150.4241
12.800000	98.207	-150.8015
13.150000	98.200	-151.7079
13.200000	98.199	-151.8394
13.400000	98.192	-152.3751
13.600000	98.185	-152.9025
13.800000	98.176	-153.4147
14.000000	98.166	-153.8972
14.300000	98.150	-154.5614
14.500000	98.138	-154.9644
14.750000	98.127	-155.4490
15.000000	98.121	-155.9257
15.250000	98.123	-156.4238
15.500000	98.130	-156.9358
15.750000	98.139	-157.4557
16.000000	98.145	-157.9661
16.250000	98.149	-158.4610
16.500000	98.149	-158.9391
16.750000	98.148	-159.4015
17.000000	98.147	-159.8543
17.250000	98.147	-160.2985
17.500000	98.147	-160.7347
17.750000	98.147	-161.1566
18.000000	98.148	-161.5618
18.250000	98.148	-161.9481
18.500000	98.148	-162.3188
18.750000	98.149	-162.6800
19.000000	98.152	-163.0378
19.250000	98.156	-163.4000
19.500000	98.162	-163.7635
19.750000	98.168	-164.1261
20.000000	98.175	-164.4808
20.299999	98.182	-164.8954
20.600000	98.186	-165.2974
20.900000	98.188	-165.6856
21.200001	98.185	-166.0545
21.400000	98.182	-166.2866
21.799999	98.174	-166.7256
22.000000	98.170	-166.9384
22.400000	98.162	-167.3649
22.700001	98.159	-167.6865
23.000000	98.158	-168.0046
23.299999	98.159	-168.3190
23.600000	98.161	-168.6347
24.000000	98.163	-169.0669
24.299999	98.165	-169.4005
24.700001	98.165	-169.8435
25.000000	98.161	-170.1586
25.400000	98.152	-170.5466
25.799999	98.140	-170.9170
26.200001	98.132	-171.3004
26.500000	98.128	-171.5966
26.900000	98.126	-171.9809
27.200001	98.125	-172.2464
27.600000	98.125	-172.5684
28.000000	98.126	-172.8670
28.500000	98.126	-173.2293
29.000000	98.122	-173.5995
29.500000	98.114	-173.9754
30.000000	98.106	-174.3308
30.400000	98.101	-174.5996
30.700001	98.097	-174.8043
31.100000	98.092	-175.0952
31.500000	98.082	-175.3983
32.000000	98.062	-175.7481
32.500000	98.040	-176.0333
33.000000	98.025	-176.2987
33.500000	98.020	-176.6044
34.000000	98.016	-176.9504
34.500000	98.002	-177.3047
35.000000	97.984	-177.6548
35.500000	97.969	-177.9939
36.000000	97.958	-178.3058
36.500000	97.951	-178.5834
37.000000	97.947	-178.8488
37.500000	97.945	-179.1290
38.200001	97.936	-179.5308
38.700001	97.922	-179.7932
39.500000	97.899	179.8219
40.000000	97.887	179.5679
40.599998	97.874	179.2397
41.200001	97.860	178.9445
41.799999	97.849	178.6946
42.500000	97.836	178.3712
43.099998	97.821	178.0550
43.700001	97.804	177.7667
44.400002	97.794	177.4916
45.000000	97.792	177.2558
45.500000	97.788	177.0277
46.200001	97.777	176.6901
46.799999	97.768	176.4155
47.500000	97.757	176.0984
48.200001	97.735	175.7914
48.700001	97.716	175.5979
49.400002	97.695	175.3472
50.000000	97.681	175.1076
50.799999	97.659	174.7593
51.500000	97.634	174.4926
52.200001	97.617	174.2593
53.000000	97.605	173.9513
53.799999	97.590	173.6174
54.500000	97.573	173.3742
55.200001	97.556	173.1528
56.000000	97.533	172.9102
57.000000	97.512	172.6618
58.000000	97.486	172.3984
59.000000	97.443	172.2781
60.000000	97.439	172.2275
60.799999	97.445	171.9091
61.500000	97.422	171.5248
62.200001	97.384	171.2141
63.000000	97.348	170.9266
64.000000	97.309	170.5692
65.000000	97.276	170.2895
66.000000	97.255	170.0497
67.000000	97.235	169.7696
68.000000	97.210	169.4680
69.000000	97.178	169.1817
70.000000	97.135	168.9364
71.000000	97.089	168.7200
72.000000	97.058	168.4974
73.000000	97.033	168.2825
74.000000	97.005	168.0793
75.000000	96.981	167.8487
76.199997	96.953	167.5628
77.500000	96.920	167.2900
78.800003	96.879	167.0202
80.000000	96.840	166.8207
81.199997	96.801	166.6594
82.500000	96.755	166.4027
83.800003	96.711	166.1027
85.000000	96.675	165.8857
86.199997	96.645	165.7140
87.500000	96.615	165.5226
88.500000	96.590	165.3523
90.000000	96.550	165.1053
91.199997	96.519	164.9166
92.500000	96.481	164.6969
93.800003	96.438	164.5222
95.000000	96.399	164.3981
96.199997	96.363	164.2616
97.500000	96.327	164.0778
98.800003	96.287	163.8690
100.000000	96.245	163.6997
101.500000	96.194	163.5648
103.000000	96.154	163.4457
104.400002	96.119	163.2888
106.000000	96.074	163.0785
107.500000	96.028	162.8878
109.000000	95.980	162.7261
110.599998	95.932	162.5780
112.000000	95.892	162.4542
113.800003	95.837	162.3207
115.000000	95.799	162.2543
117.199997	95.724	162.1615
118.000000	95.694	162.1281
120.599998	95.613	161.9838
122.000000	95.578	161.8141
124.099998	95.523	161.5499
125.000000	95.502	161.4519
126.500000	95.468	161.3163
128.000000	95.431	161.2087
131.500000	95.329	161.0565
132.000000	95.315	161.0456
134.000000	95.262	161.0170
136.000000	95.214	160.9908
138.000000	95.166	160.9533
140.000000	95.116	160.8935
143.000000	95.047	160.7860
145.000000	95.005	160.7073
147.500000	94.948	160.6627
150.000000	94.887	160.6303
152.500000	94.829	160.5723
155.000000	94.769	160.4922
157.500000	94.709	160.4450
160.000000	94.651	160.4230
162.500000	94.592	160.4376
165.000000	94.537	160.4542
167.500000	94.480	160.4672
170.000000	94.421	160.5327
172.500000	94.368	160.5995
175.000000	94.314	160.6009
177.500000	94.257	160.5989
180.000000	94.202	160.6167
182.500000	94.145	160.6478
185.000000	94.083	160.6994
187.500000	94.022	160.7512
190.000000	93.969	160.8015
192.500000	93.919	160.8692
195.000000	93.869	160.9691
197.500000	93.820	161.0684
200.000000	93.770	161.1566
203.000000	93.716	161.2700
206.000000	93.664	161.3691
209.000000	93.607	161.4455
212.000000	93.546	161.5421
214.000000	93.506	161.6191
218.000000	93.440	161.7882
220.000000	93.407	161.8841
224.000000	93.336	162.0629
227.000000	93.287	162.1774
230.000000	93.237	162.3105
233.000000	93.187	162.4782
236.000000	93.140	162.6342
240.000000	93.074	162.7899
243.000000	93.021	162.9311
247.000000	92.959	163.1771
250.000000	92.915	163.3786
254.000000	92.859	163.6487
258.000000	92.808	163.8868
262.000000	92.754	164.0883
265.000000	92.711	164.2386
269.000000	92.657	164.4783
272.000000	92.619	164.6721
276.000000	92.570	164.9212
280.000000	92.527	165.1733
285.000000	92.471	165.4919
290.000000	92.415	165.8145
295.000000	92.368	166.1375
300.000000	92.319	166.4133
304.000000	92.279	166.6744
307.000000	92.250	166.9021
311.000000	92.214	167.1997
315.000000	92.181	167.4659
320.000000	92.143	167.7859
325.000000	92.101	168.1089
330.000000	92.061	168.4317
335.000000	92.025	168.7668
340.000000	91.987	169.0923
345.000000	91.950	169.4013
350.000000	91.911	169.7250
355.000000	91.878	170.0481
360.000000	91.848	170.3606
365.000000	91.808	170.6724
370.000000	91.768	170.9922
375.000000	91.732	171.3108
382.000000	91.681	171.7377
387.000000	91.646	172.0577
395.000000	91.590	172.5990
400.000000	91.559	172.9257
406.000000	91.522	173.3095
412.000000	91.485	173.7026
418.000000	91.450	174.0917
425.000000	91.409	174.5445
431.000000	91.371	174.9250
437.000000	91.334	175.3204
444.000000	91.294	175.7899
450.000000	91.263	176.1626
455.000000	91.236	176.4589
462.000000	91.197	176.9015
468.000000	91.164	177.3138
475.000000	91.126	177.7960
482.000000	91.086	178.2682
487.000000	91.061	178.6229
494.000000	91.036	179.1401
500.000000	91.018	179.5978
508.000000	90.991	-179.7915
515.000000	90.969	-179.2674
522.000000	90.950	-178.7484
530.000000	90.931	-178.1738
538.000000	90.912	-177.6314
545.000000	90.898	-177.1715
552.000000	90.885	-176.6997
560.000000	90.873	-176.1326
570.000000	90.862	-175.4355
580.000000	90.854	-174.7370
590.000000	90.842	-174.0248
600.000000	90.830	-173.3203
608.000000	90.823	-172.7558
615.000000	90.817	-172.2745
622.000000	90.810	-171.7937
630.000000	90.805	-171.2290
640.000000	90.798	-170.5362
650.000000	90.788	-169.8617
660.000000	90.782	-169.1854
670.000000	90.778	-168.4956
680.000000	90.778	-167.8090
690.000000	90.782	-167.1110
700.000000	90.789	-166.4029
710.000000	90.798	-165.7106
720.000000	90.806	-165.0148
730.000000	90.817	-164.3070
740.000000	90.830	-163.5972
750.000000	90.847	-162.8829
762.000000	90.867	-162.0507
775.000000	90.890	-161.1354
788.000000	90.916	-160.2213
800.000000	90.945	-159.3711
812.000000	90.978	-158.5465
825.000000	91.018	-157.6689
838.000000	91.062	-156.7852
850.000000	91.105	-155.9651
862.000000	91.152	-155.1573
875.000000	91.210	-154.2982
885.000000	91.255	-153.6373
900.000000	91.327	-152.6599
912.000000	91.393	-151.9231
925.000000	91.467	-151.1554
938.000000	91.544	-150.4061
950.000000	91.616	-149.7220
962.000000	91.693	-149.0425
975.000000	91.775	-148.3620
988.000000	91.845	-147.7536
1000.000000	91.915	-147.2159
1015.000000	92.039	-146.4682
1030.000000	92.161	-145.7722
1044.000000	92.266	-145.1851
1060.000000	92.381	-144.5659
1075.000000	92.489	-144.0360
1090.000000	92.606	-143.5432
1106.000000	92.743	-143.0739
1120.000000	92.865	-142.7088
1138.000000	93.020	-142.2827
1150.000000	93.119	-142.0231
1172.000000	93.298	-141.5945
1180.000000	93.365	-141.4516
1206.000000	93.574	-141.0322
1220.000000	93.685	-140.8312
1241.000000	93.851	-140.5862
1250.000000	93.921	-140.4889
1265.000000	94.036	-140.3399
1280.000000	94.148	-140.2178
1315.000000	94.398	-139.9348
1320.000000	94.432	-139.9012
1340.000000	94.564	-139.7888
1360.000000	94.673	-139.6959
1380.000000	94.776	-139.6036
1400.000000	94.889	-139.5094
1430.000000	95.061	-139.3977
1450.000000	95.173	-139.3184
1475.000000	95.311	-139.2360
1500.000000	95.449	-139.1466
1525.000000	95.580	-139.0648
1550.000000	95.702	-139.0090
1575.000000	95.819	-138.9465
1600.000000	88.316
1625.000000	88.455
1650.000000	88.596
1675.000000	88.741
1700.000000	88.892
1725.000000	89.045
1750.000000	89.197
1775.000000	89.344
1800.000000	89.488
1825.000000	89.627
1850.000000	89.760
1875.000000	89.889
1900.000000	90.014
1925.000000	90.134
1950.000000	90.249
1975.000000	90.364
2000.000000	90.481
2030.000000	90.631
2060.000000	90.784
2090.000000	90.941
2120.000000	91.100
2140.000000	91.207
2180.000000	91.419
2200.000000	91.523
2240.000000	91.726
2270.000000	91.872
2300.000000	92.009
2330.000000	92.137
2360.000000	92.257
2400.000000	92.400
2430.000000	92.496
2470.000000	92.611
2500.000000	92.688
2540.000000	92.778
2580.000000	92.856
2620.000000	92.925
2650.000000	92.971
2690.000000	93.024
2720.000000	93.057
2760.000000	93.092
2800.000000	93.119
2850.000000	93.142
2900.000000	93.158
2950.000000	93.162
3000.000000	93.151
3040.000000	93.133
3070.000000	93.115
3110.000000	93.089
3150.000000	93.065
3200.000000	93.030
3250.000000	92.988
3300.000000	92.936
3350.000000	92.877
3400.000000	92.814
3450.000000	92.749
3500.000000	92.681
3550.000000	92.607
3600.000000	92.527
3650.000000	92.443
3700.000000	92.355
3750.000000	92.266
3820.000000	92.137
3870.000000	92.042
3950.000000	91.885
4000.000000	91.784
4060.000000	91.662
4120.000000	91.538
4180.000000	91.413
4250.000000	91.267
4310.000000	91.143
4370.000000	91.021
4440.000000	90.882
4500.000000	90.769
4550.000000	90.677
4620.000000	90.550
4680.000000	90.440
4750.000000	90.312
4820.000000	90.186
4870.000000	90.097
4940.000000	89.974
5000.000000	89.870
5080.000000	89.734
5150.000000	89.616
5220.000000	89.500
5300.000000	89.370
5380.000000	89.243
5450.000000	89.131
5520.000000	89.019
5600.000000	88.889
5700.000000	88.721
5800.000000	88.541
5900.000000	88.346
6000.000000	88.149
6080.000000	87.995
6150.000000	87.864
6220.000000	87.736
6300.000000	87.594
6400.000000	87.424
6500.000000	87.259
6600.000000	87.100
6700.000000	86.944
6800.000000	86.793
6900.000000	86.649
7000.000000	86.512
7100.000000	86.381
7200.000000	86.255
7300.000000	86.132
7400.000000	86.014
7500.000000	85.902
7620.000000	85.774
7750.000000	85.650
7880.000000	85.546
8000.000000	85.470
8120.000000	85.423
8250.000000	85.419
8380.000000	85.476
8500.000000	85.554
8620.000000	85.647
8750.000000	85.751
8850.000000	85.831
9000.000000	85.937
9120.000000	86.001
9250.000000	86.049
9380.000000	86.070
9500.000000	86.055
9620.000000	86.015
9750.000000	85.945
9880.000000	85.846
10000.000000	85.730
10150.000000	85.556
10300.000000	85.357
10440.000000	85.133
10600.000000	84.784
10750.000000	84.289
10900.000000	83.805
11060.000000	83.402
11200.000000	83.072
11380.000000	82.606
11500.000000	82.299
11720.000000	81.733
11800.000000	81.523
12060.000000	80.861
12200.000000	80.594
12410.000000	80.326
12500.000000	80.233
12650.000000	80.095
12800.000000	79.968
13150.000000	79.719
13200.000000	79.689
13400.000000	79.581
13600.000000	79.484
13800.000000	79.394
14000.000000	79.306
14300.000000	79.170
14500.000000	79.071
14750.000000	78.935
15000.000000	78.777
15250.000000	78.594
15500.000000	78.348
15750.000000	77.940
16000.000000	77.453
16250.000000	76.966
16500.000000	76.477
16750.000000	75.999
17000.000000	75.535
17250.000000	75.076
17500.000000	74.444
17750.000000	73.718
18000.000000	73.028
18250.000000	72.346
18500.000000	71.670
18750.000000	70.997
19000.000000	70.346
19250.000000	69.717
19500.000000	69.085
19750.000000	68.481
