* Measurement data measured by REW V5.20.13
* Source: Trace Arithmetic result A / B
* Format: Trace Arithmetic result A / B
* Dated: Aug 16, 2023 12:16:31 PM
* REW Settings:
*  C-weighting compensation: Off
*  Target level: 75.0 dB
* Note: Trace Arithmetic A over B A = Coupler-specific Neutral B = Preference tilt
* Measurement: Coupler-specific Preference
* Smoothing: 1/24 octave
* Frequency Step: 1/48 octave
* Start Frequency: 20.000 Hz
*
* Freq(Hz) SPL(dB)
20.000000 8.046
20.299999 8.039
20.600000 8.031
20.900000 8.023
21.200001 8.015
21.400000 8.009
21.799999 7.998
22.000000 7.993
22.400000 7.980
22.700001 7.969
23.000000 7.958
23.299999 7.946
23.600000 7.934
24.000000 7.917
24.299999 7.903
24.700001 7.885
25.000000 7.870
25.400000 7.851
25.799999 7.831
26.200001 7.810
26.500000 7.795
26.900000 7.774
27.200001 7.757
27.600000 7.735
28.000000 7.713
28.500000 7.685
29.000000 7.657
29.500000 7.628
30.000000 7.600
30.400000 7.577
30.700001 7.559
31.100000 7.535
31.500000 7.512
32.000000 7.482
32.500000 7.453
33.000000 7.424
33.500000 7.394
34.000000 7.365
34.500000 7.336
35.000000 7.307
35.500000 7.278
36.000000 7.249
36.500000 7.220
37.000000 7.192
37.500000 7.164
38.200001 7.126
38.700001 7.099
39.500000 7.056
40.000000 7.030
40.599998 6.999
41.200001 6.969
41.799999 6.939
42.500000 6.904
43.099998 6.875
43.700001 6.847
44.400002 6.814
45.000000 6.786
45.500000 6.763
46.200001 6.732
46.799999 6.705
47.500000 6.674
48.200001 6.643
48.700001 6.622
49.400002 6.591
50.000000 6.566
50.799999 6.532
51.500000 6.503
52.200001 6.473
53.000000 6.440
53.799999 6.407
54.500000 6.378
55.200001 6.348
56.000000 6.315
57.000000 6.274
58.000000 6.232
59.000000 6.190
60.000000 6.148
60.799999 6.114
61.500000 6.085
62.200001 6.055
63.000000 6.021
64.000000 5.978
65.000000 5.936
66.000000 5.893
67.000000 5.850
68.000000 5.806
69.000000 5.762
70.000000 5.718
71.000000 5.673
72.000000 5.629
73.000000 5.584
74.000000 5.539
75.000000 5.494
76.199997 5.440
77.500000 5.381
78.800003 5.322
80.000000 5.267
81.199997 5.212
82.500000 5.153
83.800003 5.094
85.000000 5.039
86.199997 4.983
87.500000 4.924
88.500000 4.878
90.000000 4.809
91.199997 4.754
92.500000 4.694
93.800003 4.634
95.000000 4.579
96.199997 4.523
97.500000 4.462
98.800003 4.402
100.000000 4.346
101.500000 4.277
103.000000 4.207
104.400002 4.143
106.000000 4.069
107.500000 4.000
109.000000 3.931
110.599998 3.858
112.000000 3.795
113.800003 3.714
115.000000 3.660
117.199997 3.563
118.000000 3.528
120.599998 3.415
122.000000 3.355
124.099998 3.267
125.000000 3.229
126.500000 3.168
128.000000 3.107
131.500000 2.969
132.000000 2.949
134.000000 2.873
136.000000 2.799
138.000000 2.726
140.000000 2.656
143.000000 2.553
145.000000 2.487
147.500000 2.407
150.000000 2.330
152.500000 2.255
155.000000 2.183
157.500000 2.114
160.000000 2.047
162.500000 1.982
165.000000 1.920
167.500000 1.859
170.000000 1.801
172.500000 1.745
175.000000 1.691
177.500000 1.638
180.000000 1.588
182.500000 1.539
185.000000 1.493
187.500000 1.448
190.000000 1.404
192.500000 1.362
195.000000 1.322
197.500000 1.283
200.000000 1.245
203.000000 1.202
206.000000 1.162
209.000000 1.123
212.000000 1.086
214.000000 1.062
218.000000 1.017
220.000000 0.995
224.000000 0.955
227.000000 0.927
230.000000 0.900
233.000000 0.875
236.000000 0.851
240.000000 0.821
243.000000 0.800
247.000000 0.774
250.000000 0.755
254.000000 0.732
258.000000 0.710
262.000000 0.688
265.000000 0.672
269.000000 0.653
272.000000 0.639
276.000000 0.621
280.000000 0.604
285.000000 0.583
290.000000 0.564
295.000000 0.546
300.000000 0.528
304.000000 0.516
307.000000 0.506
311.000000 0.494
315.000000 0.482
320.000000 0.468
325.000000 0.455
330.000000 0.443
335.000000 0.431
340.000000 0.420
345.000000 0.409
350.000000 0.399
355.000000 0.390
360.000000 0.381
365.000000 0.372
370.000000 0.363
375.000000 0.354
382.000000 0.342
387.000000 0.334
395.000000 0.319
400.000000 0.310
406.000000 0.298
412.000000 0.286
418.000000 0.274
425.000000 0.260
431.000000 0.247
437.000000 0.234
444.000000 0.219
450.000000 0.206
455.000000 0.195
462.000000 0.180
468.000000 0.167
475.000000 0.152
482.000000 0.137
487.000000 0.127
494.000000 0.112
500.000000 0.100
508.000000 0.083
515.000000 0.068
522.000000 0.054
530.000000 0.038
538.000000 0.022
545.000000 0.009
552.000000 -0.004
560.000000 -0.018
570.000000 -0.034
580.000000 -0.049
590.000000 -0.063
600.000000 -0.076
608.000000 -0.087
615.000000 -0.096
622.000000 -0.104
630.000000 -0.114
640.000000 -0.127
650.000000 -0.140
660.000000 -0.153
670.000000 -0.167
680.000000 -0.181
690.000000 -0.195
700.000000 -0.210
710.000000 -0.225
720.000000 -0.239
730.000000 -0.253
740.000000 -0.265
750.000000 -0.277
762.000000 -0.288
775.000000 -0.298
788.000000 -0.304
800.000000 -0.308
812.000000 -0.308
825.000000 -0.306
838.000000 -0.300
850.000000 -0.292
862.000000 -0.281
875.000000 -0.268
885.000000 -0.256
900.000000 -0.236
912.000000 -0.218
925.000000 -0.196
938.000000 -0.171
950.000000 -0.146
962.000000 -0.118
975.000000 -0.083
988.000000 -0.044
1000.000000 -0.003
1015.000000 0.054
1030.000000 0.118
1044.000000 0.182
1060.000000 0.260
1075.000000 0.337
1090.000000 0.414
1106.000000 0.495
1120.000000 0.564
1138.000000 0.651
1150.000000 0.706
1172.000000 0.804
1180.000000 0.839
1206.000000 0.950
1220.000000 1.011
1241.000000 1.102
1250.000000 1.142
1265.000000 1.209
1280.000000 1.278
1315.000000 1.439
1320.000000 1.462
1340.000000 1.555
1360.000000 1.647
1380.000000 1.738
1400.000000 1.827
1430.000000 1.955
1450.000000 2.038
1475.000000 2.138
1500.000000 2.235
1525.000000 2.329
1550.000000 2.421
1575.000000 2.511
1600.000000 2.599
1625.000000 2.685
1650.000000 2.770
1675.000000 2.855
1700.000000 2.941
1725.000000 3.028
1750.000000 3.118
1775.000000 3.210
1800.000000 3.308
1825.000000 3.409
1850.000000 3.515
1875.000000 3.625
1900.000000 3.741
1925.000000 3.861
1950.000000 3.988
1975.000000 4.120
2000.000000 4.259
2030.000000 4.434
2060.000000 4.618
2090.000000 4.811
2120.000000 5.011
2140.000000 5.147
2180.000000 5.420
2200.000000 5.554
2240.000000 5.813
2270.000000 5.994
2300.000000 6.162
2330.000000 6.318
2360.000000 6.463
2400.000000 6.644
2430.000000 6.773
2470.000000 6.936
2500.000000 7.055
2540.000000 7.209
2580.000000 7.357
2620.000000 7.500
2650.000000 7.604
2690.000000 7.736
2720.000000 7.830
2760.000000 7.945
2800.000000 8.048
2850.000000 8.159
2900.000000 8.249
2950.000000 8.319
3000.000000 8.369
3040.000000 8.394
3070.000000 8.405
3110.000000 8.409
3150.000000 8.401
3200.000000 8.377
3250.000000 8.338
3300.000000 8.284
3350.000000 8.216
3400.000000 8.137
3450.000000 8.049
3500.000000 7.953
3550.000000 7.852
3600.000000 7.747
3650.000000 7.639
3700.000000 7.529
3750.000000 7.420
3820.000000 7.269
3870.000000 7.164
3950.000000 7.003
4000.000000 6.907
4060.000000 6.798
4120.000000 6.692
4180.000000 6.588
4250.000000 6.465
4310.000000 6.356
4370.000000 6.243
4440.000000 6.107
4500.000000 5.989
4550.000000 5.892
4620.000000 5.759
4680.000000 5.650
4750.000000 5.528
4820.000000 5.411
4870.000000 5.331
4940.000000 5.224
5000.000000 5.137
5080.000000 5.031
5150.000000 4.947
5220.000000 4.872
5300.000000 4.793
5380.000000 4.719
5450.000000 4.656
5520.000000 4.593
5600.000000 4.519
5700.000000 4.424
5800.000000 4.330
5900.000000 4.239
6000.000000 4.154
6080.000000 4.092
6150.000000 4.044
6220.000000 4.003
6300.000000 3.964
6400.000000 3.929
6500.000000 3.907
6600.000000 3.900
6700.000000 3.905
6800.000000 3.922
6900.000000 3.946
7000.000000 3.976
7100.000000 4.007
7200.000000 4.035
7300.000000 4.057
7400.000000 4.068
7500.000000 4.064
7620.000000 4.035
7750.000000 3.970
7880.000000 3.863
8000.000000 3.724
8120.000000 3.542
8250.000000 3.299
8380.000000 3.011
8500.000000 2.711
8620.000000 2.387
8750.000000 2.019
8850.000000 1.737
9000.000000 1.334
9120.000000 1.048
9250.000000 0.793
9380.000000 0.606
9500.000000 0.497
9620.000000 0.450
9750.000000 0.465
9880.000000 0.546
10000.000000 0.683
10150.000000 0.932
10300.000000 1.256
10440.000000 1.596
10600.000000 1.966
10750.000000 2.227
10900.000000 2.351
11060.000000 2.322
11200.000000 2.173
11380.000000 1.852
11500.000000 1.583
11720.000000 1.012
11800.000000 0.795
12060.000000 0.109
12200.000000 -0.208
12410.000000 -0.567
12500.000000 -0.680
12650.000000 -0.816
12800.000000 -0.893
13150.000000 -0.947
13200.000000 -0.947
13400.000000 -0.940
13600.000000 -0.937
13800.000000 -0.956
14000.000000 -1.004
14300.000000 -1.126
14500.000000 -1.232
14750.000000 -1.371
15000.000000 -1.488
15250.000000 -1.557
15500.000000 -1.559
15750.000000 -1.490
16000.000000 -1.356
16250.000000 -1.174
16500.000000 -0.966
16750.000000 -0.755
17000.000000 -0.560
17250.000000 -0.398
17500.000000 -0.285
17750.000000 -0.240
18000.000000 -0.283
18250.000000 -0.433
18500.000000 -0.711
18750.000000 -1.126
19000.000000 -1.680
19250.000000 -2.379
19500.000000 -3.300
19750.000000 -4.717
20000.000000 -6.900
