* Measurement data measured by REW V5.30.2
* Source: Headset (JA3 HIFI AUDIO(CX31993)), MICROPHONE (Master Volume), L, volume: 0.200. Timing signal peak level -35.5 dBFS, measurement signal peak level -35.4 dBFS
* Format: 2M Log Swept Sine, 1 sweep at -12.0 dBFS using an acoustic timing reference
* Dated: Feb 15, 2024 7:33:51 PM
* REW Settings:
*  C-weighting compensation: Off
*  Target level: 75.0 dB
* Note: ; Delay -0.0465 ms (-16 mm, -0.63 in) using estimated IR delay relative to Acoustic reference played from  R with no timing offset Clock adjustment: 2.9 ppm
* Measurement: QDC Gemini OFF R
* Smoothing: 1/24 octave
* Frequency Step: 1/48 octave
* Start Frequency: 1.000 Hz
*
* Freq(Hz) SPL(dB) Phase(degrees)
1.000000 76.990 178.1581
1.015000 77.293 175.3367
1.030000 77.592 172.6125
1.044000 77.866 170.1691
1.060000 78.171 167.5076
1.075000 78.449 165.1523
1.090000 78.717 162.9458
1.106000 78.992 160.7620
1.120000 79.233 158.9537
1.138000 79.546 156.7505
1.150000 79.755 155.3541
1.172000 80.141 152.9359
1.180000 80.282 152.0997
1.206000 80.739 149.5298
1.220000 80.984 148.2335
1.241000 81.351 146.3935
1.250000 81.507 145.6406
1.265000 81.766 144.4297
1.280000 82.022 143.2696
1.315000 82.609 140.7345
1.320000 82.691 140.3895
1.340000 83.015 139.0453
1.360000 83.331 137.7505
1.380000 83.639 136.4941
1.400000 83.935 135.2650
1.430000 84.359 133.4489
1.450000 84.626 132.2404
1.475000 84.939 130.7269
1.500000 85.233 129.3142
1.525000 85.509 128.0189
1.550000 85.767 126.8287
1.575000 86.011 125.7312
1.600000 86.240 124.7143
1.625000 86.458 123.7656
1.650000 86.665 122.8730
1.675000 86.863 122.0241
1.700000 87.054 121.2067
1.725000 87.239 120.4085
1.750000 87.419 119.6173
1.775000 87.596 118.8208
1.800000 87.772 118.0067
1.825000 87.948 117.1628
1.850000 88.123 116.2959
1.875000 88.289 115.4449
1.900000 88.448 114.6111
1.925000 88.600 113.7937
1.950000 88.745 112.9919
1.975000 88.885 112.2050
2.000000 89.020 111.4324
2.030000 89.177 110.5228
2.060000 89.329 109.6313
2.090000 89.479 108.7567
2.120000 89.627 107.8976
2.140000 89.725 107.3329
2.180000 89.922 106.2211
2.200000 90.022 105.6732
2.240000 90.220 104.6082
2.270000 90.366 103.8377
2.300000 90.510 103.0883
2.330000 90.652 102.3570
2.360000 90.791 101.6408
2.400000 90.973 100.7043
2.430000 91.106 100.0120
2.470000 91.279 99.0966
2.500000 91.406 98.4120
2.540000 91.571 97.4963
2.580000 91.731 96.5723
2.620000 91.885 95.6494
2.650000 91.997 94.9606
2.690000 92.141 94.0477
2.720000 92.247 93.3680
2.760000 92.384 92.4692
2.800000 92.517 91.5804
2.850000 92.678 90.4855
2.900000 92.835 89.4109
2.950000 92.988 88.3592
3.000000 93.135 87.3309
3.040000 93.248 86.5232
3.070000 93.331 85.9255
3.110000 93.438 85.1379
3.150000 93.542 84.3600
3.200000 93.669 83.3989
3.250000 93.791 82.4482
3.300000 93.910 81.5049
3.350000 94.025 80.5703
3.400000 94.134 79.6465
3.450000 94.240 78.7342
3.500000 94.341 77.8338
3.550000 94.439 76.9460
3.600000 94.534 76.0711
3.650000 94.625 75.2100
3.700000 94.713 74.3629
3.750000 94.798 73.5296
3.820000 94.910 72.3853
3.870000 94.986 71.5830
3.950000 95.103 70.3245
4.000000 95.173 69.5528
4.060000 95.255 68.6416
4.120000 95.333 67.7486
4.180000 95.407 66.8733
4.250000 95.490 65.8726
4.310000 95.558 65.0310
4.370000 95.623 64.2030
4.440000 95.697 63.2537
4.500000 95.757 62.4564
4.550000 95.804 61.8032
4.620000 95.869 60.9048
4.680000 95.921 60.1491
4.750000 95.981 59.2829
4.820000 96.039 58.4342
4.870000 96.079 57.8398
4.940000 96.132 57.0228
5.000000 96.176 56.3353
5.080000 96.232 55.4348
5.150000 96.280 54.6602
5.220000 96.325 53.9000
5.300000 96.375 53.0491
5.380000 96.422 52.2158
5.450000 96.462 51.5000
5.520000 96.500 50.7962
5.600000 96.542 50.0082
5.700000 96.592 49.0466
5.800000 96.638 48.1082
5.900000 96.683 47.1908
6.000000 96.724 46.2954
6.080000 96.756 45.5951
6.150000 96.782 44.9936
6.220000 96.807 44.4023
6.300000 96.835 43.7393
6.400000 96.867 42.9299
6.500000 96.897 42.1416
6.600000 96.926 41.3737
6.700000 96.953 40.6270
6.800000 96.978 39.9011
6.900000 97.003 39.1948
7.000000 97.026 38.5071
7.100000 97.048 37.8395
7.200000 97.070 37.1905
7.300000 97.090 36.5582
7.400000 97.110 35.9420
7.500000 97.129 35.3429
7.620000 97.152 34.6448
7.750000 97.175 33.9117
7.880000 97.197 33.2040
8.000000 97.216 32.5717
8.120000 97.235 31.9578
8.250000 97.255 31.3144
8.380000 97.274 30.6924
8.500000 97.291 30.1361
8.620000 97.307 29.5977
8.750000 97.324 29.0334
8.850000 97.337 28.6122
9.000000 97.356 28.0023
9.120000 97.370 27.5312
9.250000 97.387 27.0372
9.380000 97.405 26.5608
9.500000 97.420 26.1322
9.620000 97.433 25.7126
9.750000 97.445 25.2697
9.880000 97.452 24.8358
10.000000 97.451 24.4413
10.150000 97.442 23.9586
10.300000 97.427 23.4917
10.440000 97.405 23.0716
10.600000 97.378 22.6050
10.750000 97.354 22.1790
10.900000 97.330 21.7632
11.060000 97.305 21.3204
11.200000 97.285 20.9337
11.380000 97.260 20.4438
11.500000 97.242 20.1228
11.720000 97.210 19.5460
11.800000 97.198 19.3407
12.060000 97.163 18.6884
12.200000 97.145 18.3434
12.410000 97.120 17.8371
12.500000 97.108 17.6270
12.650000 97.089 17.2853
12.800000 97.070 16.9547
13.150000 97.026 16.2284
13.200000 97.020 16.1285
13.400000 96.999 15.7399
13.600000 96.981 15.3606
13.800000 96.967 14.9890
14.000000 96.955 14.6138
14.300000 96.939 14.0403
14.500000 96.928 13.6495
14.750000 96.915 13.1588
15.000000 96.901 12.6702
15.250000 96.888 12.1915
15.500000 96.876 11.7350
15.750000 96.865 11.3065
16.000000 96.854 10.9092
16.250000 96.847 10.5314
16.500000 96.842 10.1667
16.750000 96.842 9.8069
17.000000 96.844 9.4484
17.250000 96.848 9.0919
17.500000 96.854 8.7396
17.750000 96.861 8.3957
18.000000 96.869 8.0577
18.250000 96.879 7.7229
18.500000 96.891 7.3785
18.750000 96.904 7.0162
19.000000 96.917 6.6283
19.250000 96.927 6.2127
19.500000 96.930 5.7847
19.750000 96.925 5.3580
20.000000 96.911 4.9645
20.299999 96.887 4.5654
20.600000 96.859 4.2642
20.900000 96.835 4.0582
21.200001 96.823 3.9150
21.400000 96.822 3.8232
21.799999 96.835 3.5934
22.000000 96.845 3.4333
22.400000 96.864 3.0081
22.700001 96.869 2.6252
23.000000 96.864 2.2324
23.299999 96.851 1.8665
23.600000 96.835 1.5454
24.000000 96.815 1.1875
24.299999 96.806 0.9473
24.700001 96.804 0.6210
25.000000 96.805 0.3495
25.400000 96.807 -0.0518
25.799999 96.804 -0.4717
26.200001 96.796 -0.8728
26.500000 96.789 -1.1473
26.900000 96.784 -1.4813
27.200001 96.784 -1.7226
27.600000 96.789 -2.0577
28.000000 96.794 -2.4272
28.500000 96.796 -2.9244
29.000000 96.787 -3.4029
29.500000 96.773 -3.8148
30.000000 96.762 -4.1724
30.400000 96.758 -4.4581
30.700001 96.755 -4.6876
31.100000 96.749 -5.0123
31.500000 96.739 -5.3367
32.000000 96.721 -5.7012
32.500000 96.706 -6.0119
33.000000 96.699 -6.3143
33.500000 96.699 -6.6558
34.000000 96.697 -7.0385
34.500000 96.694 -7.4292
35.000000 96.689 -7.8108
35.500000 96.685 -8.1942
36.000000 96.678 -8.5849
36.500000 96.668 -8.9592
37.000000 96.658 -9.2954
37.500000 96.655 -9.6202
38.200001 96.654 -10.1599
38.700001 96.640 -10.5966
39.500000 96.595 -11.1302
40.000000 96.578 -11.3191
40.599998 96.584 -11.5687
41.200001 96.596 -12.0058
41.799999 96.584 -12.5345
42.500000 96.546 -12.9910
43.099998 96.527 -13.2242
43.700001 96.530 -13.4896
44.400002 96.534 -13.9391
45.000000 96.523 -14.3553
45.500000 96.507 -14.6573
46.200001 96.488 -15.0212
46.799999 96.477 -15.3290
47.500000 96.466 -15.7140
48.200001 96.453 -16.1195
48.700001 96.443 -16.4153
49.400002 96.425 -16.8303
50.000000 96.407 -17.1718
50.799999 96.384 -17.5854
51.500000 96.369 -17.9257
52.200001 96.359 -18.2794
53.000000 96.347 -18.7000
53.799999 96.333 -19.1183
54.500000 96.320 -19.4847
55.200001 96.305 -19.8473
56.000000 96.286 -20.2469
57.000000 96.260 -20.7418
58.000000 96.230 -21.2215
59.000000 96.201 -21.6722
60.000000 96.175 -22.1276
60.799999 96.156 -22.5027
61.500000 96.140 -22.8415
62.200001 96.123 -23.1902
63.000000 96.102 -23.5895
64.000000 96.073 -24.0650
65.000000 96.045 -24.5092
66.000000 96.020 -24.9445
67.000000 95.995 -25.3774
68.000000 95.968 -25.8138
69.000000 95.937 -26.2366
70.000000 95.906 -26.6377
71.000000 95.876 -27.0489
72.000000 95.843 -27.4485
73.000000 95.815 -27.8425
74.000000 95.787 -28.2645
75.000000 95.756 -28.6818
76.199997 95.721 -29.1622
77.500000 95.682 -29.6809
78.800003 95.644 -30.1620
80.000000 95.612 -30.6084
81.199997 95.576 -31.0712
82.500000 95.533 -31.5472
83.800003 95.493 -32.0028
85.000000 95.457 -32.4314
86.199997 95.422 -32.8585
87.500000 95.384 -33.3148
88.500000 95.357 -33.6606
90.000000 95.313 -34.2116
91.199997 95.272 -34.6313
92.500000 95.229 -35.0445
93.800003 95.192 -35.4634
95.000000 95.156 -35.8473
96.199997 95.120 -36.2382
97.500000 95.078 -36.6265
98.800003 95.040 -37.0317
100.000000 95.002 -37.3848
101.500000 94.959 -37.8553
103.000000 94.909 -38.2753
104.400002 94.869 -38.7032
106.000000 94.813 -39.1195
107.500000 94.770 -39.5904
109.000000 94.711 -39.9749
110.599998 94.672 -40.4589
112.000000 94.613 -40.8806
113.800003 94.573 -41.2762
115.000000 94.540 -41.7433
117.199997 94.447 -42.1431
118.000000 94.440 -42.3186
120.599998 94.339 -43.2049
122.000000 94.280 -43.3328
124.099998 94.286 -43.8202
125.000000 94.270 -44.2883
126.500000 94.186 -44.8667
128.000000 94.108 -45.0522
131.500000 94.060 -45.4493
132.000000 94.064 -45.6205
134.000000 94.032 -46.4961
136.000000 93.965 -47.0472
138.000000 93.920 -47.7311
140.000000 93.784 -48.4799
143.000000 93.647 -48.3782
145.000000 93.658 -49.1243
147.500000 93.501 -50.4866
150.000000 93.389 -50.3735
152.500000 93.517 -49.8317
155.000000 93.619 -50.1369
157.500000 93.567 -51.0276
160.000000 93.455 -51.7787
162.500000 93.340 -52.1598
165.000000 93.257 -52.4369
167.500000 93.240 -52.3935
170.000000 93.150 -51.7261
172.500000 92.856 -51.7814
175.000000 92.631 -53.9841
177.500000 92.823 -56.1794
180.000000 93.089 -55.3767
182.500000 92.930 -53.3221
185.000000 92.499 -53.9126
187.500000 92.392 -56.5839
190.000000 92.599 -57.6283
192.500000 92.605 -56.6864
195.000000 92.386 -56.4091
197.500000 92.283 -57.3323
200.000000 92.327 -57.7827
203.000000 92.268 -57.5711
206.000000 92.107 -58.0573
209.000000 92.066 -58.3535
212.000000 92.107 -58.3407
214.000000 92.093 -58.7775
218.000000 91.973 -59.6334
220.000000 91.910 -59.6206
224.000000 91.848 -59.8746
227.000000 91.817 -60.6953
230.000000 91.765 -61.2084
233.000000 91.711 -61.4435
236.000000 91.638 -61.7797
240.000000 91.556 -62.1968
243.000000 91.534 -62.2974
247.000000 91.478 -62.5900
250.000000 91.395 -63.0105
254.000000 91.310 -63.2576
258.000000 91.258 -63.4827
262.000000 91.181 -63.9810
265.000000 91.152 -64.3782
269.000000 91.171 -64.4297
272.000000 91.201 -64.1953
276.000000 91.163 -64.5219
280.000000 91.096 -65.3621
285.000000 91.000 -66.1312
290.000000 90.893 -66.5504
295.000000 90.831 -66.9038
300.000000 90.775 -67.3337
304.000000 90.730 -67.5896
307.000000 90.698 -67.7563
311.000000 90.659 -68.0131
315.000000 90.626 -68.2782
320.000000 90.589 -68.6124
325.000000 90.533 -69.0099
330.000000 90.473 -69.3671
335.000000 90.430 -69.6649
340.000000 90.393 -69.9725
345.000000 90.350 -70.2522
350.000000 90.299 -70.5245
355.000000 90.248 -70.7757
360.000000 90.213 -71.0374
365.000000 90.183 -71.2864
370.000000 90.151 -71.4807
375.000000 90.119 -71.6907
382.000000 90.083 -72.0759
387.000000 90.057 -72.3370
395.000000 90.006 -72.6635
400.000000 89.995 -72.8699
406.000000 89.977 -73.2087
412.000000 89.946 -73.5259
418.000000 89.919 -73.7455
425.000000 89.887 -73.9177
431.000000 89.860 -74.1271
437.000000 89.835 -74.3907
444.000000 89.816 -74.6682
450.000000 89.803 -74.8815
455.000000 89.793 -75.0690
462.000000 89.783 -75.3351
468.000000 89.773 -75.5240
475.000000 89.764 -75.7026
482.000000 89.763 -75.8640
487.000000 89.761 -76.0048
494.000000 89.762 -76.2292
500.000000 89.766 -76.4135
508.000000 89.769 -76.6424
515.000000 89.777 -76.8196
522.000000 89.794 -77.0036
530.000000 89.812 -77.2362
538.000000 89.824 -77.4470
545.000000 89.841 -77.5920
552.000000 89.862 -77.7221
560.000000 89.885 -77.8822
570.000000 89.913 -78.1373
580.000000 89.951 -78.3845
590.000000 89.993 -78.6010
600.000000 90.042 -78.8235
608.000000 90.081 -79.0143
615.000000 90.110 -79.1774
622.000000 90.142 -79.3148
630.000000 90.184 -79.4803
640.000000 90.237 -79.7286
650.000000 90.290 -79.9774
660.000000 90.346 -80.2040
670.000000 90.403 -80.4363
680.000000 90.464 -80.6669
690.000000 90.528 -80.8837
700.000000 90.595 -81.1039
710.000000 90.664 -81.3350
720.000000 90.736 -81.5636
730.000000 90.810 -81.7944
740.000000 90.885 -82.0334
750.000000 90.962 -82.2733
762.000000 91.055 -82.5630
775.000000 91.158 -82.8875
788.000000 91.264 -83.2242
800.000000 91.363 -83.5472
812.000000 91.465 -83.8746
825.000000 91.578 -84.2302
838.000000 91.693 -84.6079
850.000000 91.800 -84.9785
862.000000 91.910 -85.3557
875.000000 92.029 -85.7871
885.000000 92.120 -86.1378
900.000000 92.260 -86.6795
912.000000 92.372 -87.1332
925.000000 92.493 -87.6530
938.000000 92.614 -88.1882
950.000000 92.726 -88.7018
962.000000 92.836 -89.2449
975.000000 92.952 -89.8505
988.000000 93.067 -90.4655
1000.000000 93.175 -91.0751
1015.000000 93.304 -91.8806
1030.000000 93.426 -92.6642
1044.000000 93.537 -93.4211
1060.000000 93.662 -94.3555
1075.000000 93.774 -95.2295
1090.000000 93.884 -96.1060
1106.000000 94.002 -97.0738
1120.000000 94.103 -97.9316
1138.000000 94.226 -99.0316
1150.000000 94.303 -99.7665
1172.000000 94.435 -101.1210
1180.000000 94.480 -101.6109
1206.000000 94.617 -103.1757
1220.000000 94.686 -104.0039
1241.000000 94.786 -105.2300
1250.000000 94.826 -105.7460
1265.000000 94.890 -106.5916
1280.000000 94.949 -107.4169
1315.000000 95.073 -109.2550
1320.000000 95.089 -109.5073
1340.000000 95.142 -110.4932
1360.000000 95.172 -111.4391
1380.000000 95.196 -112.3419
1400.000000 95.231 -113.2029
1430.000000 95.288 -114.4185
1450.000000 95.323 -115.1816
1475.000000 95.365 -116.0790
1500.000000 95.406 -116.9183
1525.000000 95.443 -117.7028
1550.000000 95.476 -118.4345
1575.000000 95.510 -119.1229
1600.000000 95.545 -119.7672
1625.000000 95.581 -120.3801
1650.000000 95.621 -120.9701
1675.000000 95.661 -121.5348
1700.000000 95.703 -122.0817
1725.000000 95.748 -122.6179
1750.000000 95.793 -123.1396
1775.000000 95.839 -123.6475
1800.000000 95.887 -124.1458
1825.000000 95.938 -124.6391
1850.000000 95.991 -125.1328
1875.000000 96.045 -125.6294
1900.000000 96.100 -126.1299
1925.000000 96.157 -126.6379
1950.000000 96.213 -127.1558
1975.000000 96.270 -127.6852
2000.000000 96.326 -128.2271
2030.000000 96.393 -128.9000
2060.000000 96.459 -129.5951
2090.000000 96.523 -130.3145
2120.000000 96.583 -131.0630
2140.000000 96.622 -131.5772
2180.000000 96.695 -132.6389
2200.000000 96.726 -133.1854
2240.000000 96.777 -134.3079
2270.000000 96.807 -135.1727
2300.000000 96.829 -136.0502
2330.000000 96.841 -136.9366
2360.000000 96.844 -137.8259
2400.000000 96.832 -139.0004
2430.000000 96.811 -139.8621
2470.000000 96.767 -140.9731
2500.000000 96.723 -141.7659
2540.000000 96.650 -142.7557
2580.000000 96.561 -143.6583
2620.000000 96.458 -144.4613
2650.000000 96.372 -144.9941
2690.000000 96.245 -145.5931
2720.000000 96.142 -145.9479
2760.000000 95.996 -146.2797
2800.000000 95.844 -146.4269
2850.000000 95.653 -146.3381
2900.000000 95.472 -145.9396
2950.000000 95.312 -145.2351
3000.000000 95.188 -144.2635
3040.000000 95.123 -143.3450
3070.000000 95.097 -142.6083
3110.000000 95.094 -141.6119
3150.000000 95.125 -140.6619
3200.000000 95.204 -139.6218
3250.000000 95.312 -138.8043
3300.000000 95.433 -138.2294
3350.000000 95.553 -137.8660
3400.000000 95.667 -137.6566
3450.000000 95.774 -137.5427
3500.000000 95.875 -137.4775
3550.000000 95.969 -137.4329
3600.000000 96.059 -137.3937
3650.000000 96.145 -137.3499
3700.000000 96.231 -137.3030
3750.000000 96.319 -137.2561
3820.000000 96.447 -137.1940
3870.000000 96.543 -137.1620
3950.000000 96.710 -137.1667
4000.000000 96.826 -137.2325
4060.000000 96.978 -137.4127
4120.000000 97.146 -137.7458
4180.000000 97.327 -138.2878
4250.000000 97.549 -139.2736
4310.000000 97.733 -140.4965
4370.000000 97.892 -142.1273
4440.000000 98.026 -144.5873
4500.000000 98.074 -147.1670
4550.000000 98.049 -149.5980
4620.000000 97.888 -153.2604
4680.000000 97.618 -156.4172
4750.000000 97.143 -159.7959
4820.000000 96.512 -162.5031
4870.000000 95.982 -163.8661
4940.000000 95.160 -164.8301
5000.000000 94.408 -164.7143
5080.000000 93.385 -163.1890
5150.000000 92.517 -160.6273
5220.000000 91.711 -156.9957
5300.000000 90.903 -151.6628
5380.000000 90.256 -145.2738
5450.000000 89.854 -139.0212
5520.000000 89.626 -132.3719
5600.000000 89.591 -124.5951
5700.000000 89.879 -115.1385
5800.000000 90.498 -106.5746
5900.000000 91.381 -99.4156
6000.000000 92.447 -94.0205
6080.000000 93.373 -91.1315
6150.000000 94.201 -89.6774
6220.000000 95.014 -89.2443
6300.000000 95.874 -90.0322
6400.000000 96.752 -92.7072
6500.000000 97.341 -96.5294
6600.000000 97.630 -100.5793
6700.000000 97.666 -104.0578
6800.000000 97.538 -106.4279
6900.000000 97.365 -107.5786
7000.000000 97.232 -107.6946
7100.000000 97.175 -107.0361
7200.000000 97.220 -105.8922
7300.000000 97.382 -104.5627
7400.000000 97.668 -103.3359
7500.000000 98.077 -102.5027
7620.000000 98.730 -102.4814
7750.000000 99.559 -104.3807
7880.000000 100.281 -109.0428
8000.000000 100.667 -115.9909
8120.000000 100.613 -124.6296
8250.000000 99.968 -133.8271
8380.000000 98.809 -140.7195
8500.000000 97.476 -144.2142
8620.000000 96.071 -145.1392
8750.000000 94.598 -143.8754
8850.000000 93.546 -141.7185
9000.000000 92.148 -137.1491
9120.000000 91.193 -132.7712
9250.000000 90.288 -127.5600
9380.000000 89.510 -121.8278
9500.000000 88.926 -116.2396
9620.000000 88.476 -110.5809
9750.000000 88.146 -104.6360
9880.000000 87.955 -99.2942
10000.000000 87.826 -95.0770
10150.000000 87.656 -90.3440
10300.000000 87.513 -85.9650
10440.000000 87.413 -82.6687
10600.000000 87.205 -80.2278
10750.000000 86.754 -78.5573
10900.000000 85.999 -75.9102
11060.000000 85.000 -70.4934
11200.000000 84.190 -63.4073
11380.000000 83.511 -52.3559
11500.000000 83.334 -44.7040
11720.000000 83.473 -31.7050
11800.000000 83.619 -27.5345
12060.000000 84.201 -16.0106
12200.000000 84.544 -10.5916
12410.000000 85.165 -3.5442
12500.000000 85.449 -1.1890
12650.000000 85.879 1.7865
12800.000000 86.206 3.8170
13150.000000 86.419 7.0214
13200.000000 86.389 7.5328
13400.000000 86.169 10.1765
13600.000000 85.869 13.9561
13800.000000 85.589 18.8076
14000.000000 85.400 24.4974
14300.000000 85.372 34.1483
14500.000000 85.606 41.0164
14750.000000 86.320 49.2782
15000.000000 87.602 55.4320
15250.000000 89.306 56.4845
15500.000000 90.783 49.0740
15750.000000 91.108 34.5941
16000.000000 89.966 21.5441
16250.000000 87.874 15.7131
16500.000000 85.454 16.8822
16750.000000 83.095 23.8828
17000.000000 81.142 35.0545
17250.000000 79.802 48.4836
17500.000000 79.152 62.7126
17750.000000 79.207 75.9178
18000.000000 79.710 86.0984
18250.000000 80.295 92.9438
18500.000000 80.867 97.5223
18750.000000 81.477 100.6146
19000.000000 82.018 102.6777
19250.000000 82.230 104.4554
19500.000000 81.954 106.9406
19750.000000 81.268 110.7463
20000.000000 80.312 115.8233
20300.000000 79.035 123.1655
20600.000000 77.857 131.0812
20900.000000 76.789 134.1559
21200.000000 75.700 88.1959
21400.000000 74.857 -66.9794
21800.000000 72.407 62.3333
22000.000000 70.377 179.2107
22400.000000 63.981 140.2422
22700.000000 58.252 -169.2363
23000.000000 54.705 -75.4727
23300.000000 53.814 -113.7344
23600.000000 53.567 75.2422
24000.000000 53.168 -50.2500
