* Measurement data measured by REW V5.20.13
* Source: Trace Arithmetic result A / B
* Format: Trace Arithmetic result A / B
* Dated: Feb 24, 2024 9:16:49 PM
* REW Settings:
*  C-weighting compensation: Off
*  Target level: 75.0 dB
* Note: ; Trace Arithmetic A over B A = QKZ x HBB Khan S2 R B = iPhone calib 
* Measurement: QKZ x HBB Khan S2 R
* Smoothing: 1/24 octave
* Frequency Step: 1/48 octave
* Start Frequency: 20.000 Hz
*
* Freq(Hz) SPL(dB)
20.000000 70.104
20.299999 70.237
20.600000 70.303
20.900000 70.375
21.200001 70.453
21.400000 70.508
21.799999 70.609
22.000000 70.656
22.400000 70.750
22.700001 70.822
23.000000 70.889
23.299999 70.950
23.600000 71.015
24.000000 71.104
24.299999 71.165
24.700001 71.252
25.000000 71.313
25.400000 71.379
25.799999 71.433
26.200001 71.481
26.500000 71.521
26.900000 71.598
27.200001 71.661
27.600000 71.737
28.000000 71.820
28.500000 71.937
29.000000 72.020
29.500000 72.080
30.000000 72.161
30.400000 72.231
30.700001 72.279
31.100000 72.330
31.500000 72.369
32.000000 72.425
32.500000 72.509
33.000000 72.612
33.500000 72.695
34.000000 72.775
34.500000 72.856
35.000000 72.925
35.500000 72.977
36.000000 73.030
36.500000 73.083
37.000000 73.108
37.500000 73.124
38.200001 73.161
38.700001 73.177
39.500000 73.184
40.000000 73.200
40.599998 73.224
41.200001 73.266
41.799999 73.333
42.500000 73.406
43.099998 73.459
43.700001 73.511
44.400002 73.579
45.000000 73.623
45.500000 73.658
46.200001 73.729
46.799999 73.791
47.500000 73.841
48.200001 73.890
48.700001 73.935
49.400002 73.996
50.000000 74.043
50.799999 74.116
51.500000 74.154
52.200001 74.157
53.000000 74.147
53.799999 74.136
54.500000 74.134
55.200001 74.142
56.000000 74.141
57.000000 74.083
58.000000 73.994
59.000000 73.936
60.000000 73.943
60.799999 73.995
61.500000 74.071
62.200001 74.143
63.000000 74.195
64.000000 74.259
65.000000 74.328
66.000000 74.350
67.000000 74.324
68.000000 74.286
69.000000 74.249
70.000000 74.204
71.000000 74.171
72.000000 74.181
73.000000 74.210
74.000000 74.203
75.000000 74.151
76.199997 74.080
77.500000 74.059
78.800003 74.053
80.000000 74.035
81.199997 74.008
82.500000 73.959
83.800003 73.891
85.000000 73.831
86.199997 73.777
87.500000 73.740
88.500000 73.727
90.000000 73.682
91.199997 73.602
92.500000 73.511
93.800003 73.428
95.000000 73.319
96.199997 73.197
97.500000 73.115
98.800003 73.081
100.000000 73.057
101.500000 73.016
103.000000 72.960
104.400002 72.888
106.000000 72.805
107.500000 72.769
109.000000 72.730
110.599998 72.636
112.000000 72.545
113.800003 72.445
115.000000 72.365
117.199997 72.219
118.000000 72.182
120.599998 72.034
122.000000 71.924
124.099998 71.774
125.000000 71.725
126.500000 71.671
128.000000 71.635
131.500000 71.461
132.000000 71.418
134.000000 71.255
136.000000 71.140
138.000000 71.025
140.000000 70.893
143.000000 70.729
145.000000 70.658
147.500000 70.533
150.000000 70.362
152.500000 70.224
155.000000 70.118
157.500000 70.005
160.000000 69.913
162.500000 69.827
165.000000 69.723
167.500000 69.598
170.000000 69.460
172.500000 69.336
175.000000 69.258
177.500000 69.213
180.000000 69.139
182.500000 69.064
185.000000 69.046
187.500000 69.031
190.000000 69.027
192.500000 69.063
195.000000 69.063
197.500000 68.980
200.000000 68.876
203.000000 68.817
206.000000 68.808
209.000000 68.793
212.000000 68.806
214.000000 68.825
218.000000 68.760
220.000000 68.704
224.000000 68.668
227.000000 68.691
230.000000 68.720
233.000000 68.737
236.000000 68.739
240.000000 68.711
243.000000 68.642
247.000000 68.557
250.000000 68.529
254.000000 68.516
258.000000 68.499
262.000000 68.491
265.000000 68.492
269.000000 68.495
272.000000 68.486
276.000000 68.470
280.000000 68.474
285.000000 68.488
290.000000 68.470
295.000000 68.454
300.000000 68.447
304.000000 68.451
307.000000 68.462
311.000000 68.466
315.000000 68.450
320.000000 68.436
325.000000 68.455
330.000000 68.501
335.000000 68.496
340.000000 68.451
345.000000 68.442
350.000000 68.463
355.000000 68.471
360.000000 68.427
365.000000 68.346
370.000000 68.313
375.000000 68.321
382.000000 68.316
387.000000 68.338
395.000000 68.334
400.000000 68.323
406.000000 68.308
412.000000 68.241
418.000000 68.171
425.000000 68.135
431.000000 68.133
437.000000 68.166
444.000000 68.207
450.000000 68.224
455.000000 68.201
462.000000 68.121
468.000000 68.061
475.000000 68.012
482.000000 68.020
487.000000 68.043
494.000000 67.994
500.000000 67.914
508.000000 67.883
515.000000 67.879
522.000000 67.832
530.000000 67.775
538.000000 67.782
545.000000 67.789
552.000000 67.774
560.000000 67.746
570.000000 67.678
580.000000 67.613
590.000000 67.627
600.000000 67.669
608.000000 67.651
615.000000 67.593
622.000000 67.542
630.000000 67.512
640.000000 67.514
650.000000 67.526
660.000000 67.510
670.000000 67.466
680.000000 67.441
690.000000 67.448
700.000000 67.431
710.000000 67.418
720.000000 67.439
730.000000 67.462
740.000000 67.455
750.000000 67.431
762.000000 67.435
775.000000 67.470
788.000000 67.493
800.000000 67.511
812.000000 67.521
825.000000 67.496
838.000000 67.512
850.000000 67.594
862.000000 67.668
875.000000 67.722
885.000000 67.764
900.000000 67.836
912.000000 67.877
925.000000 67.918
938.000000 68.011
950.000000 68.090
962.000000 68.126
975.000000 68.179
988.000000 68.276
1000.000000 68.350
1015.000000 68.407
1030.000000 68.481
1044.000000 68.543
1060.000000 68.619
1075.000000 68.727
1090.000000 68.847
1106.000000 68.950
1120.000000 69.017
1138.000000 69.112
1150.000000 69.182
1172.000000 69.308
1180.000000 69.359
1206.000000 69.524
1220.000000 69.586
1241.000000 69.671
1250.000000 69.712
1265.000000 69.787
1280.000000 69.860
1315.000000 70.011
1320.000000 70.034
1340.000000 70.104
1360.000000 70.146
1380.000000 70.184
1400.000000 70.226
1430.000000 70.343
1450.000000 70.415
1475.000000 70.502
1500.000000 70.551
1525.000000 70.629
1550.000000 70.724
1575.000000 70.819
1600.000000 70.888
1625.000000 70.943
1650.000000 70.981
1675.000000 71.034
1700.000000 71.113
1725.000000 71.177
1750.000000 71.237
1775.000000 71.314
1800.000000 71.412
1825.000000 71.496
1850.000000 71.548
1875.000000 71.634
1900.000000 71.754
1925.000000 71.868
1950.000000 71.965
1975.000000 72.046
2000.000000 72.120
2030.000000 72.213
2060.000000 72.330
2090.000000 72.453
2120.000000 72.559
2140.000000 72.630
2180.000000 72.790
2200.000000 72.873
2240.000000 73.015
2270.000000 73.102
2300.000000 73.217
2330.000000 73.346
2360.000000 73.460
2400.000000 73.608
2430.000000 73.717
2470.000000 73.873
2500.000000 73.994
2540.000000 74.158
2580.000000 74.310
2620.000000 74.469
2650.000000 74.581
2690.000000 74.718
2720.000000 74.824
2760.000000 74.975
2800.000000 75.148
2850.000000 75.307
2900.000000 75.480
2950.000000 75.686
3000.000000 75.872
3040.000000 75.993
3070.000000 76.079
3110.000000 76.213
3150.000000 76.350
3200.000000 76.486
3250.000000 76.597
3300.000000 76.703
3350.000000 76.792
3400.000000 76.868
3450.000000 76.933
3500.000000 77.003
3550.000000 77.075
3600.000000 77.138
3650.000000 77.191
3700.000000 77.215
3750.000000 77.225
3820.000000 77.227
3870.000000 77.193
3950.000000 77.114
4000.000000 77.086
4060.000000 77.025
4120.000000 76.926
4180.000000 76.810
4250.000000 76.688
4310.000000 76.585
4370.000000 76.458
4440.000000 76.271
4500.000000 76.090
4550.000000 75.956
4620.000000 75.790
4680.000000 75.664
4750.000000 75.505
4820.000000 75.327
4870.000000 75.210
4940.000000 75.062
5000.000000 74.952
5080.000000 74.785
5150.000000 74.587
5220.000000 74.401
5300.000000 74.253
5380.000000 74.142
5450.000000 74.052
5520.000000 73.964
5600.000000 73.875
5700.000000 73.742
5800.000000 73.605
5900.000000 73.480
6000.000000 73.448
6080.000000 73.445
6150.000000 73.442
6220.000000 73.447
6300.000000 73.475
6400.000000 73.553
6500.000000 73.622
6600.000000 73.730
6700.000000 73.907
6800.000000 74.119
6900.000000 74.379
7000.000000 74.667
7100.000000 74.992
7200.000000 75.357
7300.000000 75.759
7400.000000 76.199
7500.000000 76.615
7620.000000 77.076
7750.000000 77.519
7880.000000 77.791
8000.000000 77.824
8120.000000 77.754
8250.000000 77.562
8380.000000 76.914
8500.000000 76.167
8620.000000 75.511
8750.000000 74.873
8850.000000 74.392
9000.000000 73.586
9120.000000 72.861
9250.000000 71.908
9380.000000 70.735
9500.000000 69.556
9620.000000 68.303
9750.000000 66.938
9880.000000 65.710
10000.000000 64.709
10150.000000 63.663
10300.000000 62.759
10440.000000 62.028
10600.000000 61.365
10750.000000 60.834
10900.000000 60.360
11060.000000 59.917
11200.000000 59.599
11380.000000 59.249
11500.000000 59.046
11720.000000 58.672
11800.000000 58.555
12060.000000 58.287
12200.000000 58.172
12410.000000 58.068
12500.000000 58.057
12650.000000 58.088
12800.000000 58.227
13150.000000 59.002
13200.000000 59.150
13400.000000 59.935
13600.000000 61.043
13800.000000 62.254
14000.000000 63.608
14300.000000 66.416
14500.000000 68.466
14750.000000 70.538
15000.000000 72.482
15250.000000 73.544
15500.000000 73.321
15750.000000 71.997
16000.000000 69.916
16250.000000 67.885
16500.000000 66.216
16750.000000 65.105
17000.000000 64.115
17250.000000 62.856
17500.000000 61.508
17750.000000 60.184
18000.000000 58.811
18250.000000 57.371
18500.000000 56.136
18750.000000 55.043
19000.000000 53.876
19250.000000 52.559
19500.000000 51.019
19750.000000 49.426
