* Measurement data measured by REW V5.20.13
* Source: QKZ HBB S2 L Filtered
* Format: 
* Dated: Sep 28, 2023 9:50:59 PM
* REW Settings:
*  C-weighting compensation: Off
*  Target level: 75.0 dB
* Note: ; Delay -0.0664 ms (-23 mm, -0.9 in) using estimated IR delay relative to Acoustic reference played from HEADPHONE L with no timing offset PK       Fc    1750 Hz  Gain   3.00 dB  Q  1.000
* Measurement: QKZ HBB S2 L
* Smoothing: 1/24 octave
* Frequency Step: 1/48 octave
* Start Frequency: 1.000 Hz
*
* Freq(Hz) SPL(dB) Phase(degrees)
1.000000 73.163 -34.9827
1.015000 73.850 -35.6297
1.030000 74.506 -36.2516
1.044000 75.086 -36.8073
1.060000 75.704 -37.4105
1.075000 76.235 -37.9426
1.090000 76.712 -38.4400
1.106000 77.160 -38.9290
1.120000 77.522 -39.3190
1.138000 77.955 -39.7715
1.150000 78.225 -40.0448
1.172000 78.683 -40.4928
1.180000 78.839 -40.6401
1.206000 79.307 -41.0684
1.220000 79.537 -41.2709
1.241000 79.857 -41.5445
1.250000 79.985 -41.6523
1.265000 80.189 -41.8217
1.280000 80.381 -41.9809
1.315000 80.791 -42.3289
1.320000 80.847 -42.3775
1.340000 81.060 -42.5736
1.360000 81.266 -42.7774
1.380000 81.466 -42.9959
1.400000 81.664 -43.2360
1.430000 81.966 -43.6518
1.450000 82.175 -43.9762
1.475000 82.447 -44.4435
1.500000 82.705 -44.9554
1.525000 82.943 -45.5001
1.550000 83.165 -46.0721
1.575000 83.371 -46.6658
1.600000 83.564 -47.2758
1.625000 83.745 -47.8965
1.650000 83.918 -48.5224
1.675000 84.083 -49.1479
1.700000 84.242 -49.7676
1.725000 84.398 -50.3759
1.750000 84.553 -50.9672
1.775000 84.708 -51.5361
1.800000 84.866 -52.0770
1.825000 85.029 -52.5844
1.850000 85.194 -53.0557
1.875000 85.356 -53.4972
1.900000 85.514 -53.9130
1.925000 85.669 -54.3071
1.950000 85.821 -54.6835
1.975000 85.969 -55.0459
2.000000 86.116 -55.3984
2.030000 86.289 -55.8138
2.060000 86.460 -56.2272
2.090000 86.629 -56.6456
2.120000 86.797 -57.0756
2.140000 86.908 -57.3721
2.180000 87.131 -57.9977
2.200000 87.242 -58.3308
2.240000 87.464 -59.0250
2.270000 87.630 -59.5627
2.300000 87.794 -60.1126
2.330000 87.956 -60.6722
2.360000 88.117 -61.2394
2.400000 88.330 -62.0032
2.430000 88.486 -62.5789
2.470000 88.692 -63.3457
2.500000 88.843 -63.9173
2.540000 89.042 -64.6704
2.580000 89.235 -65.4097
2.620000 89.424 -66.1449
2.650000 89.563 -66.6955
2.690000 89.745 -67.4281
2.720000 89.879 -67.9762
2.760000 90.054 -68.7052
2.800000 90.226 -69.4318
2.850000 90.436 -70.3360
2.900000 90.641 -71.2354
2.950000 90.841 -72.1290
3.000000 91.036 -73.0140
3.040000 91.188 -73.7168
3.070000 91.299 -74.2418
3.110000 91.445 -74.9399
3.150000 91.588 -75.6371
3.200000 91.763 -76.5092
3.250000 91.932 -77.3842
3.300000 92.098 -78.2649
3.350000 92.258 -79.1577
3.400000 92.414 -80.0614
3.450000 92.564 -80.9694
3.500000 92.711 -81.8746
3.550000 92.853 -82.7704
3.600000 92.991 -83.6498
3.650000 93.126 -84.5061
3.700000 93.257 -85.3347
3.750000 93.383 -86.1406
3.820000 93.553 -87.2394
3.870000 93.670 -88.0095
3.950000 93.851 -89.2287
4.000000 93.960 -89.9897
4.060000 94.087 -90.9092
4.120000 94.209 -91.8342
4.180000 94.327 -92.7576
4.250000 94.459 -93.8227
4.310000 94.568 -94.7166
4.370000 94.674 -95.5850
4.440000 94.795 -96.5582
4.500000 94.894 -97.3623
4.550000 94.974 -98.0152
4.620000 95.082 -98.9089
4.680000 95.172 -99.6615
4.750000 95.275 -100.5309
4.820000 95.375 -101.3941
4.870000 95.444 -102.0033
4.940000 95.538 -102.8441
5.000000 95.617 -103.5519
5.080000 95.720 -104.4746
5.150000 95.808 -105.2597
5.220000 95.893 -106.0213
5.300000 95.989 -106.8673
5.380000 96.082 -107.6935
5.450000 96.161 -108.4055
5.520000 96.240 -109.1111
5.600000 96.328 -109.9041
5.700000 96.435 -110.8754
5.800000 96.539 -111.8293
5.900000 96.641 -112.7699
6.000000 96.740 -113.6945
6.080000 96.817 -114.4232
6.150000 96.884 -115.0537
6.220000 96.948 -115.6782
6.300000 97.021 -116.3841
6.400000 97.109 -117.2538
6.500000 97.194 -118.1119
6.600000 97.276 -118.9613
6.700000 97.356 -119.8036
6.800000 97.433 -120.6367
6.900000 97.507 -121.4577
7.000000 97.578 -122.2639
7.100000 97.646 -123.0564
7.200000 97.711 -123.8358
7.300000 97.774 -124.6017
7.400000 97.834 -125.3545
7.500000 97.892 -126.0946
7.620000 97.958 -126.9638
7.750000 98.026 -127.8800
7.880000 98.091 -128.7695
8.000000 98.149 -129.5692
8.120000 98.204 -130.3500
8.250000 98.262 -131.1731
8.380000 98.318 -131.9749
8.500000 98.367 -132.6975
8.620000 98.415 -133.4021
8.750000 98.466 -134.1481
8.850000 98.503 -134.7114
9.000000 98.557 -135.5373
9.120000 98.600 -136.1831
9.250000 98.645 -136.8688
9.380000 98.690 -137.5393
9.500000 98.728 -138.1468
9.620000 98.763 -138.7445
9.750000 98.798 -139.3801
9.880000 98.826 -140.0039
10.000000 98.844 -140.5710
10.150000 98.857 -141.2660
10.300000 98.863 -141.9385
10.440000 98.861 -142.5440
10.600000 98.854 -143.2159
10.750000 98.849 -143.8274
10.900000 98.844 -144.4227
11.060000 98.839 -145.0523
11.200000 98.837 -145.5981
11.380000 98.834 -146.2896
11.500000 98.831 -146.7437
11.720000 98.826 -147.5629
11.800000 98.825 -147.8564
12.060000 98.821 -148.7958
12.200000 98.821 -149.2968
12.410000 98.821 -150.0393
12.500000 98.820 -150.3518
12.650000 98.818 -150.8657
12.800000 98.815 -151.3700
13.150000 98.805 -152.5059
13.200000 98.804 -152.6638
13.400000 98.799 -153.2849
13.600000 98.794 -153.8899
13.800000 98.791 -154.4785
14.000000 98.787 -155.0559
14.300000 98.782 -155.9023
14.500000 98.778 -156.4531
14.750000 98.773 -157.1265
15.000000 98.769 -157.7840
15.250000 98.768 -158.4313
15.500000 98.769 -159.0662
15.750000 98.770 -159.6883
16.000000 98.770 -160.2980
16.250000 98.770 -160.8991
16.500000 98.769 -161.4917
16.750000 98.768 -162.0742
17.000000 98.766 -162.6425
17.250000 98.765 -163.1940
17.500000 98.763 -163.7255
17.750000 98.762 -164.2357
18.000000 98.762 -164.7277
18.250000 98.763 -165.2047
18.500000 98.766 -165.6743
18.750000 98.771 -166.1416
19.000000 98.777 -166.6113
19.250000 98.785 -167.0883
19.500000 98.791 -167.5696
19.750000 98.797 -168.0529
20.000000 98.799 -168.5314
20.299999 98.800 -169.0937
20.600000 98.798 -169.6387
20.900000 98.794 -170.1652
21.200001 98.789 -170.6758
21.400000 98.785 -171.0097
21.799999 98.774 -171.6642
22.000000 98.768 -171.9851
22.400000 98.754 -172.6121
22.700001 98.742 -173.0656
23.000000 98.730 -173.5039
23.299999 98.718 -173.9313
23.600000 98.706 -174.3519
24.000000 98.690 -174.9058
24.299999 98.677 -175.3142
24.700001 98.660 -175.8404
25.000000 98.647 -176.2153
25.400000 98.633 -176.6903
25.799999 98.624 -177.1580
26.200001 98.619 -177.6504
26.500000 98.616 -178.0471
26.900000 98.608 -178.6047
27.200001 98.597 -179.0242
27.600000 98.577 -179.5534
28.000000 98.555 179.9722
28.500000 98.534 179.4347
29.000000 98.522 178.8920
29.500000 98.508 178.3108
30.000000 98.487 177.7298
30.400000 98.465 177.3029
30.700001 98.449 177.0090
31.100000 98.431 176.6331
31.500000 98.416 176.2495
32.000000 98.395 175.7433
32.500000 98.367 175.2402
33.000000 98.335 174.7877
33.500000 98.305 174.3875
34.000000 98.283 173.9969
34.500000 98.266 173.5814
35.000000 98.246 173.1462
35.500000 98.224 172.7149
36.000000 98.201 172.2949
36.500000 98.180 171.8736
37.000000 98.158 171.4344
37.500000 98.134 170.9725
38.200001 98.089 170.3162
38.700001 98.049 169.8849
39.500000 97.984 169.3333
40.000000 97.954 169.0394
40.599998 97.930 168.6470
41.200001 97.906 168.1736
41.799999 97.871 167.6826
42.500000 97.823 167.1859
43.099998 97.787 166.8238
43.700001 97.758 166.4735
44.400002 97.727 166.0521
45.000000 97.701 165.6769
45.500000 97.678 165.3532
46.200001 97.641 164.8961
46.799999 97.605 164.5275
47.500000 97.563 164.1389
48.200001 97.525 163.7649
48.700001 97.498 163.4900
49.400002 97.458 163.1038
50.000000 97.423 162.7898
50.799999 97.379 162.3862
51.500000 97.341 162.0246
52.200001 97.300 161.6698
53.000000 97.255 161.2914
53.799999 97.212 160.9064
54.500000 97.173 160.5524
55.200001 97.131 160.2114
56.000000 97.084 159.8422
57.000000 97.026 159.3717
58.000000 96.964 158.9341
59.000000 96.907 158.5651
60.000000 96.862 158.1735
60.799999 96.823 157.8073
61.500000 96.780 157.4869
62.200001 96.731 157.2148
63.000000 96.678 156.9645
64.000000 96.620 156.6534
65.000000 96.562 156.3030
66.000000 96.502 155.9552
67.000000 96.443 155.6241
68.000000 96.387 155.3209
69.000000 96.336 155.0143
70.000000 96.282 154.6996
71.000000 96.228 154.4348
72.000000 96.179 154.1568
73.000000 96.122 153.8262
74.000000 96.052 153.5428
75.000000 95.985 153.3267
76.199997 95.916 153.0678
77.500000 95.845 152.7058
78.800003 95.764 152.3021
80.000000 95.681 152.0129
81.199997 95.610 151.8205
82.500000 95.555 151.5819
83.800003 95.503 151.1952
85.000000 95.433 150.8119
86.199997 95.353 150.5859
87.500000 95.281 150.4505
88.500000 95.232 150.3296
90.000000 95.158 150.1330
91.199997 95.102 149.9547
92.500000 95.039 149.7139
93.800003 94.968 149.4613
95.000000 94.894 149.2776
96.199997 94.820 149.1874
97.500000 94.753 149.1399
98.800003 94.697 149.0024
100.000000 94.640 148.7961
101.500000 94.562 148.5349
103.000000 94.486 148.3313
104.400002 94.422 148.1965
106.000000 94.352 148.0666
107.500000 94.282 147.9551
109.000000 94.209 147.8399
110.599998 94.127 147.6481
112.000000 94.049 147.4641
113.800003 93.950 147.2967
115.000000 93.891 147.2258
117.199997 93.791 147.1602
118.000000 93.757 147.1429
120.599998 93.645 147.0465
122.000000 93.585 147.0049
124.099998 93.508 146.9174
125.000000 93.475 146.8506
126.500000 93.416 146.7323
128.000000 93.348 146.6484
131.500000 93.201 146.5770
132.000000 93.181 146.5605
134.000000 93.103 146.5095
136.000000 93.029 146.4632
138.000000 92.956 146.4550
140.000000 92.882 146.4401
143.000000 92.762 146.4177
145.000000 92.694 146.4223
147.500000 92.615 146.3835
150.000000 92.528 146.3931
152.500000 92.440 146.4113
155.000000 92.349 146.4133
157.500000 92.263 146.4379
160.000000 92.183 146.4615
162.500000 92.100 146.4796
165.000000 92.017 146.5254
167.500000 91.936 146.5977
170.000000 91.861 146.6813
172.500000 91.781 146.7807
175.000000 91.701 146.9266
177.500000 91.628 147.0432
180.000000 91.557 147.1024
182.500000 91.482 147.1848
185.000000 91.407 147.3236
187.500000 91.326 147.4433
190.000000 91.243 147.5609
192.500000 91.178 147.6438
195.000000 91.119 147.6922
197.500000 91.052 147.8025
200.000000 90.983 147.9511
203.000000 90.906 148.0959
206.000000 90.836 148.2025
209.000000 90.756 148.3740
212.000000 90.669 148.6271
214.000000 90.614 148.7929
218.000000 90.518 149.0870
220.000000 90.473 149.2325
224.000000 90.376 149.4623
227.000000 90.303 149.6024
230.000000 90.235 149.8207
233.000000 90.176 150.0577
236.000000 90.120 150.2103
240.000000 90.042 150.4090
243.000000 89.983 150.6536
247.000000 89.903 150.9705
250.000000 89.842 151.1897
254.000000 89.757 151.4882
258.000000 89.680 151.7816
262.000000 89.597 152.0387
265.000000 89.539 152.3377
269.000000 89.498 152.6863
272.000000 89.463 152.7719
276.000000 89.380 152.9221
280.000000 89.296 153.2545
285.000000 89.214 153.7082
290.000000 89.151 154.1848
295.000000 89.091 154.5762
300.000000 89.027 154.9038
304.000000 88.978 155.2081
307.000000 88.945 155.4794
311.000000 88.894 155.8195
315.000000 88.833 156.1142
320.000000 88.777 156.5458
325.000000 88.723 156.9691
330.000000 88.665 157.2889
335.000000 88.602 157.6327
340.000000 88.543 158.0674
345.000000 88.497 158.4904
350.000000 88.448 158.9020
355.000000 88.393 159.3291
360.000000 88.342 159.7395
365.000000 88.291 160.1678
370.000000 88.240 160.6434
375.000000 88.192 161.0702
382.000000 88.124 161.6277
387.000000 88.072 162.0189
395.000000 87.996 162.6371
400.000000 87.954 163.0233
406.000000 87.905 163.4937
412.000000 87.858 163.9705
418.000000 87.812 164.4437
425.000000 87.761 165.0022
431.000000 87.725 165.4857
437.000000 87.689 165.9518
444.000000 87.646 166.5135
450.000000 87.605 167.0338
455.000000 87.569 167.4487
462.000000 87.525 167.9940
468.000000 87.497 168.4754
475.000000 87.461 169.0284
482.000000 87.430 169.5092
487.000000 87.413 169.8722
494.000000 87.385 170.4238
500.000000 87.356 170.8634
508.000000 87.332 171.4591
515.000000 87.315 171.9942
522.000000 87.290 172.5740
530.000000 87.266 173.1820
538.000000 87.244 173.7466
545.000000 87.224 174.2887
552.000000 87.204 174.8115
560.000000 87.188 175.3405
570.000000 87.186 176.0476
580.000000 87.177 176.7867
590.000000 87.162 177.5132
600.000000 87.151 178.2572
608.000000 87.142 178.8439
615.000000 87.133 179.3641
622.000000 87.126 179.8801
630.000000 87.123 -179.5486
640.000000 87.117 -178.8783
650.000000 87.106 -178.1353
660.000000 87.106 -177.3705
670.000000 87.101 -176.7119
680.000000 87.082 -176.0785
690.000000 87.082 -175.3682
700.000000 87.094 -174.6565
710.000000 87.095 -173.9850
720.000000 87.081 -173.3296
730.000000 87.057 -172.5727
740.000000 87.040 -171.6834
750.000000 87.046 -170.7336
762.000000 87.077 -169.5479
775.000000 87.136 -168.3660
788.000000 87.209 -167.2575
800.000000 87.322 -166.4687
812.000000 87.407 -165.8951
825.000000 87.442 -165.0901
838.000000 87.501 -164.3247
850.000000 87.560 -163.7086
862.000000 87.607 -163.1017
875.000000 87.661 -162.4336
885.000000 87.709 -161.8970
900.000000 87.782 -161.1292
912.000000 87.836 -160.5612
925.000000 87.899 -159.9453
938.000000 87.970 -159.3451
950.000000 88.037 -158.8155
962.000000 88.102 -158.3091
975.000000 88.171 -157.7821
988.000000 88.240 -157.2806
1000.000000 88.305 -156.8515
1015.000000 88.388 -156.3441
1030.000000 88.473 -155.8505
1044.000000 88.551 -155.3990
1060.000000 88.638 -154.9422
1075.000000 88.720 -154.5613
1090.000000 88.806 -154.1965
1106.000000 88.906 -153.8288
1120.000000 88.995 -153.5227
1138.000000 89.109 -153.1711
1150.000000 89.184 -152.9598
1172.000000 89.317 -152.5983
1180.000000 89.364 -152.4727
1206.000000 89.515 -152.0928
1220.000000 89.599 -151.9051
1241.000000 89.723 -151.6405
1250.000000 89.776 -151.5369
1265.000000 89.862 -151.3713
1280.000000 89.949 -151.2111
1315.000000 90.143 -150.8718
1320.000000 90.170 -150.8273
1340.000000 90.270 -150.6555
1360.000000 90.351 -150.4952
1380.000000 90.428 -150.3470
1400.000000 90.518 -150.2028
1430.000000 90.658 -149.9888
1450.000000 90.749 -149.8619
1475.000000 90.861 -149.7250
1500.000000 90.970 -149.6017
1525.000000 91.073 -149.4868
1550.000000 91.171 -149.3820
1575.000000 91.265 -149.2946
1600.000000 91.356 -149.2159
1625.000000 91.446 -149.1468
1650.000000 91.534 -149.1004
1675.000000 91.620 -149.0660
1700.000000 91.706 -149.0430
1725.000000 91.789 -149.0344
1750.000000 91.869 -149.0351
1775.000000 91.947 -149.0476
1800.000000 92.022 -149.0767
1825.000000 92.096 -149.1146
1850.000000 92.167 -149.1534
1875.000000 92.236 -149.1952
1900.000000 92.303 -149.2411
1925.000000 92.369 -149.2901
1950.000000 92.435 -149.3365
1975.000000 92.501 -149.3833
2000.000000 92.566 -149.4535
2030.000000 92.644 -149.5809
2060.000000 92.718 -149.7435
2090.000000 92.788 -149.9318
2120.000000 92.852 -150.1350
2140.000000 92.893 -150.2791
2180.000000 92.968 -150.5710
2200.000000 93.001 -150.7122
2240.000000 93.057 -150.9850
2270.000000 93.096 -151.1877
2300.000000 93.132 -151.3825
2330.000000 93.164 -151.5725
2360.000000 93.196 -151.7842
2400.000000 93.234 -152.0531
2430.000000 93.260 -152.2358
2470.000000 93.291 -152.4779
2500.000000 93.313 -152.6648
2540.000000 93.337 -152.9198
2580.000000 93.351 -153.1323
2620.000000 93.365 -153.3508
2650.000000 93.372 -153.5116
2690.000000 93.377 -153.7007
2720.000000 93.380 -153.8277
2760.000000 93.380 -153.9649
2800.000000 93.374 -154.0887
2850.000000 93.362 -154.2214
2900.000000 93.352 -154.2875
2950.000000 93.343 -154.3297
3000.000000 93.337 -154.3648
3040.000000 93.335 -154.3768
3070.000000 93.335 -154.3881
3110.000000 93.335 -154.4090
3150.000000 93.337 -154.4388
3200.000000 93.337 -154.4729
3250.000000 93.336 -154.4810
3300.000000 93.337 -154.4526
3350.000000 93.345 -154.3783
3400.000000 93.371 -154.2806
3450.000000 93.425 -154.2330
3500.000000 93.500 -154.3370
3550.000000 93.581 -154.6497
3600.000000 93.651 -155.1657
3650.000000 93.702 -155.8204
3700.000000 93.733 -156.5570
3750.000000 93.744 -157.3479
3820.000000 93.722 -158.5036
3870.000000 93.679 -159.3382
3950.000000 93.566 -160.6315
4000.000000 93.470 -161.3818
4060.000000 93.336 -162.2003
4120.000000 93.183 -162.9091
4180.000000 93.018 -163.5107
4250.000000 92.818 -164.1040
4310.000000 92.636 -164.5394
4370.000000 92.442 -164.9414
4440.000000 92.193 -165.3840
4500.000000 91.961 -165.7164
4550.000000 91.759 -165.9455
4620.000000 91.460 -166.1544
4680.000000 91.189 -166.2072
4750.000000 90.858 -166.0994
4820.000000 90.515 -165.7977
4870.000000 90.267 -165.4629
4940.000000 89.918 -164.8236
5000.000000 89.618 -164.1170
5080.000000 89.218 -162.9239
5150.000000 88.875 -161.5827
5220.000000 88.566 -160.0013
5300.000000 88.260 -158.2028
5380.000000 87.951 -156.4544
5450.000000 87.671 -154.7249
5520.000000 87.408 -152.7622
5600.000000 87.141 -150.3203
5700.000000 86.857 -147.0867
5800.000000 86.626 -143.7280
5900.000000 86.437 -140.2751
6000.000000 86.290 -136.7291
6080.000000 86.205 -133.8317
6150.000000 86.158 -131.2601
6220.000000 86.137 -128.6584
6300.000000 86.143 -125.6654
6400.000000 86.200 -121.9320
6500.000000 86.314 -118.2370
6600.000000 86.481 -114.5953
6700.000000 86.709 -111.0476
6800.000000 87.005 -107.6333
6900.000000 87.388 -104.4020
7000.000000 87.861 -101.4038
7100.000000 88.420 -98.7282
7200.000000 89.062 -96.4804
7300.000000 89.787 -94.7974
7400.000000 90.589 -93.8695
7500.000000 91.464 -93.9417
7620.000000 92.582 -95.7794
7750.000000 93.716 -100.4216
7880.000000 94.493 -107.9947
8000.000000 94.741 -116.8961
8120.000000 94.487 -125.9443
8250.000000 93.718 -134.0287
8380.000000 92.631 -139.3267
8500.000000 91.517 -141.7763
8620.000000 90.410 -142.3466
8750.000000 89.288 -141.4136
8850.000000 88.499 -139.8958
9000.000000 87.446 -136.6656
9120.000000 86.709 -133.4423
9250.000000 86.008 -129.4469
9380.000000 85.408 -125.0129
9500.000000 84.947 -120.5852
9620.000000 84.581 -115.9053
9750.000000 84.304 -110.6610
9880.000000 84.153 -105.3654
10000.000000 84.118 -100.5404
10150.000000 84.208 -94.7188
10300.000000 84.442 -89.2396
10440.000000 84.789 -84.5221
10600.000000 85.350 -79.7508
10750.000000 86.047 -76.1731
10900.000000 86.906 -73.9454
11060.000000 87.937 -73.7622
11200.000000 88.819 -76.0596
11380.000000 89.664 -82.7668
11500.000000 89.889 -89.0953
11720.000000 89.406 -101.1636
11800.000000 88.968 -104.7139
12060.000000 87.001 -110.8101
12200.000000 85.840 -110.8514
12410.000000 84.223 -107.9003
12500.000000 83.608 -105.8532
12650.000000 82.703 -101.7312
12800.000000 81.947 -96.9731
13150.000000 80.729 -84.5115
13200.000000 80.613 -82.6551
13400.000000 80.290 -75.2094
13600.000000 80.187 -67.9169
13800.000000 80.304 -61.0393
14000.000000 80.636 -54.8967
14300.000000 81.471 -48.1878
14500.000000 82.025 -46.8757
14750.000000 81.893 -45.3092
15000.000000 82.356 -34.2536
15250.000000 84.566 -28.5403
15500.000000 86.434 -34.6553
15750.000000 87.241 -46.3134
16000.000000 87.133 -56.4300
16250.000000 86.754 -62.3120
16500.000000 86.718 -66.2996
16750.000000 87.116 -73.0647
17000.000000 87.316 -86.4320
17250.000000 86.463 -104.0501
17500.000000 84.283 -117.5184
17750.000000 81.255 -122.0557
18000.000000 78.118 -119.0260
18250.000000 75.427 -111.2781
18500.000000 73.521 -101.2291
18750.000000 72.583 -90.8851
19000.000000 72.441 -81.7405
19250.000000 72.567 -74.5917
19500.000000 72.495 -69.6488
19750.000000 72.041 -66.7644
20000.000000 71.105 -65.6857
20300.000000 69.246 -66.0388
20600.000000 66.547 -66.4978
20900.000000 62.946 -65.9922
21200.000000 58.483 -70.9616
21400.000000 55.061 -102.8746
21800.000000 47.112 -1.2476
22000.000000 42.516 -174.9460
22400.000000 31.941 -102.1338
22700.000000 23.004 112.3848
23000.000000 14.705 -166.0938
23300.000000 10.582 38.5742
23600.000000 9.702 130.5078
24000.000000 9.325 138.5078
