* Measurement data measured by REW V5.20.13
* Source: Microphone (High Definition Audio Device), MICROPHONE (Master Volume), L, volume: 0.690. Timing signal peak level -18.5 dBFS, measurement signal peak level -16.2 dBFS
* Format: 512k Log Swept Sine, 1 sweep at -12.0 dBFS using an acoustic timing reference
* Dated: Dec 14, 2022 4:16:30 PM
* REW Settings:
*  C-weighting compensation: Off
*  Target level: 75.0 dB
* Note: ; Delay -0.0508 ms (-17 mm, -0.69 in) using estimated IR delay relative to Acoustic reference played from HEADPHONE L with no timing offset Clock adjustment: 120.1 ppm
* Measurement: QKZ HBB L
* Smoothing: 1/24 octave
* Frequency Step: 1/48 octave
* Start Frequency: 1.000 Hz
*
* Freq(Hz) SPL(dB) Phase(degrees)
1.000000 93.774 81.3692
1.015000 93.783 81.9240
1.030000 93.793 82.4374
1.044000 93.801 82.8761
1.060000 93.811 83.3258
1.075000 93.820 83.6935
1.090000 93.829 84.0052
1.106000 93.838 84.2724
1.120000 93.847 84.4512
1.138000 93.860 84.6105
1.150000 93.869 84.6754
1.172000 93.887 84.7150
1.180000 93.894 84.7057
1.206000 93.916 84.5968
1.220000 93.928 84.4930
1.241000 93.946 84.2857
1.250000 93.953 84.1799
1.265000 93.966 83.9839
1.280000 93.977 83.7662
1.315000 94.002 83.1938
1.320000 94.005 83.1066
1.340000 94.016 82.7492
1.360000 94.024 82.3843
1.380000 94.031 82.0204
1.400000 94.034 81.6657
1.430000 94.032 81.1691
1.450000 94.026 80.8736
1.475000 94.013 80.5523
1.500000 94.000 80.2336
1.525000 93.987 79.9041
1.550000 93.973 79.5642
1.575000 93.957 79.2142
1.600000 93.938 78.8543
1.625000 93.915 78.4848
1.650000 93.886 78.1060
1.675000 93.851 77.7182
1.700000 93.809 77.3217
1.725000 93.758 76.9168
1.750000 93.698 76.5037
1.775000 93.627 76.0828
1.800000 93.545 75.6543
1.825000 93.450 75.2185
1.850000 93.340 74.7654
1.875000 93.215 74.2745
1.900000 93.077 73.7521
1.925000 92.926 73.2056
1.950000 92.765 72.6423
1.975000 92.595 72.0699
2.000000 92.417 71.4956
2.030000 92.196 70.8145
2.060000 91.969 70.1542
2.090000 91.740 69.5277
2.120000 91.510 68.9477
2.140000 91.359 68.5932
2.180000 91.061 67.9786
2.200000 90.918 67.7257
2.240000 90.621 67.2759
2.270000 90.387 66.9725
2.300000 90.146 66.7028
2.330000 89.901 66.4707
2.360000 89.657 66.2803
2.400000 89.335 66.0980
2.430000 89.101 66.0202
2.470000 88.805 66.0025
2.500000 88.598 66.0591
2.540000 88.350 66.2350
2.580000 88.137 66.5362
2.620000 87.953 66.9769
2.650000 87.830 67.3919
2.690000 87.685 68.0449
2.720000 87.589 68.6001
2.760000 87.476 69.4145
2.800000 87.378 70.2983
2.850000 87.273 71.4754
2.900000 87.183 72.7027
2.950000 87.104 73.9653
3.000000 87.036 75.3816
3.040000 86.993 76.6153
3.070000 86.968 77.5804
3.110000 86.947 78.8969
3.150000 86.940 80.2210
3.200000 86.955 81.8425
3.250000 87.001 83.3739
3.300000 87.080 84.7593
3.350000 87.203 86.0627
3.400000 87.369 87.3389
3.450000 87.566 88.5634
3.500000 87.785 89.7117
3.550000 88.014 90.7594
3.600000 88.244 91.6819
3.650000 88.463 92.4548
3.700000 88.672 93.0582
3.750000 88.889 93.5029
3.820000 89.198 93.9024
3.870000 89.420 94.0593
3.950000 89.767 94.1511
4.000000 89.972 94.1444
4.060000 90.205 94.0907
4.120000 90.429 93.9196
4.180000 90.644 93.6423
4.250000 90.884 93.2191
4.310000 91.080 92.8003
4.370000 91.265 92.3570
4.440000 91.466 91.8158
4.500000 91.627 91.2850
4.550000 91.753 90.8065
4.620000 91.918 90.1051
4.680000 92.051 89.4968
4.750000 92.196 88.8077
4.820000 92.330 88.1422
4.870000 92.417 87.6618
4.940000 92.528 86.9895
5.000000 92.617 86.4210
5.080000 92.729 85.6867
5.150000 92.823 85.0769
5.220000 92.910 84.4905
5.300000 93.002 83.8449
5.380000 93.088 83.2269
5.450000 93.161 82.7098
5.520000 93.235 82.2166
5.600000 93.316 81.6894
5.700000 93.414 81.0727
5.800000 93.512 80.4814
5.900000 93.614 79.8973
6.000000 93.720 79.3406
6.080000 93.806 78.9051
6.150000 93.883 78.5199
6.220000 93.960 78.1218
6.300000 94.050 77.6517
6.400000 94.165 77.0535
6.500000 94.282 76.4370
6.600000 94.397 75.7951
6.700000 94.511 75.1237
6.800000 94.625 74.4283
6.900000 94.737 73.7156
7.000000 94.845 72.9903
7.100000 94.950 72.2423
7.200000 95.052 71.4829
7.300000 95.150 70.7283
7.400000 95.245 69.9850
7.500000 95.335 69.2429
7.620000 95.440 68.3675
7.750000 95.550 67.4549
7.880000 95.656 66.5741
8.000000 95.752 65.7899
8.120000 95.849 65.0371
8.250000 95.953 64.2585
8.380000 96.057 63.5074
8.500000 96.155 62.8320
8.620000 96.253 62.1783
8.750000 96.359 61.4850
8.850000 96.441 60.9563
9.000000 96.563 60.1754
9.120000 96.660 59.5610
9.250000 96.764 58.9047
9.380000 96.867 58.2583
9.500000 96.958 57.6730
9.620000 97.044 57.0986
9.750000 97.133 56.4884
9.880000 97.214 55.8962
10.000000 97.278 55.3661
10.150000 97.349 54.7260
10.300000 97.410 54.1232
10.440000 97.459 53.5981
10.600000 97.510 53.0292
10.750000 97.558 52.5224
10.900000 97.604 52.0385
11.060000 97.654 51.5218
11.200000 97.698 51.0705
11.380000 97.751 50.4960
11.500000 97.784 50.1164
11.720000 97.842 49.4306
11.800000 97.862 49.1857
12.060000 97.922 48.4036
12.200000 97.953 47.9875
12.410000 97.997 47.3719
12.500000 98.015 47.1133
12.650000 98.042 46.6897
12.800000 98.068 46.2718
13.150000 98.122 45.3132
13.200000 98.129 45.1759
13.400000 98.159 44.6257
13.600000 98.188 44.0703
13.800000 98.216 43.5086
14.000000 98.242 42.9381
14.300000 98.277 42.0674
14.500000 98.298 41.4831
14.750000 98.323 40.7521
15.000000 98.349 40.0214
15.250000 98.378 39.2855
15.500000 98.409 38.5487
15.750000 98.441 37.8134
16.000000 98.473 37.0828
16.250000 98.506 36.3570
16.500000 98.540 35.6383
16.750000 98.577 34.9311
17.000000 98.615 34.2378
17.250000 98.656 33.5590
17.500000 98.699 32.8951
17.750000 98.742 32.2471
18.000000 98.784 31.6158
18.250000 98.826 31.0019
18.500000 98.866 30.4101
18.750000 98.906 29.8424
19.000000 98.945 29.3001
19.250000 98.984 28.7809
19.500000 99.022 28.2833
19.750000 99.058 27.8061
20.000000 99.092 27.3473
20.299999 99.130 26.8184
20.600000 99.164 26.3106
20.900000 99.195 25.8215
21.200001 99.223 25.3473
21.400000 99.240 25.0361
21.799999 99.270 24.4176
22.000000 99.283 24.1064
22.400000 99.306 23.4742
22.700001 99.321 22.9923
23.000000 99.332 22.5070
23.299999 99.342 22.0205
23.600000 99.351 21.5333
24.000000 99.363 20.8816
24.299999 99.373 20.3888
24.700001 99.386 19.7249
25.000000 99.396 19.2254
25.400000 99.410 18.5672
25.799999 99.423 17.9323
26.200001 99.439 17.3284
26.500000 99.453 16.8942
26.900000 99.476 16.3336
27.200001 99.494 15.9220
27.600000 99.518 15.3829
28.000000 99.540 14.8591
28.500000 99.565 14.2363
29.000000 99.586 13.6541
29.500000 99.604 13.1068
30.000000 99.617 12.5814
30.400000 99.625 12.1675
30.700001 99.628 11.8566
31.100000 99.629 11.4383
31.500000 99.628 11.0158
32.000000 99.623 10.4896
32.500000 99.615 9.9746
33.000000 99.609 9.4686
33.500000 99.605 8.9599
34.000000 99.604 8.4412
34.500000 99.605 7.9168
35.000000 99.607 7.3952
35.500000 99.609 6.8834
36.000000 99.610 6.3875
36.500000 99.609 5.9188
37.000000 99.607 5.4870
37.500000 99.606 5.0869
38.200001 99.607 4.5421
38.700001 99.605 4.1439
39.500000 99.594 3.5122
40.000000 99.582 3.1394
40.599998 99.570 2.7064
41.200001 99.558 2.2642
41.799999 99.546 1.8082
42.500000 99.530 1.2815
43.099998 99.520 0.8440
43.700001 99.513 0.4068
44.400002 99.504 -0.1063
45.000000 99.494 -0.5302
45.500000 99.486 -0.8650
46.200001 99.475 -1.3196
46.799999 99.464 -1.7044
47.500000 99.448 -2.1305
48.200001 99.431 -2.5255
48.700001 99.421 -2.8040
49.400002 99.406 -3.2091
50.000000 99.392 -3.5643
50.799999 99.370 -4.0285
51.500000 99.352 -4.4252
52.200001 99.333 -4.8186
53.000000 99.311 -5.2571
53.799999 99.289 -5.6819
54.500000 99.268 -6.0499
55.200001 99.246 -6.4039
56.000000 99.221 -6.7816
57.000000 99.194 -7.2559
58.000000 99.169 -7.7312
59.000000 99.151 -8.2336
60.000000 99.120 -8.8162
60.799999 99.079 -9.1971
61.500000 99.048 -9.4346
62.200001 99.025 -9.6620
63.000000 98.999 -9.9532
64.000000 98.962 -10.3147
65.000000 98.924 -10.6652
66.000000 98.889 -11.0305
67.000000 98.853 -11.4235
68.000000 98.815 -11.8154
69.000000 98.776 -12.1741
70.000000 98.742 -12.5202
71.000000 98.708 -12.8691
72.000000 98.671 -13.2032
73.000000 98.632 -13.5161
74.000000 98.594 -13.8222
75.000000 98.557 -14.1246
76.199997 98.513 -14.4842
77.500000 98.467 -14.8785
78.800003 98.418 -15.2558
80.000000 98.371 -15.5856
81.199997 98.322 -15.8974
82.500000 98.270 -16.2156
83.800003 98.221 -16.5499
85.000000 98.176 -16.8704
86.199997 98.131 -17.1733
87.500000 98.084 -17.4850
88.500000 98.047 -17.7162
90.000000 97.992 -18.0394
91.199997 97.948 -18.2913
92.500000 97.899 -18.5643
93.800003 97.850 -18.8319
95.000000 97.803 -19.0719
96.199997 97.755 -19.3039
97.500000 97.703 -19.5428
98.800003 97.651 -19.7682
100.000000 97.605 -19.9671
101.500000 97.549 -20.2149
103.000000 97.491 -20.4531
104.400002 97.437 -20.6640
106.000000 97.375 -20.9072
107.500000 97.314 -21.1348
109.000000 97.253 -21.3474
110.599998 97.190 -21.5495
112.000000 97.138 -21.7150
113.800003 97.070 -21.9206
115.000000 97.025 -22.0600
117.199997 96.937 -22.3369
118.000000 96.904 -22.4399
120.599998 96.799 -22.6929
122.000000 96.753 -22.7950
124.099998 96.688 -22.9645
125.000000 96.658 -23.0380
126.500000 96.604 -23.1586
128.000000 96.548 -23.2709
131.500000 96.423 -23.5193
132.000000 96.407 -23.5541
134.000000 96.345 -23.6812
136.000000 96.286 -23.7842
138.000000 96.225 -23.8693
140.000000 96.163 -23.9438
143.000000 96.076 -24.0603
145.000000 96.021 -24.1452
147.500000 95.950 -24.2540
150.000000 95.877 -24.3412
152.500000 95.803 -24.4139
155.000000 95.731 -24.4671
157.500000 95.661 -24.5308
160.000000 95.587 -24.5863
162.500000 95.513 -24.6159
165.000000 95.444 -24.6397
167.500000 95.377 -24.6643
170.000000 95.308 -24.6893
172.500000 95.239 -24.7075
175.000000 95.168 -24.7155
177.500000 95.096 -24.7023
180.000000 95.025 -24.6862
182.500000 94.957 -24.6843
185.000000 94.891 -24.6859
187.500000 94.824 -24.6645
190.000000 94.756 -24.6166
192.500000 94.690 -24.5722
195.000000 94.625 -24.5371
197.500000 94.562 -24.5020
200.000000 94.502 -24.4621
203.000000 94.428 -24.4077
206.000000 94.353 -24.3395
209.000000 94.279 -24.2567
212.000000 94.208 -24.1643
214.000000 94.162 -24.0980
218.000000 94.072 -23.9591
220.000000 94.026 -23.8872
224.000000 93.934 -23.7286
227.000000 93.868 -23.5950
230.000000 93.803 -23.4673
233.000000 93.736 -23.3467
236.000000 93.673 -23.2174
240.000000 93.593 -23.0307
243.000000 93.532 -22.8837
247.000000 93.449 -22.6790
250.000000 93.390 -22.5171
254.000000 93.312 -22.2877
258.000000 93.237 -22.0548
262.000000 93.162 -21.8355
265.000000 93.107 -21.6702
269.000000 93.038 -21.4373
272.000000 92.987 -21.2500
276.000000 92.920 -20.9977
280.000000 92.854 -20.7545
285.000000 92.772 -20.4277
290.000000 92.697 -20.0911
295.000000 92.626 -19.7480
300.000000 92.554 -19.3809
304.000000 92.498 -19.1177
307.000000 92.458 -18.9184
311.000000 92.406 -18.6415
315.000000 92.354 -18.3718
320.000000 92.289 -18.0324
325.000000 92.225 -17.6756
330.000000 92.164 -17.3120
335.000000 92.106 -16.9346
340.000000 92.048 -16.5509
345.000000 91.990 -16.1756
350.000000 91.932 -15.8147
355.000000 91.875 -15.4527
360.000000 91.819 -15.0759
365.000000 91.765 -14.6835
370.000000 91.712 -14.2941
375.000000 91.660 -13.9136
382.000000 91.589 -13.3982
387.000000 91.541 -13.0072
395.000000 91.461 -12.3626
400.000000 91.416 -11.9688
406.000000 91.363 -11.5059
412.000000 91.312 -11.0376
418.000000 91.262 -10.5627
425.000000 91.205 -10.0128
431.000000 91.156 -9.5491
437.000000 91.109 -9.0908
444.000000 91.056 -8.5435
450.000000 91.011 -8.0733
455.000000 90.975 -7.6786
462.000000 90.926 -7.1317
468.000000 90.886 -6.6646
475.000000 90.840 -6.1158
482.000000 90.797 -5.5773
487.000000 90.770 -5.1952
494.000000 90.732 -4.6399
500.000000 90.698 -4.1557
508.000000 90.655 -3.5355
515.000000 90.621 -2.9947
522.000000 90.591 -2.4454
530.000000 90.559 -1.8256
538.000000 90.528 -1.2132
545.000000 90.501 -0.6650
552.000000 90.474 -0.1034
560.000000 90.447 0.5397
570.000000 90.416 1.3190
580.000000 90.387 2.0852
590.000000 90.358 2.8852
600.000000 90.332 3.6914
608.000000 90.309 4.3177
615.000000 90.290 4.8619
622.000000 90.273 5.4042
630.000000 90.255 6.0215
640.000000 90.235 6.7875
650.000000 90.217 7.5570
660.000000 90.202 8.3367
670.000000 90.189 9.1151
680.000000 90.180 9.8829
690.000000 90.174 10.6353
700.000000 90.171 11.3778
710.000000 90.171 12.1136
720.000000 90.171 12.8052
730.000000 90.164 13.4171
740.000000 90.140 14.0253
750.000000 90.104 14.7642
762.000000 90.074 15.8781
775.000000 90.075 17.1236
788.000000 90.090 18.2430
800.000000 90.102 19.2482
812.000000 90.119 20.2763
825.000000 90.152 21.3978
838.000000 90.195 22.4901
850.000000 90.240 23.4476
862.000000 90.287 24.3625
875.000000 90.337 25.3296
885.000000 90.377 26.0578
900.000000 90.442 27.1281
912.000000 90.498 27.9621
925.000000 90.562 28.8548
938.000000 90.629 29.7228
950.000000 90.692 30.4883
962.000000 90.757 31.2244
975.000000 90.829 32.0028
988.000000 90.903 32.7594
1000.000000 90.976 33.4286
1015.000000 91.071 34.2274
1030.000000 91.165 34.9838
1044.000000 91.253 35.6573
1060.000000 91.355 36.3820
1075.000000 91.452 37.0182
1090.000000 91.555 37.6163
1106.000000 91.674 38.1997
1120.000000 91.779 38.6693
1138.000000 91.914 39.2281
1150.000000 92.002 39.5795
1172.000000 92.161 40.1858
1180.000000 92.217 40.3970
1206.000000 92.399 41.0375
1220.000000 92.496 41.3450
1241.000000 92.641 41.7808
1250.000000 92.703 41.9560
1265.000000 92.803 42.2331
1280.000000 92.902 42.5014
1315.000000 93.122 43.1024
1320.000000 93.152 43.1860
1340.000000 93.264 43.5065
1360.000000 93.355 43.8071
1380.000000 93.442 44.0944
1400.000000 93.541 44.3786
1430.000000 93.693 44.8025
1450.000000 93.794 45.0825
1475.000000 93.917 45.4166
1500.000000 94.037 45.7285
1525.000000 94.153 46.0455
1550.000000 94.264 46.3538
1575.000000 94.372 46.6390
1600.000000 94.479 46.9174
1625.000000 94.585 47.1886
1650.000000 94.690 47.4494
1675.000000 94.794 47.6952
1700.000000 94.896 47.9313
1725.000000 94.996 48.1520
1750.000000 95.095 48.3492
1775.000000 95.192 48.5295
1800.000000 95.288 48.7018
1825.000000 95.384 48.8599
1850.000000 95.479 49.0013
1875.000000 95.572 49.1255
1900.000000 95.664 49.2301
1925.000000 95.754 49.3172
1950.000000 95.844 49.3908
1975.000000 95.932 49.4519
2000.000000 96.019 49.4986
2030.000000 96.120 49.5306
2060.000000 96.220 49.5365
2090.000000 96.319 49.5189
2120.000000 96.416 49.4805
2140.000000 96.479 49.4391
2180.000000 96.606 49.3137
2200.000000 96.666 49.2279
2240.000000 96.782 48.9942
2270.000000 96.864 48.7665
2300.000000 96.939 48.4924
2330.000000 97.005 48.1759
2360.000000 97.060 47.8327
2400.000000 97.116 47.3556
2430.000000 97.144 47.0059
2470.000000 97.167 46.5778
2500.000000 97.175 46.2998
2540.000000 97.178 45.9935
2580.000000 97.174 45.7449
2620.000000 97.166 45.5414
2650.000000 97.158 45.4132
2690.000000 97.145 45.2722
2720.000000 97.133 45.1908
2760.000000 97.113 45.1087
2800.000000 97.090 45.0465
2850.000000 97.059 45.0076
2900.000000 97.024 45.0014
2950.000000 96.985 45.0231
3000.000000 96.944 45.0830
3040.000000 96.909 45.1578
3070.000000 96.881 45.2266
3110.000000 96.842 45.3325
3150.000000 96.800 45.4593
3200.000000 96.746 45.6626
3250.000000 96.690 45.9165
3300.000000 96.630 46.2317
3350.000000 96.569 46.6376
3400.000000 96.514 47.1584
3450.000000 96.476 47.8065
3500.000000 96.467 48.5580
3550.000000 96.498 49.3266
3600.000000 96.569 49.9567
3650.000000 96.662 50.3104
3700.000000 96.752 50.3563
3750.000000 96.820 50.1655
3820.000000 96.864 49.7105
3870.000000 96.862 49.3649
3950.000000 96.818 48.8634
4000.000000 96.775 48.5895
4060.000000 96.711 48.2976
4120.000000 96.635 48.0339
4180.000000 96.549 47.7905
4250.000000 96.437 47.5288
4310.000000 96.326 47.3188
4370.000000 96.198 47.1319
4440.000000 96.028 46.9453
4500.000000 95.870 46.8096
4550.000000 95.730 46.7160
4620.000000 95.520 46.6246
4680.000000 95.327 46.5907
4750.000000 95.086 46.6022
4820.000000 94.826 46.6781
4870.000000 94.627 46.7860
4940.000000 94.330 47.0146
5000.000000 94.052 47.2662
5080.000000 93.606 47.8239
5150.000000 93.136 49.2406
5220.000000 92.760 51.9435
5300.000000 92.605 54.8345
5380.000000 92.490 56.4107
5450.000000 92.305 57.5916
5520.000000 92.093 59.0208
5600.000000 91.857 60.9162
5700.000000 91.589 63.5281
5800.000000 91.353 66.3223
5900.000000 91.151 69.2594
6000.000000 90.985 72.3162
6080.000000 90.881 74.8394
6150.000000 90.812 77.0930
6220.000000 90.765 79.3852
6300.000000 90.740 82.0401
6400.000000 90.750 85.3751
6500.000000 90.808 88.7061
6600.000000 90.917 92.0222
6700.000000 91.082 95.2787
6800.000000 91.310 98.4438
6900.000000 91.620 101.4807
7000.000000 92.019 104.3319
7100.000000 92.498 106.9423
7200.000000 93.056 109.2195
7300.000000 93.697 111.0193
7400.000000 94.422 112.1660
7500.000000 95.225 112.4302
7620.000000 96.281 111.1540
7750.000000 97.422 107.1545
7880.000000 98.281 99.9352
8000.000000 98.630 90.8056
8120.000000 98.433 80.8763
8250.000000 97.629 71.5414
8380.000000 96.404 65.2447
8500.000000 95.108 62.3035
8620.000000 93.804 61.6298
8750.000000 92.469 62.7736
8850.000000 91.522 64.6020
9000.000000 90.248 68.4029
9120.000000 89.350 72.0852
9250.000000 88.486 76.5225
9380.000000 87.723 81.2833
9500.000000 87.097 85.8900
9620.000000 86.541 90.6630
9750.000000 86.013 95.9952
9880.000000 85.562 101.4712
10000.000000 85.213 106.6380
10150.000000 84.865 113.1971
10300.000000 84.622 119.7868
10440.000000 84.487 125.8633
10600.000000 84.435 132.6044
10750.000000 84.485 138.6662
10900.000000 84.626 144.4175
11060.000000 84.872 150.1244
11200.000000 85.164 154.6842
11380.000000 85.641 159.8311
11500.000000 86.017 162.7171
11720.000000 86.806 166.5155
11800.000000 87.109 167.3103
12060.000000 88.018 167.3613
12200.000000 88.363 165.8510
12410.000000 88.558 162.2893
12500.000000 88.509 160.5956
12650.000000 88.250 158.0281
12800.000000 87.800 156.2603
13150.000000 86.356 156.8692
13200.000000 86.140 157.5171
13400.000000 85.334 161.3395
13600.000000 84.688 166.8031
13800.000000 84.269 173.4162
14000.000000 84.105 -179.1379
14300.000000 84.570 -166.7647
14500.000000 85.579 -159.9524
14750.000000 87.053 -158.7863
15000.000000 86.977 -160.3427
15250.000000 87.363 -146.6220
15500.000000 90.015 -140.7054
15750.000000 92.177 -149.3914
16000.000000 92.963 -165.9206
16250.000000 92.255 178.8284
16500.000000 90.642 171.1061
16750.000000 88.953 170.1391
17000.000000 87.710 172.6128
17250.000000 87.065 175.7207
17500.000000 86.961 177.1550
17750.000000 87.133 174.8903
18000.000000 87.123 167.9698
18250.000000 86.475 158.4501
18500.000000 85.063 150.7453
18750.000000 83.191 147.5927
19000.000000 81.285 148.6928
19250.000000 79.615 152.6903
19500.000000 78.235 158.5144
19750.000000 77.170 165.5922
20000.000000 76.410 173.3358
20300.000000 75.964 -177.9386
20600.000000 75.947 -172.1199
20900.000000 75.747 -170.3235
21200.000000 74.822 -169.1593
21400.000000 73.857 -166.5497
21800.000000 71.847 -166.1135
22000.000000 70.918 155.8283
22400.000000 68.449 -59.8097
22700.000000 65.047 -141.4121
23000.000000 60.177 -170.4932
23300.000000 56.641 -35.5898
23600.000000 56.081 20.6953
24000.000000 56.450 -23.7812
