* Measurement data measured by REW V5.20.13
* Source: Headset (DS by VECLAN.COM), MICROPHONE (Master Volume), L, volume: 0.720. Timing signal peak level -19.3 dBFS, measurement signal peak level -14.5 dBFS
* Format: 4M Log Swept Sine, 1 sweep at -12.0 dBFS using an acoustic timing reference
* Dated: Dec 5, 2023 2:38:48 PM
* REW Settings:
*  C-weighting compensation: Off
*  Target level: 75.0 dB
* Note: ; Apple + Abigail Delay -0.0611 ms (-21 mm, -0.82 in) using estimated IR delay relative to Acoustic reference played from  L with no timing offset
* Measurement: QKZ HBB S1 Foam L
* Smoothing: 1/24 octave
* Frequency Step: 1/48 octave
* Start Frequency: 1.000 Hz
*
* Freq(Hz) SPL(dB) Phase(degrees)
1.000000 72.943 18.6578
1.015000 73.163 17.9658
1.030000 73.378 17.2683
1.044000 73.573 16.6133
1.060000 73.787 15.8608
1.075000 73.979 15.1525
1.090000 74.162 14.4423
1.106000 74.346 13.6818
1.120000 74.504 13.0031
1.138000 74.701 12.1106
1.150000 74.830 11.5041
1.172000 75.061 10.3705
1.180000 75.144 9.9519
1.206000 75.405 8.5709
1.220000 75.541 7.8158
1.241000 75.741 6.6707
1.250000 75.825 6.1761
1.265000 75.962 5.3474
1.280000 76.096 4.5146
1.315000 76.397 2.5612
1.320000 76.438 2.2816
1.340000 76.602 1.1639
1.360000 76.760 0.0490
1.380000 76.914 -1.0602
1.400000 77.062 -2.1609
1.430000 77.276 -3.7901
1.450000 77.413 -4.8575
1.475000 77.576 -6.1695
1.500000 77.727 -7.4863
1.525000 77.865 -8.8120
1.550000 77.991 -10.1425
1.575000 78.107 -11.4738
1.600000 78.215 -12.8019
1.625000 78.315 -14.1228
1.650000 78.410 -15.4325
1.675000 78.500 -16.7269
1.700000 78.588 -18.0022
1.725000 78.675 -19.2542
1.750000 78.761 -20.4790
1.775000 78.849 -21.6726
1.800000 78.940 -22.8309
1.825000 79.036 -23.9499
1.850000 79.135 -25.0293
1.875000 79.233 -26.0767
1.900000 79.328 -27.0940
1.925000 79.422 -28.0830
1.950000 79.515 -29.0454
1.975000 79.607 -29.9830
2.000000 79.698 -30.8974
2.030000 79.808 -31.9664
2.060000 79.918 -33.0076
2.090000 80.029 -34.0237
2.120000 80.141 -35.0178
2.140000 80.217 -35.6698
2.180000 80.372 -36.9519
2.200000 80.451 -37.5836
2.240000 80.615 -38.8133
2.270000 80.740 -39.7024
2.300000 80.869 -40.5652
2.330000 80.998 -41.4034
2.360000 81.129 -42.2187
2.400000 81.303 -43.2732
2.430000 81.434 -44.0421
2.470000 81.605 -45.0412
2.500000 81.732 -45.7732
2.540000 81.896 -46.7295
2.580000 82.055 -47.6657
2.620000 82.210 -48.5713
2.650000 82.325 -49.2295
2.690000 82.476 -50.0804
2.720000 82.588 -50.6997
2.760000 82.734 -51.5015
2.800000 82.878 -52.2776
2.850000 83.055 -53.2145
2.900000 83.228 -54.1175
2.950000 83.397 -54.9886
3.000000 83.562 -55.8189
3.040000 83.691 -56.4539
3.070000 83.786 -56.9142
3.110000 83.911 -57.5082
3.150000 84.033 -58.0813
3.200000 84.185 -58.7709
3.250000 84.334 -59.4342
3.300000 84.481 -60.0745
3.350000 84.626 -60.6860
3.400000 84.767 -61.2649
3.450000 84.906 -61.8144
3.500000 85.043 -62.3378
3.550000 85.179 -62.8381
3.600000 85.313 -63.3186
3.650000 85.448 -63.7824
3.700000 85.581 -64.2272
3.750000 85.714 -64.6440
3.820000 85.897 -65.1886
3.870000 86.026 -65.5564
3.950000 86.233 -66.1215
4.000000 86.362 -66.4677
4.060000 86.517 -66.8803
4.120000 86.672 -67.2759
4.180000 86.826 -67.6566
4.250000 87.006 -68.0883
4.310000 87.159 -68.4534
4.370000 87.312 -68.8189
4.440000 87.491 -69.2467
4.500000 87.645 -69.6046
4.550000 87.772 -69.8995
4.620000 87.950 -70.3136
4.680000 88.102 -70.6750
4.750000 88.279 -71.1118
4.820000 88.454 -71.5656
4.870000 88.580 -71.8957
4.940000 88.754 -72.3669
5.000000 88.903 -72.7804
5.080000 89.097 -73.3475
5.150000 89.263 -73.8602
5.220000 89.426 -74.3908
5.300000 89.610 -75.0158
5.380000 89.789 -75.6548
5.450000 89.941 -76.2209
5.520000 90.089 -76.7904
5.600000 90.252 -77.4537
5.700000 90.450 -78.2963
5.800000 90.639 -79.1414
5.900000 90.822 -79.9777
6.000000 90.997 -80.8123
6.080000 91.132 -81.4777
6.150000 91.246 -82.0558
6.220000 91.358 -82.6282
6.300000 91.482 -83.2762
6.400000 91.631 -84.0796
6.500000 91.774 -84.8713
6.600000 91.913 -85.6466
6.700000 92.046 -86.4069
6.800000 92.173 -87.1527
6.900000 92.297 -87.8807
7.000000 92.418 -88.5876
7.100000 92.536 -89.2724
7.200000 92.651 -89.9391
7.300000 92.764 -90.5921
7.400000 92.876 -91.2320
7.500000 92.987 -91.8555
7.620000 93.118 -92.5913
7.750000 93.258 -93.3837
7.880000 93.397 -94.1661
8.000000 93.524 -94.8851
8.120000 93.647 -95.6080
8.250000 93.780 -96.3930
8.380000 93.909 -97.1786
8.500000 94.024 -97.9048
8.620000 94.136 -98.6326
8.750000 94.255 -99.4185
8.850000 94.343 -100.0191
9.000000 94.471 -100.9159
9.120000 94.570 -101.6271
9.250000 94.676 -102.3889
9.380000 94.778 -103.1429
9.500000 94.869 -103.8309
9.620000 94.955 -104.5108
9.750000 95.043 -105.2387
9.880000 95.122 -105.9544
10.000000 95.187 -106.6048
10.150000 95.257 -107.4027
10.300000 95.319 -108.1747
10.440000 95.369 -108.8691
10.600000 95.421 -109.6410
10.750000 95.472 -110.3457
10.900000 95.522 -111.0346
11.060000 95.577 -111.7719
11.200000 95.627 -112.4182
11.380000 95.690 -113.2474
11.500000 95.731 -113.7997
11.720000 95.804 -114.8073
11.800000 95.830 -115.1708
12.060000 95.913 -116.3427
12.200000 95.956 -116.9666
12.410000 96.019 -117.8895
12.500000 96.044 -118.2746
12.650000 96.085 -118.9042
12.800000 96.124 -119.5168
13.150000 96.211 -120.8736
13.200000 96.224 -121.0611
13.400000 96.275 -121.7942
13.600000 96.328 -122.5108
13.800000 96.383 -123.2135
14.000000 96.437 -123.9134
14.300000 96.517 -124.9613
14.500000 96.567 -125.6586
14.750000 96.628 -126.5228
15.000000 96.685 -127.3761
15.250000 96.743 -128.2166
15.500000 96.799 -129.0390
15.750000 96.853 -129.8418
16.000000 96.904 -130.6257
16.250000 96.954 -131.3976
16.500000 97.001 -132.1586
16.750000 97.045 -132.9082
17.000000 97.089 -133.6395
17.250000 97.131 -134.3492
17.500000 97.172 -135.0326
17.750000 97.213 -135.6939
18.000000 97.255 -136.3411
18.250000 97.297 -136.9831
18.500000 97.341 -137.6298
18.750000 97.386 -138.2836
19.000000 97.430 -138.9466
19.250000 97.472 -139.6165
19.500000 97.510 -140.2839
19.750000 97.545 -140.9408
20.000000 97.576 -141.5731
20.299999 97.611 -142.2936
20.600000 97.645 -142.9724
20.900000 97.680 -143.6184
21.200001 97.717 -144.2482
21.400000 97.742 -144.6681
21.799999 97.792 -145.5151
22.000000 97.814 -145.9430
22.400000 97.854 -146.7988
22.700001 97.878 -147.4257
23.000000 97.898 -148.0258
23.299999 97.916 -148.5945
23.600000 97.934 -149.1346
24.000000 97.959 -149.8237
24.299999 97.980 -150.3318
24.700001 98.010 -151.0135
25.000000 98.031 -151.5324
25.400000 98.056 -152.2301
25.799999 98.077 -152.9207
26.200001 98.095 -153.5913
26.500000 98.107 -154.0779
26.900000 98.122 -154.7071
27.200001 98.135 -155.1689
27.600000 98.151 -155.7787
28.000000 98.167 -156.3885
28.500000 98.187 -157.1515
29.000000 98.204 -157.9023
29.500000 98.220 -158.6270
30.000000 98.235 -159.3260
30.400000 98.245 -159.8759
30.700001 98.253 -160.2872
31.100000 98.262 -160.8362
31.500000 98.269 -161.3820
32.000000 98.275 -162.0459
32.500000 98.277 -162.6749
33.000000 98.279 -163.2686
33.500000 98.280 -163.8403
34.000000 98.284 -164.4062
34.500000 98.288 -164.9729
35.000000 98.292 -165.5369
35.500000 98.295 -166.0922
36.000000 98.296 -166.6324
36.500000 98.296 -167.1551
37.000000 98.295 -167.6682
37.500000 98.294 -168.1807
38.200001 98.290 -168.8903
38.700001 98.285 -169.3813
39.500000 98.277 -170.1394
40.000000 98.273 -170.6038
40.599998 98.267 -171.1572
41.200001 98.259 -171.7060
41.799999 98.250 -172.2449
42.500000 98.239 -172.8517
43.099998 98.230 -173.3502
43.700001 98.222 -173.8355
44.400002 98.215 -174.3957
45.000000 98.208 -174.8686
45.500000 98.202 -175.2523
46.200001 98.193 -175.7804
46.799999 98.185 -176.2310
47.500000 98.172 -176.7269
48.200001 98.164 -177.1778
48.700001 98.163 -177.5119
49.400002 98.160 -178.0527
50.000000 98.146 -178.5447
50.799999 98.114 -179.1176
51.500000 98.091 -179.5418
52.200001 98.073 -179.9693
53.000000 98.054 179.5223
53.799999 98.032 179.0253
54.500000 98.011 178.6014
55.200001 97.990 178.1894
56.000000 97.966 177.7361
57.000000 97.939 177.1664
58.000000 97.902 176.5935
59.000000 97.859 176.1005
60.000000 97.828 175.6640
60.799999 97.813 175.2508
61.500000 97.796 174.8543
62.200001 97.773 174.4731
63.000000 97.746 174.0632
64.000000 97.712 173.5653
65.000000 97.680 173.0917
66.000000 97.650 172.6358
67.000000 97.618 172.1950
68.000000 97.584 171.7772
69.000000 97.548 171.3780
70.000000 97.511 170.9889
71.000000 97.474 170.5929
72.000000 97.436 170.1960
73.000000 97.398 169.8178
74.000000 97.361 169.4499
75.000000 97.323 169.0836
76.199997 97.279 168.6557
77.500000 97.233 168.1936
78.800003 97.185 167.7433
80.000000 97.141 167.3515
81.199997 97.095 166.9705
82.500000 97.042 166.5899
83.800003 96.993 166.2289
85.000000 96.951 165.8800
86.199997 96.906 165.5129
87.500000 96.857 165.1476
88.500000 96.823 164.8985
90.000000 96.780 164.5081
91.199997 96.745 164.1613
92.500000 96.698 163.8026
93.800003 96.643 163.5071
95.000000 96.589 163.2926
96.199997 96.534 163.1024
97.500000 96.475 162.8980
98.800003 96.421 162.6728
100.000000 96.373 162.4172
101.500000 96.317 162.0451
103.000000 96.265 161.6812
104.400002 96.219 161.3743
106.000000 96.166 161.0750
107.500000 96.115 160.8292
109.000000 96.062 160.5884
110.599998 96.000 160.3492
112.000000 95.947 160.1458
113.800003 95.881 159.8865
115.000000 95.836 159.7177
117.199997 95.754 159.4247
118.000000 95.726 159.3184
120.599998 95.632 158.9510
122.000000 95.580 158.7767
124.099998 95.507 158.5464
125.000000 95.477 158.4489
126.500000 95.425 158.2899
128.000000 95.374 158.1397
131.500000 95.259 157.8063
132.000000 95.243 157.7585
134.000000 95.179 157.5741
136.000000 95.118 157.4185
138.000000 95.058 157.2755
140.000000 94.995 157.1322
143.000000 94.906 156.9450
145.000000 94.848 156.8199
147.500000 94.775 156.6699
150.000000 94.705 156.5453
152.500000 94.633 156.4403
155.000000 94.560 156.3367
157.500000 94.488 156.2241
160.000000 94.416 156.1210
162.500000 94.347 156.0467
165.000000 94.276 155.9929
167.500000 94.202 155.9452
170.000000 94.128 155.9083
172.500000 94.055 155.8801
175.000000 93.985 155.8485
177.500000 93.914 155.8263
180.000000 93.845 155.8136
182.500000 93.776 155.8109
185.000000 93.706 155.8167
187.500000 93.638 155.8134
190.000000 93.571 155.8168
192.500000 93.505 155.8395
195.000000 93.443 155.8708
197.500000 93.382 155.9066
200.000000 93.323 155.9436
203.000000 93.254 155.9915
206.000000 93.184 156.0321
209.000000 93.112 156.0654
212.000000 93.044 156.1352
214.000000 92.999 156.2057
218.000000 92.911 156.3452
220.000000 92.867 156.4098
224.000000 92.782 156.5377
227.000000 92.718 156.6275
230.000000 92.655 156.7262
233.000000 92.595 156.8472
236.000000 92.536 156.9687
240.000000 92.454 157.1302
243.000000 92.393 157.2722
247.000000 92.315 157.4753
250.000000 92.258 157.6262
254.000000 92.186 157.8290
258.000000 92.116 158.0315
262.000000 92.049 158.2170
265.000000 91.999 158.3569
269.000000 91.933 158.5733
272.000000 91.885 158.7476
276.000000 91.823 158.9737
280.000000 91.763 159.1932
285.000000 91.693 159.4789
290.000000 91.623 159.7830
295.000000 91.552 160.0898
300.000000 91.482 160.4236
304.000000 91.428 160.6915
307.000000 91.389 160.8688
311.000000 91.341 161.0965
315.000000 91.295 161.3418
320.000000 91.236 161.6708
325.000000 91.178 161.9954
330.000000 91.121 162.3205
335.000000 91.067 162.6475
340.000000 91.014 162.9881
345.000000 90.960 163.3439
350.000000 90.906 163.6871
355.000000 90.853 164.0312
360.000000 90.800 164.3896
365.000000 90.751 164.7410
370.000000 90.704 165.0844
375.000000 90.657 165.4293
382.000000 90.594 165.9180
387.000000 90.549 166.2693
395.000000 90.479 166.8215
400.000000 90.435 167.1597
406.000000 90.382 167.5960
412.000000 90.330 168.0476
418.000000 90.280 168.4740
425.000000 90.225 168.9721
431.000000 90.180 169.4174
437.000000 90.137 169.8405
444.000000 90.091 170.3244
450.000000 90.051 170.7539
455.000000 90.018 171.1162
462.000000 89.975 171.6212
468.000000 89.941 172.0554
475.000000 89.902 172.5581
482.000000 89.864 173.0576
487.000000 89.838 173.4167
494.000000 89.803 173.9190
500.000000 89.775 174.3542
508.000000 89.739 174.9415
515.000000 89.707 175.4535
522.000000 89.677 175.9656
530.000000 89.647 176.5522
538.000000 89.622 177.1300
545.000000 89.600 177.6357
552.000000 89.579 178.1498
560.000000 89.558 178.7363
570.000000 89.533 179.4508
580.000000 89.508 -179.8232
590.000000 89.485 -179.0919
600.000000 89.463 -178.3733
608.000000 89.444 -177.7970
615.000000 89.432 -177.2803
622.000000 89.423 -176.7536
630.000000 89.414 -176.1566
640.000000 89.403 -175.4376
650.000000 89.393 -174.7157
660.000000 89.384 -173.9791
670.000000 89.375 -173.2605
680.000000 89.368 -172.5569
690.000000 89.366 -171.8537
700.000000 89.367 -171.1585
710.000000 89.373 -170.4671
720.000000 89.381 -169.7976
730.000000 89.385 -169.1850
740.000000 89.384 -168.6048
750.000000 89.371 -167.9896
762.000000 89.349 -167.0816
775.000000 89.351 -165.9548
788.000000 89.377 -164.9064
800.000000 89.403 -164.0454
812.000000 89.422 -163.2000
825.000000 89.439 -162.2280
838.000000 89.466 -161.1871
850.000000 89.508 -160.2222
862.000000 89.564 -159.3219
875.000000 89.627 -158.4247
885.000000 89.674 -157.7659
900.000000 89.746 -156.8111
912.000000 89.808 -156.0577
925.000000 89.875 -155.2707
938.000000 89.941 -154.5081
950.000000 90.004 -153.8247
962.000000 90.071 -153.1658
975.000000 90.148 -152.4588
988.000000 90.232 -151.7650
1000.000000 90.311 -151.1635
1015.000000 90.401 -150.4926
1030.000000 90.493 -149.8592
1044.000000 90.584 -149.2947
1060.000000 90.688 -148.6661
1075.000000 90.781 -148.1040
1090.000000 90.880 -147.5958
1106.000000 90.995 -147.0950
1120.000000 91.100 -146.6859
1138.000000 91.233 -146.2059
1150.000000 91.319 -145.9016
1172.000000 91.470 -145.3735
1180.000000 91.522 -145.1898
1206.000000 91.685 -144.6418
1220.000000 91.776 -144.3792
1241.000000 91.920 -144.0080
1250.000000 91.984 -143.8539
1265.000000 92.092 -143.6122
1280.000000 92.196 -143.3793
1315.000000 92.416 -142.8739
1320.000000 92.445 -142.8074
1340.000000 92.551 -142.5417
1360.000000 92.640 -142.2760
1380.000000 92.731 -142.0236
1400.000000 92.835 -141.7864
1430.000000 92.993 -141.4370
1450.000000 93.098 -141.2132
1475.000000 93.229 -140.9427
1500.000000 93.355 -140.6920
1525.000000 93.464 -140.4313
1550.000000 93.572 -140.1729
1575.000000 93.702 -139.9923
1600.000000 93.810 -139.7850
1625.000000 93.898 -139.5807
1650.000000 93.994 -139.3951
1675.000000 94.098 -139.2271
1700.000000 94.198 -139.0637
1725.000000 94.302 -138.9120
1750.000000 94.422 -138.8054
1775.000000 94.543 -138.7140
1800.000000 94.646 -138.6166
1825.000000 94.740 -138.5453
1850.000000 94.836 -138.5019
1875.000000 94.937 -138.4748
1900.000000 95.035 -138.4658
1925.000000 95.126 -138.4537
1950.000000 95.219 -138.4696
1975.000000 95.314 -138.5053
2000.000000 95.398 -138.5487
2030.000000 95.484 -138.6415
2060.000000 95.576 -138.7602
2090.000000 95.677 -138.9082
2120.000000 95.775 -139.0864
2140.000000 95.834 -139.2151
2180.000000 95.951 -139.5252
2200.000000 96.003 -139.7040
2240.000000 96.081 -140.0504
2270.000000 96.138 -140.3408
2300.000000 96.209 -140.6788
2330.000000 96.275 -141.0278
2360.000000 96.319 -141.3572
2400.000000 96.356 -141.7791
2430.000000 96.381 -142.0810
2470.000000 96.415 -142.4680
2500.000000 96.435 -142.7281
2540.000000 96.457 -143.0434
2580.000000 96.478 -143.3141
2620.000000 96.493 -143.5459
2650.000000 96.497 -143.6963
2690.000000 96.498 -143.8568
2720.000000 96.495 -143.9499
2760.000000 96.489 -144.0500
2800.000000 96.482 -144.1342
2850.000000 96.476 -144.2232
2900.000000 96.472 -144.2883
2950.000000 96.469 -144.3299
3000.000000 96.466 -144.3403
3040.000000 96.462 -144.3591
3070.000000 96.459 -144.3742
3110.000000 96.455 -144.3805
3150.000000 96.452 -144.3719
3200.000000 96.447 -144.3540
3250.000000 96.441 -144.3363
3300.000000 96.438 -144.3217
3350.000000 96.444 -144.3265
3400.000000 96.452 -144.3413
3450.000000 96.464 -144.3700
3500.000000 96.478 -144.4140
3550.000000 96.487 -144.4701
3600.000000 96.495 -144.5467
3650.000000 96.505 -144.6582
3700.000000 96.512 -144.8076
3750.000000 96.516 -144.9895
3820.000000 96.515 -145.2939
3870.000000 96.508 -145.5566
3950.000000 96.480 -146.0354
4000.000000 96.452 -146.3643
4060.000000 96.409 -146.7925
4120.000000 96.351 -147.2438
4180.000000 96.281 -147.7018
4250.000000 96.182 -148.2278
4310.000000 96.079 -148.6643
4370.000000 95.954 -149.0750
4440.000000 95.783 -149.5088
4500.000000 95.620 -149.8370
4550.000000 95.474 -150.0712
4620.000000 95.256 -150.3235
4680.000000 95.056 -150.4626
4750.000000 94.809 -150.5192
4820.000000 94.550 -150.4644
4870.000000 94.358 -150.3662
4940.000000 94.078 -150.1819
5000.000000 93.821 -149.9894
5080.000000 93.420 -149.5247
5150.000000 92.997 -148.2967
5220.000000 92.665 -145.8461
5300.000000 92.566 -143.3518
5380.000000 92.490 -142.3022
5450.000000 92.322 -141.5661
5520.000000 92.116 -140.5310
5600.000000 91.881 -139.0451
5700.000000 91.610 -136.8828
5800.000000 91.371 -134.4850
5900.000000 91.166 -131.9369
6000.000000 90.991 -129.3012
6080.000000 90.874 -127.1359
6150.000000 90.794 -125.2038
6220.000000 90.736 -123.2457
6300.000000 90.694 -120.9887
6400.000000 90.678 -118.1563
6500.000000 90.703 -115.3525
6600.000000 90.762 -112.6128
6700.000000 90.861 -109.9795
6800.000000 91.008 -107.4771
6900.000000 91.220 -105.1184
7000.000000 91.491 -102.9438
7100.000000 91.808 -101.0074
7200.000000 92.169 -99.3801
7300.000000 92.567 -98.1609
7400.000000 92.989 -97.4331
7500.000000 93.423 -97.2662
7620.000000 93.956 -97.9111
7750.000000 94.488 -99.7237
7880.000000 94.827 -102.6467
8000.000000 94.937 -106.0864
8120.000000 94.840 -109.8194
8250.000000 94.501 -113.6372
8380.000000 93.953 -116.6645
8500.000000 93.315 -118.4405
8620.000000 92.601 -119.1412
8750.000000 91.791 -118.7426
8850.000000 91.172 -117.7219
9000.000000 90.297 -115.2262
9120.000000 89.662 -112.5433
9250.000000 89.046 -109.1131
9380.000000 88.509 -105.2819
9500.000000 88.083 -101.4614
9620.000000 87.726 -97.4172
9750.000000 87.415 -92.8343
9880.000000 87.187 -88.0779
10000.000000 87.052 -83.5723
10150.000000 86.987 -77.8482
10300.000000 87.042 -72.1070
10440.000000 87.212 -66.8391
10600.000000 87.564 -61.0927
10750.000000 88.055 -56.1965
10900.000000 88.699 -52.0483
11060.000000 89.550 -48.7693
11200.000000 90.418 -47.2162
11380.000000 91.619 -47.7287
11500.000000 92.374 -50.0723
11720.000000 93.327 -58.8367
11800.000000 93.448 -63.1214
12060.000000 92.828 -76.9970
12200.000000 91.947 -82.1969
12410.000000 90.265 -85.5322
12500.000000 89.514 -85.4971
12650.000000 88.318 -83.9583
12800.000000 87.238 -81.0341
13150.000000 85.262 -70.8410
13200.000000 85.042 -69.1344
13400.000000 84.312 -61.9346
13600.000000 83.829 -54.3452
13800.000000 83.611 -46.6966
14000.000000 83.658 -39.3792
14300.000000 84.297 -29.4803
14500.000000 85.258 -25.8869
14750.000000 86.250 -30.9229
15000.000000 85.083 -33.7414
15250.000000 84.198 -14.6106
15500.000000 85.886 -7.7692
15750.000000 86.916 -12.3599
16000.000000 87.141 -17.6706
16250.000000 86.919 -20.8866
16500.000000 86.558 -21.7137
16750.000000 86.299 -20.8072
17000.000000 86.296 -19.3575
17250.000000 86.590 -18.9113
17500.000000 87.061 -21.1493
17750.000000 87.382 -27.2182
18000.000000 87.162 -36.2854
18250.000000 86.207 -45.1105
18500.000000 84.663 -50.5439
18750.000000 82.875 -51.8969
19000.000000 81.165 -50.3851
19250.000000 79.666 -47.6198
19500.000000 78.333 -44.8511
19750.000000 77.058 -42.7268
20000.000000 75.659 -41.1826
20300.000000 73.634 -38.9648
20600.000000 71.282 -34.2035
20900.000000 68.782 -25.0290
21200.000000 66.539 -11.6793
21400.000000 65.433 -1.6502
21800.000000 64.400 15.1474
22000.000000 64.259 14.3872
22400.000000 63.454 172.6807
22700.000000 60.838 -70.8765
23000.000000 55.462 -85.6836
23300.000000 48.152 14.5703
23600.000000 42.452 -64.7148
24000.000000 41.003 113.6055
