* Measurement data measured by REW V5.20.13
* Source: Trace Arithmetic result A / B
* Format: Trace Arithmetic result A / B
* Dated: Feb 24, 2024 9:16:56 PM
* REW Settings:
*  C-weighting compensation: Off
*  Target level: 75.0 dB
* Note: ; Trace Arithmetic A over B A = QKZ x HBB Khan S1 L B = iPhone calib
* Measurement: QKZ x HBB Khan S1 L
* Smoothing: 1/24 octave
* Frequency Step: 1/48 octave
* Start Frequency: 20.000 Hz
*
* Freq(Hz) SPL(dB)
20.000000 68.961
20.299999 69.123
20.600000 69.194
20.900000 69.242
21.200001 69.285
21.400000 69.321
21.799999 69.409
22.000000 69.455
22.400000 69.550
22.700001 69.622
23.000000 69.689
23.299999 69.749
23.600000 69.816
24.000000 69.916
24.299999 69.993
24.700001 70.084
25.000000 70.141
25.400000 70.226
25.799999 70.315
26.200001 70.379
26.500000 70.422
26.900000 70.511
27.200001 70.597
27.600000 70.705
28.000000 70.793
28.500000 70.903
29.000000 71.007
29.500000 71.079
30.000000 71.157
30.400000 71.212
30.700001 71.246
31.100000 71.284
31.500000 71.321
32.000000 71.364
32.500000 71.403
33.000000 71.444
33.500000 71.498
34.000000 71.560
34.500000 71.621
35.000000 71.693
35.500000 71.768
36.000000 71.846
36.500000 71.935
37.000000 72.005
37.500000 72.066
38.200001 72.168
38.700001 72.238
39.500000 72.314
40.000000 72.326
40.599998 72.328
41.200001 72.342
41.799999 72.369
42.500000 72.418
43.099998 72.478
43.700001 72.523
44.400002 72.537
45.000000 72.560
45.500000 72.598
46.200001 72.661
46.799999 72.720
47.500000 72.801
48.200001 72.880
48.700001 72.933
49.400002 72.996
50.000000 73.043
50.799999 73.116
51.500000 73.154
52.200001 73.157
53.000000 73.147
53.799999 73.136
54.500000 73.134
55.200001 73.143
56.000000 73.148
57.000000 73.127
58.000000 73.081
59.000000 73.037
60.000000 73.059
60.799999 73.111
61.500000 73.152
62.200001 73.187
63.000000 73.241
64.000000 73.330
65.000000 73.378
66.000000 73.367
67.000000 73.344
68.000000 73.357
69.000000 73.393
70.000000 73.405
71.000000 73.403
72.000000 73.387
73.000000 73.326
74.000000 73.250
75.000000 73.201
76.199997 73.178
77.500000 73.213
78.800003 73.241
80.000000 73.211
81.199997 73.145
82.500000 73.070
83.800003 73.027
85.000000 73.036
86.199997 73.064
87.500000 73.069
88.500000 73.035
90.000000 72.946
91.199997 72.876
92.500000 72.809
93.800003 72.754
95.000000 72.694
96.199997 72.621
97.500000 72.549
98.800003 72.496
100.000000 72.460
101.500000 72.412
103.000000 72.334
104.400002 72.242
106.000000 72.146
107.500000 72.086
109.000000 72.023
110.599998 71.899
112.000000 71.783
113.800003 71.702
115.000000 71.663
117.199997 71.579
118.000000 71.544
120.599998 71.389
122.000000 71.297
124.099998 71.142
125.000000 71.064
126.500000 70.928
128.000000 70.800
131.500000 70.528
132.000000 70.492
134.000000 70.380
136.000000 70.289
138.000000 70.187
140.000000 70.077
143.000000 69.876
145.000000 69.744
147.500000 69.588
150.000000 69.415
152.500000 69.266
155.000000 69.128
157.500000 68.976
160.000000 68.796
162.500000 68.604
165.000000 68.465
167.500000 68.387
170.000000 68.304
172.500000 68.158
175.000000 67.989
177.500000 67.889
180.000000 67.838
182.500000 67.786
185.000000 67.715
187.500000 67.603
190.000000 67.515
192.500000 67.485
195.000000 67.466
197.500000 67.418
200.000000 67.345
203.000000 67.254
206.000000 67.152
209.000000 67.075
212.000000 67.083
214.000000 67.096
218.000000 67.014
220.000000 66.954
224.000000 66.885
227.000000 66.865
230.000000 66.848
233.000000 66.820
236.000000 66.774
240.000000 66.740
243.000000 66.779
247.000000 66.872
250.000000 66.911
254.000000 66.920
258.000000 66.924
262.000000 66.932
265.000000 66.909
269.000000 66.882
272.000000 66.901
276.000000 66.945
280.000000 66.973
285.000000 67.016
290.000000 67.087
295.000000 67.126
300.000000 67.075
304.000000 67.065
307.000000 67.094
311.000000 67.153
315.000000 67.199
320.000000 67.222
325.000000 67.225
330.000000 67.225
335.000000 67.173
340.000000 67.085
345.000000 67.077
350.000000 67.140
355.000000 67.201
360.000000 67.226
365.000000 67.207
370.000000 67.192
375.000000 67.197
382.000000 67.210
387.000000 67.216
395.000000 67.195
400.000000 67.146
406.000000 67.103
412.000000 67.102
418.000000 67.098
425.000000 67.068
431.000000 67.022
437.000000 67.003
444.000000 67.046
450.000000 67.073
455.000000 67.057
462.000000 67.019
468.000000 67.025
475.000000 67.053
482.000000 67.051
487.000000 67.037
494.000000 66.991
500.000000 66.947
508.000000 66.933
515.000000 66.951
522.000000 66.942
530.000000 66.934
538.000000 66.950
545.000000 66.912
552.000000 66.832
560.000000 66.775
570.000000 66.778
580.000000 66.819
590.000000 66.836
600.000000 66.837
608.000000 66.801
615.000000 66.742
622.000000 66.694
630.000000 66.681
640.000000 66.706
650.000000 66.705
660.000000 66.668
670.000000 66.642
680.000000 66.642
690.000000 66.677
700.000000 66.702
710.000000 66.708
720.000000 66.711
730.000000 66.694
740.000000 66.662
750.000000 66.632
762.000000 66.635
775.000000 66.676
788.000000 66.733
800.000000 66.802
812.000000 66.871
825.000000 66.927
838.000000 66.984
850.000000 67.042
862.000000 67.082
875.000000 67.134
885.000000 67.196
900.000000 67.284
912.000000 67.325
925.000000 67.361
938.000000 67.427
950.000000 67.493
962.000000 67.527
975.000000 67.579
988.000000 67.680
1000.000000 67.767
1015.000000 67.851
1030.000000 67.933
1044.000000 68.012
1060.000000 68.113
1075.000000 68.227
1090.000000 68.349
1106.000000 68.468
1120.000000 68.569
1138.000000 68.685
1150.000000 68.734
1172.000000 68.814
1180.000000 68.856
1206.000000 69.000
1220.000000 69.088
1241.000000 69.196
1250.000000 69.229
1265.000000 69.296
1280.000000 69.380
1315.000000 69.547
1320.000000 69.564
1340.000000 69.637
1360.000000 69.718
1380.000000 69.780
1400.000000 69.825
1430.000000 69.943
1450.000000 70.016
1475.000000 70.117
1500.000000 70.193
1525.000000 70.258
1550.000000 70.354
1575.000000 70.462
1600.000000 70.506
1625.000000 70.554
1650.000000 70.616
1675.000000 70.672
1700.000000 70.724
1725.000000 70.778
1750.000000 70.837
1775.000000 70.914
1800.000000 71.012
1825.000000 71.095
1850.000000 71.138
1875.000000 71.195
1900.000000 71.276
1925.000000 71.366
1950.000000 71.438
1975.000000 71.480
2000.000000 71.525
2030.000000 71.595
2060.000000 71.685
2090.000000 71.804
2120.000000 71.911
2140.000000 71.989
2180.000000 72.164
2200.000000 72.229
2240.000000 72.339
2270.000000 72.442
2300.000000 72.567
2330.000000 72.704
2360.000000 72.841
2400.000000 73.006
2430.000000 73.117
2470.000000 73.264
2500.000000 73.358
2540.000000 73.475
2580.000000 73.603
2620.000000 73.734
2650.000000 73.839
2690.000000 74.000
2720.000000 74.115
2760.000000 74.249
2800.000000 74.404
2850.000000 74.581
2900.000000 74.718
2950.000000 74.840
3000.000000 75.001
3040.000000 75.153
3070.000000 75.254
3110.000000 75.369
3150.000000 75.464
3200.000000 75.547
3250.000000 75.612
3300.000000 75.693
3350.000000 75.744
3400.000000 75.779
3450.000000 75.822
3500.000000 75.853
3550.000000 75.876
3600.000000 75.883
3650.000000 75.871
3700.000000 75.859
3750.000000 75.831
3820.000000 75.749
3870.000000 75.695
3950.000000 75.591
4000.000000 75.524
4060.000000 75.413
4120.000000 75.263
4180.000000 75.096
4250.000000 74.896
4310.000000 74.724
4370.000000 74.565
4440.000000 74.371
4500.000000 74.190
4550.000000 74.054
4620.000000 73.873
4680.000000 73.710
4750.000000 73.502
4820.000000 73.287
4870.000000 73.161
4940.000000 73.005
5000.000000 72.872
5080.000000 72.688
5150.000000 72.487
5220.000000 72.296
5300.000000 72.124
5380.000000 72.000
5450.000000 71.927
5520.000000 71.832
5600.000000 71.707
5700.000000 71.583
5800.000000 71.491
5900.000000 71.379
6000.000000 71.348
6080.000000 71.347
6150.000000 71.355
6220.000000 71.388
6300.000000 71.454
6400.000000 71.552
6500.000000 71.632
6600.000000 71.777
6700.000000 71.994
6800.000000 72.220
6900.000000 72.506
7000.000000 72.871
7100.000000 73.282
7200.000000 73.706
7300.000000 74.159
7400.000000 74.657
7500.000000 75.160
7620.000000 75.767
7750.000000 76.353
7880.000000 76.683
8000.000000 76.722
8120.000000 76.632
8250.000000 76.357
8380.000000 75.548
8500.000000 74.593
8620.000000 73.698
8750.000000 72.801
8850.000000 72.125
9000.000000 71.074
9120.000000 70.261
9250.000000 69.394
9380.000000 68.525
9500.000000 67.812
9620.000000 67.138
9750.000000 66.409
9880.000000 65.698
10000.000000 65.023
10150.000000 64.179
10300.000000 63.250
10440.000000 62.333
10600.000000 61.356
10750.000000 60.472
10900.000000 59.689
11060.000000 58.984
11200.000000 58.464
11380.000000 57.890
11500.000000 57.542
11720.000000 56.968
11800.000000 56.798
12060.000000 56.376
12200.000000 56.180
12410.000000 55.968
12500.000000 55.926
12650.000000 55.941
12800.000000 56.089
13150.000000 57.011
13200.000000 57.191
13400.000000 58.078
13600.000000 59.234
13800.000000 60.454
14000.000000 61.800
14300.000000 64.517
14500.000000 66.443
14750.000000 68.324
15000.000000 70.186
15250.000000 71.527
15500.000000 71.886
15750.000000 71.182
16000.000000 69.588
16250.000000 67.794
16500.000000 66.084
16750.000000 64.823
17000.000000 63.668
17250.000000 62.223
17500.000000 60.678
17750.000000 59.174
18000.000000 57.666
18250.000000 56.149
18500.000000 54.922
18750.000000 53.934
19000.000000 52.984
19250.000000 51.969
19500.000000 50.749
19750.000000 49.459
