* Measurement data measured by REW V5.20.13
* Source: Headset (DS by VECLAN.COM), MICROPHONE (Master Volume), L, volume: 0.720. Timing signal peak level -16.9 dBFS, measurement signal peak level -13.3 dBFS
* Format: 4M Log Swept Sine, 1 sweep at -12.0 dBFS using an acoustic timing reference
* Dated: Dec 5, 2023 2:54:44 PM
* REW Settings:
*  C-weighting compensation: Off
*  Target level: 75.0 dB
* Note: ; Apple + Abigail Delay -0.0586 ms (-20 mm, -0.79 in) using estimated IR delay relative to Acoustic reference played from  R with no timing offset Clock adjustment: -0.2 ppm
* Measurement: QKZ HBB S1 Spring R
* Smoothing: 1/24 octave
* Frequency Step: 1/48 octave
* Start Frequency: 1.000 Hz
*
* Freq(Hz) SPL(dB) Phase(degrees)
1.000000 67.122 22.7850
1.015000 67.261 21.5502
1.030000 67.401 20.3175
1.044000 67.531 19.1713
1.060000 67.679 17.8695
1.075000 67.816 16.6595
1.090000 67.952 15.4626
1.106000 68.097 14.1979
1.120000 68.225 13.0726
1.138000 68.393 11.5951
1.150000 68.507 10.5932
1.172000 68.719 8.7268
1.180000 68.797 8.0400
1.206000 69.053 5.7854
1.220000 69.193 4.5609
1.241000 69.403 2.7167
1.250000 69.493 1.9254
1.265000 69.644 0.6074
1.280000 69.795 -0.7069
1.315000 70.146 -3.7430
1.320000 70.195 -4.1716
1.340000 70.393 -5.8693
1.360000 70.588 -7.5347
1.380000 70.780 -9.1610
1.400000 70.969 -10.7414
1.430000 71.243 -13.0108
1.450000 71.419 -14.4463
1.475000 71.632 -16.1477
1.500000 71.837 -17.7913
1.525000 72.037 -19.3879
1.550000 72.232 -20.9362
1.575000 72.421 -22.4348
1.600000 72.607 -23.8821
1.625000 72.789 -25.2768
1.650000 72.968 -26.6174
1.675000 73.144 -27.9026
1.700000 73.318 -29.1308
1.725000 73.490 -30.3007
1.750000 73.662 -31.4108
1.775000 73.832 -32.4597
1.800000 74.003 -33.4460
1.825000 74.173 -34.3682
1.850000 74.344 -35.2156
1.875000 74.512 -35.9698
1.900000 74.677 -36.6382
1.925000 74.840 -37.2296
1.950000 75.002 -37.7524
1.975000 75.162 -38.2153
2.000000 75.320 -38.6269
2.030000 75.510 -39.0650
2.060000 75.698 -39.4565
2.090000 75.887 -39.8161
2.120000 76.076 -40.1587
2.140000 76.202 -40.3850
2.180000 76.457 -40.8522
2.200000 76.586 -41.1016
2.240000 76.845 -41.5713
2.270000 77.040 -41.8810
2.300000 77.235 -42.1592
2.330000 77.431 -42.4103
2.360000 77.627 -42.6385
2.400000 77.888 -42.9149
2.430000 78.083 -43.1070
2.470000 78.343 -43.3513
2.500000 78.536 -43.5311
2.540000 78.793 -43.7750
2.580000 79.047 -44.0286
2.620000 79.301 -44.2636
2.650000 79.490 -44.4258
2.690000 79.742 -44.6277
2.720000 79.930 -44.7717
2.760000 80.180 -44.9583
2.800000 80.428 -45.1443
2.850000 80.735 -45.3847
2.900000 81.040 -45.6445
2.950000 81.341 -45.9317
3.000000 81.640 -46.2250
3.040000 81.877 -46.4627
3.070000 82.054 -46.6444
3.110000 82.288 -46.8933
3.150000 82.520 -47.1523
3.200000 82.806 -47.4943
3.250000 83.089 -47.8612
3.300000 83.367 -48.2583
3.350000 83.640 -48.6852
3.400000 83.911 -49.1378
3.450000 84.178 -49.6135
3.500000 84.440 -50.1099
3.550000 84.698 -50.6248
3.600000 84.951 -51.1556
3.650000 85.198 -51.6999
3.700000 85.440 -52.2580
3.750000 85.677 -52.8343
3.820000 86.000 -53.6698
3.870000 86.225 -54.2855
3.950000 86.574 -55.3000
4.000000 86.784 -55.9505
4.060000 87.027 -56.7493
4.120000 87.262 -57.5802
4.180000 87.488 -58.4358
4.250000 87.742 -59.4513
4.310000 87.951 -60.3249
4.370000 88.152 -61.1905
4.440000 88.376 -62.1853
4.500000 88.559 -63.0406
4.550000 88.705 -63.7533
4.620000 88.901 -64.7457
4.680000 89.061 -65.5866
4.750000 89.240 -66.5499
4.820000 89.411 -67.4971
4.870000 89.527 -68.1697
4.940000 89.681 -69.0996
5.000000 89.807 -69.8799
5.080000 89.966 -70.8866
5.150000 90.100 -71.7279
5.220000 90.225 -72.5405
5.300000 90.359 -73.4350
5.380000 90.486 -74.2878
5.450000 90.592 -74.9952
5.520000 90.697 -75.6628
5.600000 90.810 -76.3768
5.700000 90.944 -77.2029
5.800000 91.076 -77.9640
5.900000 91.210 -78.6660
6.000000 91.342 -79.2908
6.080000 91.449 -79.7492
6.150000 91.543 -80.1338
6.220000 91.640 -80.5142
6.300000 91.753 -80.9371
6.400000 91.898 -81.4345
6.500000 92.046 -81.9239
6.600000 92.195 -82.4340
6.700000 92.347 -82.9624
6.800000 92.501 -83.5016
6.900000 92.655 -84.0617
7.000000 92.807 -84.6523
7.100000 92.958 -85.2710
7.200000 93.107 -85.9138
7.300000 93.252 -86.5781
7.400000 93.391 -87.2657
7.500000 93.527 -87.9799
7.620000 93.683 -88.8550
7.750000 93.841 -89.8067
7.880000 93.989 -90.7748
8.000000 94.117 -91.6635
8.120000 94.237 -92.5281
8.250000 94.358 -93.4495
8.380000 94.471 -94.3401
8.500000 94.571 -95.1208
8.620000 94.665 -95.8669
8.750000 94.764 -96.6388
8.850000 94.841 -97.2060
9.000000 94.953 -98.0091
9.120000 95.044 -98.6281
9.250000 95.146 -99.2851
9.380000 95.249 -99.9212
9.500000 95.344 -100.5085
9.620000 95.438 -101.1052
9.750000 95.538 -101.7550
9.880000 95.632 -102.4154
10.000000 95.709 -103.0405
10.150000 95.797 -103.8356
10.300000 95.875 -104.6288
10.440000 95.936 -105.3692
10.600000 95.999 -106.2070
10.750000 96.055 -106.9754
10.900000 96.108 -107.7307
11.060000 96.163 -108.5207
11.200000 96.210 -109.1997
11.380000 96.270 -110.0479
11.500000 96.308 -110.5945
11.720000 96.380 -111.5669
11.800000 96.407 -111.9117
12.060000 96.497 -113.0055
12.200000 96.548 -113.5926
12.410000 96.627 -114.4689
12.500000 96.660 -114.8442
12.650000 96.715 -115.4692
12.800000 96.769 -116.0926
13.150000 96.889 -117.5387
13.200000 96.906 -117.7431
13.400000 96.971 -118.5565
13.600000 97.035 -119.3544
13.800000 97.096 -120.1336
14.000000 97.156 -120.8937
14.300000 97.241 -121.9977
14.500000 97.296 -122.7084
14.750000 97.364 -123.5732
15.000000 97.432 -124.4152
15.250000 97.502 -125.2455
15.500000 97.573 -126.0620
15.750000 97.642 -126.8639
16.000000 97.709 -127.6487
16.250000 97.774 -128.4200
16.500000 97.837 -129.1800
16.750000 97.900 -129.9315
17.000000 97.962 -130.6796
17.250000 98.023 -131.4260
17.500000 98.081 -132.1734
17.750000 98.135 -132.9196
18.000000 98.184 -133.6596
18.250000 98.227 -134.3876
18.500000 98.266 -135.0871
18.750000 98.304 -135.7538
19.000000 98.342 -136.3841
19.250000 98.382 -136.9894
19.500000 98.425 -137.5838
19.750000 98.470 -138.1783
20.000000 98.516 -138.7881
20.299999 98.569 -139.5399
20.600000 98.615 -140.3045
20.900000 98.655 -141.0618
21.200001 98.687 -141.7865
21.400000 98.707 -142.2429
21.799999 98.746 -143.0974
22.000000 98.767 -143.5047
22.400000 98.813 -144.3108
22.700001 98.850 -144.9284
23.000000 98.885 -145.5625
23.299999 98.917 -146.2018
23.600000 98.946 -146.8320
24.000000 98.982 -147.6426
24.299999 99.010 -148.2300
24.700001 99.050 -149.0053
25.000000 99.081 -149.5970
25.400000 99.121 -150.4068
25.799999 99.154 -151.2231
26.200001 99.180 -152.0157
26.500000 99.198 -152.5826
26.900000 99.220 -153.3020
27.200001 99.238 -153.8235
27.600000 99.262 -154.5099
28.000000 99.286 -155.1962
28.500000 99.313 -156.0497
29.000000 99.337 -156.8791
29.500000 99.359 -157.6776
30.000000 99.379 -158.4575
30.400000 99.392 -159.0775
30.700001 99.401 -159.5413
31.100000 99.409 -160.1543
31.500000 99.415 -160.7549
32.000000 99.420 -161.4765
32.500000 99.422 -162.1586
33.000000 99.426 -162.8097
33.500000 99.431 -163.4501
34.000000 99.437 -164.0994
34.500000 99.442 -164.7581
35.000000 99.445 -165.4095
35.500000 99.446 -166.0375
36.000000 99.447 -166.6407
36.500000 99.449 -167.2301
37.000000 99.450 -167.8211
37.500000 99.448 -168.4157
38.200001 99.443 -169.2295
38.700001 99.438 -169.7896
39.500000 99.429 -170.6695
40.000000 99.422 -171.2094
40.599998 99.412 -171.8337
41.200001 99.403 -172.4327
41.799999 99.395 -173.0237
42.500000 99.385 -173.7126
43.099998 99.374 -174.2851
43.700001 99.364 -174.8306
44.400002 99.354 -175.4579
45.000000 99.343 -176.0074
45.500000 99.331 -176.4631
46.200001 99.311 -177.0812
46.799999 99.291 -177.6061
47.500000 99.261 -178.2111
48.200001 99.225 -178.7367
48.700001 99.204 -179.0508
49.400002 99.191 -179.4936
50.000000 99.187 -179.9558
50.799999 99.171 179.3474
51.500000 99.149 178.7664
52.200001 99.127 178.2272
53.000000 99.106 177.6235
53.799999 99.082 177.0375
54.500000 99.060 176.5489
55.200001 99.036 176.0827
56.000000 99.010 175.5765
57.000000 98.979 174.9514
58.000000 98.939 174.3495
59.000000 98.900 173.8006
60.000000 98.863 173.2108
60.799999 98.828 172.7168
61.500000 98.794 172.3248
62.200001 98.761 171.9645
63.000000 98.727 171.5488
64.000000 98.682 171.0170
65.000000 98.639 170.4948
66.000000 98.598 169.9772
67.000000 98.556 169.4702
68.000000 98.516 168.9901
69.000000 98.479 168.5216
70.000000 98.440 168.0088
71.000000 98.386 167.5247
72.000000 98.330 167.1558
73.000000 98.285 166.8178
74.000000 98.242 166.4556
75.000000 98.195 166.0798
76.199997 98.138 165.6220
77.500000 98.076 165.1367
78.800003 98.018 164.6630
80.000000 97.963 164.2409
81.199997 97.908 163.8444
82.500000 97.847 163.4390
83.800003 97.786 163.0455
85.000000 97.733 162.6798
86.199997 97.680 162.3089
87.500000 97.624 161.9204
88.500000 97.582 161.6332
90.000000 97.516 161.2283
91.199997 97.464 160.9316
92.500000 97.409 160.6144
93.800003 97.351 160.2891
95.000000 97.294 160.0095
96.199997 97.236 159.7602
97.500000 97.177 159.4915
98.800003 97.115 159.2229
100.000000 97.056 158.9963
101.500000 96.987 158.7056
103.000000 96.922 158.3821
104.400002 96.862 158.0851
106.000000 96.794 157.7612
107.500000 96.733 157.5009
109.000000 96.676 157.2573
110.599998 96.611 157.0119
112.000000 96.551 156.8184
113.800003 96.470 156.5945
115.000000 96.415 156.4503
117.199997 96.316 156.1656
118.000000 96.280 156.0693
120.599998 96.174 155.7762
122.000000 96.120 155.6075
124.099998 96.038 155.3811
125.000000 96.002 155.2974
126.500000 95.943 155.1733
128.000000 95.886 155.0582
131.500000 95.756 154.8186
132.000000 95.738 154.7848
134.000000 95.670 154.6341
136.000000 95.605 154.4784
138.000000 95.544 154.3312
140.000000 95.480 154.2111
143.000000 95.386 154.0818
145.000000 95.323 153.9786
147.500000 95.248 153.8207
150.000000 95.174 153.6616
152.500000 95.095 153.5949
155.000000 95.012 153.5516
157.500000 94.928 153.4860
160.000000 94.848 153.3955
162.500000 94.773 153.3236
165.000000 94.703 153.2667
167.500000 94.630 153.2164
170.000000 94.552 153.1853
172.500000 94.473 153.1580
175.000000 94.394 153.1357
177.500000 94.317 153.1519
180.000000 94.242 153.1904
182.500000 94.168 153.2188
185.000000 94.095 153.2270
187.500000 94.027 153.2158
190.000000 93.962 153.2227
192.500000 93.899 153.2649
195.000000 93.834 153.3326
197.500000 93.766 153.4178
200.000000 93.700 153.4962
203.000000 93.626 153.5628
206.000000 93.550 153.6168
209.000000 93.473 153.6888
212.000000 93.400 153.8006
214.000000 93.354 153.8876
218.000000 93.263 154.0400
220.000000 93.219 154.1122
224.000000 93.134 154.2633
227.000000 93.072 154.3737
230.000000 93.010 154.4914
233.000000 92.950 154.6275
236.000000 92.890 154.7815
240.000000 92.808 154.9988
243.000000 92.747 155.1477
247.000000 92.670 155.3253
250.000000 92.616 155.4579
254.000000 92.545 155.6628
258.000000 92.472 155.8875
262.000000 92.401 156.0961
265.000000 92.349 156.2523
269.000000 92.282 156.4818
272.000000 92.232 156.6631
276.000000 92.169 156.9044
280.000000 92.109 157.1305
285.000000 92.038 157.4110
290.000000 91.967 157.7143
295.000000 91.898 158.0255
300.000000 91.830 158.3702
304.000000 91.775 158.6479
307.000000 91.737 158.8304
311.000000 91.689 159.0647
315.000000 91.643 159.3112
320.000000 91.585 159.6296
325.000000 91.525 159.9503
330.000000 91.465 160.2798
335.000000 91.409 160.6090
340.000000 91.356 160.9462
345.000000 91.302 161.2928
350.000000 91.250 161.6370
355.000000 91.199 161.9844
360.000000 91.148 162.3398
365.000000 91.100 162.6882
370.000000 91.053 163.0323
375.000000 91.006 163.3752
382.000000 90.944 163.8578
387.000000 90.900 164.2030
395.000000 90.832 164.7479
400.000000 90.790 165.0888
406.000000 90.742 165.5219
412.000000 90.695 165.9492
418.000000 90.649 166.3676
425.000000 90.596 166.8710
431.000000 90.550 167.3015
437.000000 90.507 167.7144
444.000000 90.461 168.1935
450.000000 90.423 168.6070
455.000000 90.391 168.9504
462.000000 90.344 169.4381
468.000000 90.303 169.8730
475.000000 90.259 170.3662
482.000000 90.221 170.8431
487.000000 90.197 171.1929
494.000000 90.165 171.6797
500.000000 90.140 172.0925
508.000000 90.107 172.6486
515.000000 90.077 173.1403
522.000000 90.050 173.6351
530.000000 90.022 174.1987
538.000000 89.998 174.7467
545.000000 89.979 175.2199
552.000000 89.961 175.7039
560.000000 89.940 176.2637
570.000000 89.916 176.9417
580.000000 89.895 177.6185
590.000000 89.873 178.2996
600.000000 89.851 178.9659
608.000000 89.833 179.4914
615.000000 89.821 179.9692
622.000000 89.809 -179.5382
630.000000 89.795 -178.9814
640.000000 89.778 -178.3108
650.000000 89.764 -177.6408
660.000000 89.753 -176.9619
670.000000 89.742 -176.2930
680.000000 89.734 -175.6350
690.000000 89.729 -174.9734
700.000000 89.724 -174.3059
710.000000 89.723 -173.6313
720.000000 89.723 -172.9588
730.000000 89.721 -172.2969
740.000000 89.720 -171.6257
750.000000 89.721 -170.9349
762.000000 89.719 -170.0703
775.000000 89.720 -169.0458
788.000000 89.738 -167.9350
800.000000 89.782 -166.9285
812.000000 89.845 -166.0369
825.000000 89.913 -165.2358
838.000000 89.971 -164.5298
850.000000 90.016 -163.8802
862.000000 90.060 -163.2186
875.000000 90.109 -162.5100
885.000000 90.145 -161.9662
900.000000 90.204 -161.1550
912.000000 90.258 -160.5056
925.000000 90.320 -159.8245
938.000000 90.384 -159.1663
950.000000 90.447 -158.5773
962.000000 90.513 -158.0068
975.000000 90.585 -157.3840
988.000000 90.662 -156.7738
1000.000000 90.735 -156.2560
1015.000000 90.817 -155.6898
1030.000000 90.899 -155.1579
1044.000000 90.979 -154.6836
1060.000000 91.073 -154.1655
1075.000000 91.159 -153.7064
1090.000000 91.248 -153.2886
1106.000000 91.353 -152.8846
1120.000000 91.448 -152.5589
1138.000000 91.569 -152.1830
1150.000000 91.648 -151.9505
1172.000000 91.790 -151.5535
1180.000000 91.840 -151.4177
1206.000000 91.999 -151.0250
1220.000000 92.086 -150.8484
1241.000000 92.217 -150.6027
1250.000000 92.272 -150.4988
1265.000000 92.363 -150.3363
1280.000000 92.451 -150.1817
1315.000000 92.647 -149.8452
1320.000000 92.673 -149.8020
1340.000000 92.772 -149.6318
1360.000000 92.851 -149.4640
1380.000000 92.926 -149.3045
1400.000000 93.013 -149.1541
1430.000000 93.144 -148.9313
1450.000000 93.231 -148.7888
1475.000000 93.339 -148.6189
1500.000000 93.446 -148.4641
1525.000000 93.550 -148.3235
1550.000000 93.646 -148.1923
1575.000000 93.736 -148.0651
1600.000000 93.822 -147.9471
1625.000000 93.910 -147.8505
1650.000000 94.004 -147.7537
1675.000000 94.098 -147.6648
1700.000000 94.191 -147.5960
1725.000000 94.279 -147.5293
1750.000000 94.362 -147.4708
1775.000000 94.442 -147.4193
1800.000000 94.523 -147.3773
1825.000000 94.606 -147.3629
1850.000000 94.690 -147.3682
1875.000000 94.771 -147.3776
1900.000000 94.852 -147.4028
1925.000000 94.933 -147.4500
1950.000000 95.012 -147.5064
1975.000000 95.090 -147.5694
2000.000000 95.160 -147.6458
2030.000000 95.229 -147.7694
2060.000000 95.298 -147.9122
2090.000000 95.370 -148.0569
2120.000000 95.447 -148.2290
2140.000000 95.504 -148.3659
2180.000000 95.619 -148.6769
2200.000000 95.671 -148.8497
2240.000000 95.765 -149.2246
2270.000000 95.829 -149.5405
2300.000000 95.886 -149.8905
2330.000000 95.936 -150.2650
2360.000000 95.980 -150.6485
2400.000000 96.026 -151.1471
2430.000000 96.053 -151.5103
2470.000000 96.085 -152.0112
2500.000000 96.104 -152.3953
2540.000000 96.115 -152.9165
2580.000000 96.113 -153.4249
2620.000000 96.098 -153.8908
2650.000000 96.079 -154.2008
2690.000000 96.044 -154.5410
2720.000000 96.012 -154.7320
2760.000000 95.966 -154.8946
2800.000000 95.924 -154.9501
2850.000000 95.889 -154.9015
2900.000000 95.882 -154.8150
2950.000000 95.892 -154.7989
3000.000000 95.910 -154.8964
3040.000000 95.923 -155.0975
3070.000000 95.928 -155.3085
3110.000000 95.928 -155.6272
3150.000000 95.916 -155.9543
3200.000000 95.886 -156.3455
3250.000000 95.845 -156.6972
3300.000000 95.796 -156.9956
3350.000000 95.741 -157.2514
3400.000000 95.686 -157.4831
3450.000000 95.632 -157.6935
3500.000000 95.580 -157.8783
3550.000000 95.527 -158.0336
3600.000000 95.471 -158.1644
3650.000000 95.414 -158.2844
3700.000000 95.354 -158.4010
3750.000000 95.294 -158.5049
3820.000000 95.201 -158.6382
3870.000000 95.128 -158.7363
3950.000000 94.997 -158.8745
4000.000000 94.909 -158.9482
4060.000000 94.801 -159.0360
4120.000000 94.687 -159.1120
4180.000000 94.564 -159.1583
4250.000000 94.409 -159.1522
4310.000000 94.262 -159.0871
4370.000000 94.103 -158.9554
4440.000000 93.910 -158.7201
4500.000000 93.740 -158.4586
4550.000000 93.597 -158.2058
4620.000000 93.399 -157.8119
4680.000000 93.235 -157.4505
4750.000000 93.043 -156.9917
4820.000000 92.854 -156.4954
4870.000000 92.717 -156.1053
4940.000000 92.513 -155.4974
5000.000000 92.330 -154.9095
5080.000000 92.089 -154.0177
5150.000000 91.878 -153.1558
5220.000000 91.660 -152.1914
5300.000000 91.414 -150.8441
5380.000000 91.207 -149.3062
5450.000000 91.049 -147.9797
5520.000000 90.893 -146.6701
5600.000000 90.714 -145.1298
5700.000000 90.508 -143.1002
5800.000000 90.326 -140.9576
5900.000000 90.163 -138.7126
6000.000000 90.018 -136.3967
6080.000000 89.925 -134.4976
6150.000000 89.858 -132.7979
6220.000000 89.804 -131.0595
6300.000000 89.756 -129.0219
6400.000000 89.717 -126.3985
6500.000000 89.713 -123.6932
6600.000000 89.755 -120.8926
6700.000000 89.854 -118.0124
6800.000000 90.028 -115.1244
6900.000000 90.303 -112.3245
7000.000000 90.685 -109.7159
7100.000000 91.149 -107.3909
7200.000000 91.690 -105.4404
7300.000000 92.312 -103.9886
7400.000000 93.016 -103.2018
7500.000000 93.799 -103.3030
7620.000000 94.831 -105.0365
7750.000000 95.942 -109.6128
7880.000000 96.755 -117.5282
8000.000000 97.042 -127.3091
8120.000000 96.768 -137.8020
8250.000000 95.874 -147.6322
8380.000000 94.561 -154.3437
8500.000000 93.192 -157.6737
8620.000000 91.815 -158.7864
8750.000000 90.398 -158.1630
8850.000000 89.390 -156.7624
9000.000000 88.025 -153.5993
9120.000000 87.054 -150.4162
9250.000000 86.113 -146.5377
9380.000000 85.271 -142.3384
9500.000000 84.573 -138.2329
9620.000000 83.945 -133.9433
9750.000000 83.337 -129.1266
9880.000000 82.801 -124.1623
10000.000000 82.366 -119.4703
10150.000000 81.900 -113.4865
10300.000000 81.522 -107.4242
10440.000000 81.248 -101.7758
10600.000000 81.022 -95.3995
10750.000000 80.884 -89.5244
10900.000000 80.812 -83.7686
11060.000000 80.803 -77.7836
11200.000000 80.852 -72.7117
11380.000000 80.993 -66.4516
11500.000000 81.132 -62.4672
11720.000000 81.473 -55.6518
11800.000000 81.622 -53.3599
12060.000000 82.185 -46.7278
12200.000000 82.521 -43.7490
12410.000000 83.033 -40.1698
12500.000000 83.247 -38.9828
12650.000000 83.579 -37.4633
12800.000000 83.861 -36.4699
13150.000000 84.214 -35.4471
13200.000000 84.224 -35.3408
13400.000000 84.168 -34.6673
13600.000000 84.000 -33.1931
13800.000000 83.821 -30.5343
14000.000000 83.775 -26.6751
14300.000000 84.250 -20.2944
14500.000000 84.940 -18.1246
14750.000000 85.444 -20.6993
15000.000000 84.855 -17.3632
15250.000000 85.975 -7.4013
15500.000000 87.785 -9.4878
15750.000000 88.782 -19.1497
16000.000000 88.892 -30.4704
16250.000000 88.259 -40.0198
16500.000000 87.165 -46.1206
16750.000000 85.917 -48.9047
17000.000000 84.732 -49.3648
17250.000000 83.701 -48.6523
17500.000000 82.808 -47.7634
17750.000000 81.938 -47.2544
18000.000000 80.928 -46.7931
18250.000000 79.661 -44.8913
18500.000000 78.227 -39.7533
18750.000000 77.004 -31.0528
19000.000000 76.453 -21.0534
19250.000000 76.570 -13.3853
19500.000000 76.835 -10.1147
19750.000000 76.778 -10.3336
20000.000000 76.174 -11.3909
20300.000000 74.914 -10.6693
20600.000000 73.602 -6.9333
20900.000000 72.568 -2.0664
21200.000000 71.793 1.3763
21400.000000 71.258 2.2553
21800.000000 69.626 1.8789
22000.000000 68.465 -2.6808
22400.000000 65.553 177.0583
22700.000000 62.085 80.3066
23000.000000 56.360 -87.1611
23300.000000 48.830 65.6230
23600.000000 42.736 152.6797
24000.000000 41.329 -178.3828
