* Measurement data measured by REW V5.20.13
* Source: Headset (DS by VECLAN.COM), MICROPHONE (Master Volume), L, volume: 0.720. Timing signal peak level -16.7 dBFS, measurement signal peak level -14.0 dBFS
* Format: 4M Log Swept Sine, 1 sweep at -12.0 dBFS using an acoustic timing reference
* Dated: Dec 5, 2023 2:16:01 PM
* REW Settings:
*  C-weighting compensation: Off
*  Target level: 75.0 dB
* Note: ; Apple + Abigail Delay -0.0609 ms (-21 mm, -0.82 in) using estimated IR delay relative to Acoustic reference played from  L with no timing offset
* Measurement: QKZ HBB S1 Spring L
* Smoothing: 1/24 octave
* Frequency Step: 1/48 octave
* Start Frequency: 1.000 Hz
*
* Freq(Hz) SPL(dB) Phase(degrees)
1.000000 61.912 93.2723
1.015000 61.946 93.7485
1.030000 61.974 94.0926
1.044000 61.994 94.2839
1.060000 62.011 94.3365
1.075000 62.020 94.2126
1.090000 62.024 93.9090
1.106000 62.018 93.3777
1.120000 61.992 92.7558
1.138000 61.930 91.7575
1.150000 61.873 90.9740
1.172000 61.738 89.3082
1.180000 61.680 88.6329
1.206000 61.470 86.2014
1.220000 61.345 84.7530
1.241000 61.147 82.4158
1.250000 61.060 81.3584
1.265000 60.914 79.5282
1.280000 60.768 77.6202
1.315000 60.445 72.9111
1.320000 60.402 72.2134
1.340000 60.242 69.3722
1.360000 60.105 66.4646
1.380000 59.997 63.5098
1.400000 59.924 60.5270
1.430000 59.892 56.0424
1.450000 59.931 53.0736
1.475000 60.056 49.3810
1.500000 60.253 45.4059
1.525000 60.513 41.1234
1.550000 60.828 36.5933
1.575000 61.190 31.8755
1.600000 61.594 27.0297
1.625000 62.031 22.1157
1.650000 62.494 17.1932
1.675000 62.977 12.3220
1.700000 63.472 7.5619
1.725000 63.972 2.9726
1.750000 64.470 -1.3860
1.775000 64.959 -5.4542
1.800000 65.431 -9.1722
1.825000 65.880 -12.4803
1.850000 66.311 -15.3806
1.875000 66.755 -18.0015
1.900000 67.208 -20.3684
1.925000 67.669 -22.5009
1.950000 68.136 -24.4189
1.975000 68.605 -26.1421
2.000000 69.074 -27.6902
2.030000 69.635 -29.3447
2.060000 70.187 -30.8097
2.090000 70.728 -32.1193
2.120000 71.253 -33.3076
2.140000 71.592 -34.0494
2.180000 72.237 -35.4571
2.200000 72.541 -36.1421
2.240000 73.118 -37.2233
2.270000 73.530 -37.7404
2.300000 73.925 -38.0516
2.330000 74.305 -38.1980
2.360000 74.672 -38.2211
2.400000 75.142 -38.1311
2.430000 75.484 -38.0267
2.470000 75.926 -37.9165
2.500000 76.251 -37.9093
2.540000 76.678 -38.0785
2.580000 77.099 -38.5215
2.620000 77.506 -39.1173
2.650000 77.800 -39.6270
2.690000 78.180 -40.3706
2.720000 78.456 -40.9626
2.760000 78.813 -41.7778
2.800000 79.160 -42.5998
2.850000 79.582 -43.5990
2.900000 79.992 -44.5214
2.950000 80.395 -45.3253
3.000000 80.782 -46.0444
3.040000 81.081 -46.5789
3.070000 81.300 -46.9625
3.110000 81.584 -47.4585
3.150000 81.861 -47.9459
3.200000 82.198 -48.5579
3.250000 82.525 -49.1906
3.300000 82.845 -49.8630
3.350000 83.156 -50.5641
3.400000 83.455 -51.2771
3.450000 83.744 -52.0011
3.500000 84.024 -52.7355
3.550000 84.296 -53.4794
3.600000 84.559 -54.2321
3.650000 84.816 -54.9930
3.700000 85.065 -55.7676
3.750000 85.306 -56.5661
3.820000 85.630 -57.7076
3.870000 85.851 -58.5273
3.950000 86.191 -59.8205
4.000000 86.395 -60.6028
4.060000 86.631 -61.5029
4.120000 86.857 -62.3701
4.180000 87.071 -63.2137
4.250000 87.310 -64.1785
4.310000 87.505 -64.9977
4.370000 87.694 -65.8180
4.440000 87.905 -66.7886
4.500000 88.076 -67.6355
4.550000 88.212 -68.3419
4.620000 88.394 -69.3154
4.680000 88.544 -70.1205
4.750000 88.714 -71.0058
4.820000 88.877 -71.8224
4.870000 88.988 -72.3721
4.940000 89.138 -73.1032
5.000000 89.261 -73.7015
5.080000 89.422 -74.4711
5.150000 89.559 -75.1287
5.220000 89.691 -75.7677
5.300000 89.837 -76.4685
5.380000 89.979 -77.1342
5.450000 90.102 -77.6846
5.520000 90.226 -78.2012
5.600000 90.366 -78.7397
5.700000 90.538 -79.3554
5.800000 90.712 -79.9415
5.900000 90.889 -80.5276
6.000000 91.070 -81.0863
6.080000 91.217 -81.5245
6.150000 91.345 -81.9154
6.220000 91.474 -82.3248
6.300000 91.623 -82.8134
6.400000 91.811 -83.4409
6.500000 91.998 -84.0969
6.600000 92.180 -84.7924
6.700000 92.358 -85.5334
6.800000 92.532 -86.3119
6.900000 92.700 -87.1181
7.000000 92.859 -87.9455
7.100000 93.010 -88.8085
7.200000 93.154 -89.6909
7.300000 93.288 -90.5689
7.400000 93.414 -91.4338
7.500000 93.530 -92.3004
7.620000 93.660 -93.3198
7.750000 93.790 -94.3713
7.880000 93.907 -95.3802
8.000000 94.008 -96.2627
8.120000 94.106 -97.0829
8.250000 94.206 -97.9029
8.380000 94.305 -98.6680
8.500000 94.400 -99.3313
8.620000 94.495 -99.9443
8.750000 94.602 -100.5861
8.850000 94.688 -101.0808
9.000000 94.823 -101.8026
9.120000 94.933 -102.3945
9.250000 95.056 -103.0751
9.380000 95.182 -103.7834
9.500000 95.294 -104.4697
9.620000 95.399 -105.1976
9.750000 95.508 -106.0271
9.880000 95.602 -106.8729
10.000000 95.674 -107.6684
10.150000 95.745 -108.6780
10.300000 95.800 -109.6419
10.440000 95.831 -110.5043
10.600000 95.857 -111.4258
10.750000 95.877 -112.2002
10.900000 95.893 -112.9018
11.060000 95.916 -113.5834
11.200000 95.940 -114.1172
11.380000 95.979 -114.7597
11.500000 96.011 -115.1605
11.720000 96.081 -115.8793
11.800000 96.111 -116.1502
12.060000 96.219 -117.0596
12.200000 96.281 -117.5987
12.410000 96.374 -118.4599
12.500000 96.412 -118.8406
12.650000 96.471 -119.4981
12.800000 96.525 -120.1597
13.150000 96.632 -121.6660
13.200000 96.646 -121.8718
13.400000 96.699 -122.6678
13.600000 96.753 -123.4235
13.800000 96.809 -124.1345
14.000000 96.867 -124.8342
14.300000 96.960 -125.8819
14.500000 97.023 -126.6076
14.750000 97.097 -127.5491
15.000000 97.166 -128.5269
15.250000 97.225 -129.5180
15.500000 97.274 -130.4819
15.750000 97.313 -131.3954
16.000000 97.344 -132.2305
16.250000 97.374 -132.9948
16.500000 97.404 -133.6974
16.750000 97.438 -134.3565
17.000000 97.477 -134.9943
17.250000 97.520 -135.6199
17.500000 97.564 -136.2422
17.750000 97.609 -136.8641
18.000000 97.653 -137.4869
18.250000 97.696 -138.1121
18.500000 97.739 -138.7385
18.750000 97.782 -139.3665
19.000000 97.824 -139.9962
19.250000 97.865 -140.6287
19.500000 97.904 -141.2585
19.750000 97.939 -141.8807
20.000000 97.972 -142.4852
20.299999 98.008 -143.1831
20.600000 98.044 -143.8510
20.900000 98.080 -144.4957
21.200001 98.117 -145.1289
21.400000 98.140 -145.5497
21.799999 98.186 -146.3889
22.000000 98.207 -146.8061
22.400000 98.245 -147.6290
22.700001 98.271 -148.2301
23.000000 98.295 -148.8159
23.299999 98.319 -149.3899
23.600000 98.342 -149.9556
24.000000 98.371 -150.6997
24.299999 98.390 -151.2484
24.700001 98.414 -151.9630
25.000000 98.431 -152.4845
25.400000 98.453 -153.1624
25.799999 98.475 -153.8259
26.200001 98.496 -154.4796
26.500000 98.510 -154.9637
26.900000 98.528 -155.5983
27.200001 98.540 -156.0652
27.600000 98.556 -156.6764
28.000000 98.570 -157.2790
28.500000 98.588 -158.0248
29.000000 98.605 -158.7593
29.500000 98.620 -159.4790
30.000000 98.632 -160.1849
30.400000 98.638 -160.7392
30.700001 98.642 -161.1466
31.100000 98.645 -161.6759
31.500000 98.649 -162.1894
32.000000 98.655 -162.8143
32.500000 98.660 -163.4270
33.000000 98.664 -164.0284
33.500000 98.667 -164.6162
34.000000 98.670 -165.1950
34.500000 98.674 -165.7730
35.000000 98.677 -166.3502
35.500000 98.679 -166.9164
36.000000 98.679 -167.4598
36.500000 98.679 -167.9809
37.000000 98.679 -168.4959
37.500000 98.677 -169.0142
38.200001 98.671 -169.7263
38.700001 98.666 -170.2125
39.500000 98.658 -170.9661
40.000000 98.652 -171.4286
40.599998 98.644 -171.9667
41.200001 98.637 -172.4828
41.799999 98.633 -172.9970
42.500000 98.628 -173.6279
43.099998 98.618 -174.1845
43.700001 98.601 -174.7056
44.400002 98.581 -175.2422
45.000000 98.568 -175.6779
45.500000 98.560 -176.0492
46.200001 98.547 -176.5711
46.799999 98.538 -177.0131
47.500000 98.530 -177.5588
48.200001 98.515 -178.1339
48.700001 98.499 -178.5192
49.400002 98.478 -178.9920
50.000000 98.468 -179.3793
50.799999 98.458 -179.9355
51.500000 98.443 179.5779
52.200001 98.426 179.1425
53.000000 98.411 178.6819
53.799999 98.396 178.2161
54.500000 98.378 177.8125
55.200001 98.355 177.4270
56.000000 98.329 177.0024
57.000000 98.296 176.4656
58.000000 98.259 175.8911
59.000000 98.212 175.3376
60.000000 98.173 174.8687
60.799999 98.159 174.4599
61.500000 98.148 174.0466
62.200001 98.129 173.6281
63.000000 98.101 173.1959
64.000000 98.066 172.7247
65.000000 98.033 172.2942
66.000000 98.001 171.8754
67.000000 97.967 171.4449
68.000000 97.929 171.0066
69.000000 97.887 170.5557
70.000000 97.840 170.1283
71.000000 97.799 169.7549
72.000000 97.768 169.3618
73.000000 97.737 168.9625
74.000000 97.705 168.5824
75.000000 97.670 168.2156
76.199997 97.628 167.8167
77.500000 97.581 167.3649
78.800003 97.530 166.9471
80.000000 97.489 166.5697
81.199997 97.449 166.1398
82.500000 97.386 165.6635
83.800003 97.319 165.3711
85.000000 97.278 165.1551
86.199997 97.243 164.8693
87.500000 97.204 164.5519
88.500000 97.177 164.2862
90.000000 97.131 163.7853
91.199997 97.082 163.3716
92.500000 97.024 162.9822
93.800003 96.965 162.6598
95.000000 96.911 162.4326
96.199997 96.862 162.2528
97.500000 96.815 162.0190
98.800003 96.758 161.7611
100.000000 96.712 161.5745
101.500000 96.680 161.2034
103.000000 96.635 160.6781
104.400002 96.574 160.3343
106.000000 96.504 160.1875
107.500000 96.452 160.1460
109.000000 96.401 160.0235
110.599998 96.338 159.7625
112.000000 96.278 159.4806
113.800003 96.210 159.1041
115.000000 96.170 158.8608
117.199997 96.094 158.4999
118.000000 96.065 158.4075
120.599998 95.971 158.1273
122.000000 95.919 157.9388
124.099998 95.843 157.6340
125.000000 95.812 157.5055
126.500000 95.760 157.3166
128.000000 95.712 157.1572
131.500000 95.598 156.8232
132.000000 95.581 156.7742
134.000000 95.515 156.5651
136.000000 95.449 156.3667
138.000000 95.387 156.2108
140.000000 95.328 156.0640
143.000000 95.240 155.8769
145.000000 95.179 155.7787
147.500000 95.102 155.6585
150.000000 95.030 155.5159
152.500000 94.960 155.3584
155.000000 94.889 155.2200
157.500000 94.816 155.1131
160.000000 94.741 155.0027
162.500000 94.668 154.9038
165.000000 94.597 154.8367
167.500000 94.524 154.7914
170.000000 94.446 154.7688
172.500000 94.371 154.7254
175.000000 94.300 154.6612
177.500000 94.229 154.6176
180.000000 94.160 154.5891
182.500000 94.091 154.5651
185.000000 94.023 154.5491
187.500000 93.955 154.5327
190.000000 93.886 154.5229
192.500000 93.819 154.5265
195.000000 93.753 154.5437
197.500000 93.688 154.5762
200.000000 93.624 154.6166
203.000000 93.553 154.6609
206.000000 93.483 154.7012
209.000000 93.412 154.7312
212.000000 93.344 154.7761
214.000000 93.301 154.8254
218.000000 93.212 154.9433
220.000000 93.167 155.0049
224.000000 93.077 155.1172
227.000000 93.008 155.1964
230.000000 92.939 155.2913
233.000000 92.872 155.4123
236.000000 92.810 155.5351
240.000000 92.729 155.6902
243.000000 92.671 155.8110
247.000000 92.598 155.9663
250.000000 92.545 156.0853
254.000000 92.473 156.2653
258.000000 92.401 156.4410
262.000000 92.331 156.6153
265.000000 92.279 156.7546
269.000000 92.211 156.9486
272.000000 92.159 157.1057
276.000000 92.091 157.3339
280.000000 92.023 157.5734
285.000000 91.940 157.8542
290.000000 91.864 158.1181
295.000000 91.799 158.3665
300.000000 91.733 158.6586
304.000000 91.675 158.9222
307.000000 91.634 159.1032
311.000000 91.581 159.3329
315.000000 91.529 159.5721
320.000000 91.466 159.8968
325.000000 91.407 160.2112
330.000000 91.353 160.4875
335.000000 91.301 160.7722
340.000000 91.244 161.1111
345.000000 91.181 161.4646
350.000000 91.120 161.7922
355.000000 91.061 162.1140
360.000000 91.004 162.4626
365.000000 90.951 162.8127
370.000000 90.902 163.1540
375.000000 90.855 163.4883
382.000000 90.792 163.9548
387.000000 90.745 164.3039
395.000000 90.667 164.8669
400.000000 90.622 165.2069
406.000000 90.570 165.6356
412.000000 90.519 166.0743
418.000000 90.467 166.5025
425.000000 90.408 167.0103
431.000000 90.357 167.4487
437.000000 90.309 167.8833
444.000000 90.262 168.3758
450.000000 90.227 168.7802
455.000000 90.197 169.1227
462.000000 90.151 169.6318
468.000000 90.108 170.0807
475.000000 90.059 170.5845
482.000000 90.018 171.0726
487.000000 89.993 171.4286
494.000000 89.958 171.9279
500.000000 89.929 172.3539
508.000000 89.891 172.9241
515.000000 89.858 173.4215
522.000000 89.829 173.9191
530.000000 89.799 174.4851
538.000000 89.771 175.0410
545.000000 89.747 175.5294
552.000000 89.722 176.0306
560.000000 89.695 176.6077
570.000000 89.666 177.3016
580.000000 89.639 177.9954
590.000000 89.610 178.7130
600.000000 89.583 179.4377
608.000000 89.570 179.9966
615.000000 89.569 -179.5336
622.000000 89.568 -179.0600
630.000000 89.554 -178.4738
640.000000 89.522 -177.7246
650.000000 89.492 -177.0167
660.000000 89.473 -176.2919
670.000000 89.467 -175.5903
680.000000 89.475 -174.9321
690.000000 89.480 -174.2553
700.000000 89.472 -173.5413
710.000000 89.465 -172.8468
720.000000 89.466 -172.1953
730.000000 89.467 -171.5967
740.000000 89.464 -171.0280
750.000000 89.449 -170.4225
762.000000 89.427 -169.5235
775.000000 89.428 -168.4092
788.000000 89.455 -167.3833
800.000000 89.480 -166.5424
812.000000 89.492 -165.7103
825.000000 89.501 -164.7391
838.000000 89.523 -163.6979
850.000000 89.561 -162.7431
862.000000 89.612 -161.8567
875.000000 89.670 -160.9716
885.000000 89.713 -160.3212
900.000000 89.779 -159.3786
912.000000 89.837 -158.6339
925.000000 89.904 -157.8658
938.000000 89.971 -157.1249
950.000000 90.035 -156.4548
962.000000 90.108 -155.8121
975.000000 90.195 -155.1358
988.000000 90.287 -154.4765
1000.000000 90.362 -153.8919
1015.000000 90.435 -153.2220
1030.000000 90.512 -152.6056
1044.000000 90.599 -152.0675
1060.000000 90.702 -151.4763
1075.000000 90.793 -150.9459
1090.000000 90.885 -150.4627
1106.000000 90.992 -149.9877
1120.000000 91.089 -149.5994
1138.000000 91.217 -149.1484
1150.000000 91.302 -148.8674
1172.000000 91.454 -148.3824
1180.000000 91.506 -148.2141
1206.000000 91.670 -147.7143
1220.000000 91.759 -147.4794
1241.000000 91.896 -147.1467
1250.000000 91.954 -147.0046
1265.000000 92.050 -146.7779
1280.000000 92.140 -146.5605
1315.000000 92.333 -146.0753
1320.000000 92.360 -146.0125
1340.000000 92.464 -145.7676
1360.000000 92.547 -145.5122
1380.000000 92.627 -145.2612
1400.000000 92.722 -145.0254
1430.000000 92.876 -144.6797
1450.000000 92.979 -144.4580
1475.000000 93.100 -144.1823
1500.000000 93.215 -143.9165
1525.000000 93.326 -143.6667
1550.000000 93.431 -143.4310
1575.000000 93.535 -143.2048
1600.000000 93.638 -142.9901
1625.000000 93.740 -142.7880
1650.000000 93.842 -142.5824
1675.000000 93.947 -142.3919
1700.000000 94.050 -142.2227
1725.000000 94.151 -142.0607
1750.000000 94.252 -141.9138
1775.000000 94.351 -141.7786
1800.000000 94.447 -141.6558
1825.000000 94.542 -141.5621
1850.000000 94.637 -141.4933
1875.000000 94.733 -141.4353
1900.000000 94.828 -141.3929
1925.000000 94.920 -141.3686
1950.000000 95.012 -141.3632
1975.000000 95.107 -141.3741
2000.000000 95.204 -141.4200
2030.000000 95.314 -141.5346
2060.000000 95.424 -141.6785
2090.000000 95.531 -141.8525
2120.000000 95.631 -142.0672
2140.000000 95.696 -142.2376
2180.000000 95.824 -142.6469
2200.000000 95.883 -142.8798
2240.000000 95.986 -143.3797
2270.000000 96.049 -143.7838
2300.000000 96.096 -144.2006
2330.000000 96.129 -144.6110
2360.000000 96.153 -145.0056
2400.000000 96.177 -145.4732
2430.000000 96.190 -145.7579
2470.000000 96.210 -146.0586
2500.000000 96.223 -146.1956
2540.000000 96.237 -146.2781
2580.000000 96.263 -146.3620
2620.000000 96.303 -146.5782
2650.000000 96.330 -146.8429
2690.000000 96.348 -147.2413
2720.000000 96.347 -147.5051
2760.000000 96.338 -147.7648
2800.000000 96.332 -147.9273
2850.000000 96.338 -148.0858
2900.000000 96.345 -148.2869
2950.000000 96.335 -148.4895
3000.000000 96.317 -148.5941
3040.000000 96.308 -148.6451
3070.000000 96.308 -148.6923
3110.000000 96.314 -148.7915
3150.000000 96.319 -148.9512
3200.000000 96.314 -149.2207
3250.000000 96.294 -149.5123
3300.000000 96.263 -149.7757
3350.000000 96.224 -150.0015
3400.000000 96.183 -150.1900
3450.000000 96.143 -150.3438
3500.000000 96.105 -150.4725
3550.000000 96.068 -150.5735
3600.000000 96.032 -150.6441
3650.000000 95.996 -150.7008
3700.000000 95.961 -150.7615
3750.000000 95.924 -150.8193
3820.000000 95.868 -150.8837
3870.000000 95.824 -150.9295
3950.000000 95.744 -150.9999
4000.000000 95.690 -151.0472
4060.000000 95.625 -151.1172
4120.000000 95.554 -151.1888
4180.000000 95.477 -151.2563
4250.000000 95.379 -151.3356
4310.000000 95.282 -151.4030
4370.000000 95.171 -151.4538
4440.000000 95.026 -151.4789
4500.000000 94.892 -151.4721
4550.000000 94.774 -151.4477
4620.000000 94.601 -151.3774
4680.000000 94.445 -151.2780
4750.000000 94.254 -151.1060
4820.000000 94.056 -150.8867
4870.000000 93.908 -150.7076
4940.000000 93.688 -150.4436
5000.000000 93.480 -150.2162
5080.000000 93.139 -149.7771
5150.000000 92.754 -148.5703
5220.000000 92.460 -146.0230
5300.000000 92.428 -143.4024
5380.000000 92.430 -142.3820
5450.000000 92.327 -141.7976
5520.000000 92.180 -140.9914
5600.000000 92.006 -139.8192
5700.000000 91.801 -138.1108
5800.000000 91.616 -136.2551
5900.000000 91.455 -134.2993
6000.000000 91.317 -132.2609
6080.000000 91.219 -130.5793
6150.000000 91.142 -129.0727
6220.000000 91.072 -127.5282
6300.000000 91.000 -125.7002
6400.000000 90.928 -123.2704
6500.000000 90.888 -120.6596
6600.000000 90.893 -117.8953
6700.000000 90.956 -115.0578
6800.000000 91.095 -112.2260
6900.000000 91.327 -109.4446
7000.000000 91.655 -106.7964
7100.000000 92.069 -104.4055
7200.000000 92.564 -102.4050
7300.000000 93.137 -100.9282
7400.000000 93.786 -100.1099
7500.000000 94.507 -100.1416
7620.000000 95.459 -101.7137
7750.000000 96.479 -105.9250
7880.000000 97.211 -113.1346
8000.000000 97.454 -121.9577
8120.000000 97.186 -131.3760
8250.000000 96.357 -140.2187
8380.000000 95.147 -146.3308
8500.000000 93.882 -149.4102
8620.000000 92.604 -150.4352
8750.000000 91.280 -149.8073
8850.000000 90.327 -148.4387
9000.000000 89.029 -145.3480
9120.000000 88.101 -142.2051
9250.000000 87.196 -138.3251
9380.000000 86.384 -134.0727
9500.000000 85.707 -129.8808
9620.000000 85.098 -125.4976
9750.000000 84.514 -120.5619
9880.000000 84.008 -115.4323
10000.000000 83.606 -110.5605
10150.000000 83.192 -104.3620
10300.000000 82.872 -98.1016
10440.000000 82.656 -92.2503
10600.000000 82.507 -85.6258
10750.000000 82.456 -79.5700
10900.000000 82.488 -73.7639
11060.000000 82.606 -67.8788
11200.000000 82.769 -63.0027
11380.000000 83.051 -57.1152
11500.000000 83.282 -53.4459
11720.000000 83.796 -47.3739
11800.000000 84.011 -45.4260
12060.000000 84.771 -40.3515
12200.000000 85.182 -38.5178
12410.000000 85.746 -36.9221
12500.000000 85.959 -36.6472
12650.000000 86.255 -36.7019
12800.000000 86.449 -37.2709
13150.000000 86.416 -39.1244
13200.000000 86.360 -39.2893
13400.000000 86.041 -39.3387
13600.000000 85.652 -38.1865
13800.000000 85.298 -35.8715
14000.000000 85.043 -32.6353
14300.000000 85.048 -26.2503
14500.000000 85.565 -22.9830
14750.000000 86.320 -25.2311
15000.000000 85.644 -27.9960
15250.000000 85.161 -15.8215
15500.000000 86.595 -11.8961
15750.000000 87.566 -17.5255
16000.000000 87.773 -25.4990
16250.000000 87.317 -32.7417
16500.000000 86.386 -37.4376
16750.000000 85.235 -39.0391
17000.000000 84.092 -38.0175
17250.000000 83.107 -35.2484
17500.000000 82.352 -31.5896
17750.000000 81.826 -27.8491
18000.000000 81.464 -24.7168
18250.000000 81.154 -22.6533
18500.000000 80.777 -21.7220
18750.000000 80.233 -21.3640
19000.000000 79.493 -20.7068
19250.000000 78.580 -19.1494
19500.000000 77.543 -16.4898
19750.000000 76.454 -12.6747
20000.000000 75.318 -7.5475
20300.000000 74.037 0.2625
20600.000000 73.184 8.9159
20900.000000 72.868 16.4991
21200.000000 72.844 20.7441
21400.000000 72.762 21.4187
21800.000000 72.076 18.9414
22000.000000 71.479 11.6058
22400.000000 69.537 -178.6066
22700.000000 66.347 58.3079
23000.000000 60.624 -100.2900
23300.000000 52.789 69.5635
23600.000000 45.114 -131.9980
24000.000000 41.335 -63.2305
