* Measurement data measured by REW V5.20.13
* Source: Trace Arithmetic result A / B
* Format: Trace Arithmetic result A / B
* Dated: Feb 24, 2024 9:16:51 PM
* REW Settings:
*  C-weighting compensation: Off
*  Target level: 75.0 dB
* Note: ; Trace Arithmetic A over B A = QKZ x HBB Khan S1 R B = iPhone calib 
* Measurement: QKZ x HBB Khan S1 R
* Smoothing: 1/24 octave
* Frequency Step: 1/48 octave
* Start Frequency: 20.000 Hz
*
* Freq(Hz) SPL(dB)
20.000000 69.561
20.299999 69.723
20.600000 69.794
20.900000 69.842
21.200001 69.885
21.400000 69.921
21.799999 70.009
22.000000 70.053
22.400000 70.126
22.700001 70.166
23.000000 70.204
23.299999 70.252
23.600000 70.316
24.000000 70.416
24.299999 70.494
24.700001 70.597
25.000000 70.672
25.400000 70.776
25.799999 70.881
26.200001 70.966
26.500000 71.020
26.900000 71.111
27.200001 71.197
27.600000 71.305
28.000000 71.393
28.500000 71.492
29.000000 71.560
29.500000 71.616
30.000000 71.726
30.400000 71.804
30.700001 71.844
31.100000 71.884
31.500000 71.921
32.000000 71.977
32.500000 72.063
33.000000 72.175
33.500000 72.266
34.000000 72.320
34.500000 72.372
35.000000 72.443
35.500000 72.512
36.000000 72.562
36.500000 72.596
37.000000 72.623
37.500000 72.668
38.200001 72.766
38.700001 72.825
39.500000 72.877
40.000000 72.899
40.599998 72.920
41.200001 72.941
41.799999 72.974
42.500000 73.043
43.099998 73.122
43.700001 73.176
44.400002 73.213
45.000000 73.254
45.500000 73.297
46.200001 73.361
46.799999 73.420
47.500000 73.501
48.200001 73.580
48.700001 73.635
49.400002 73.708
50.000000 73.775
50.799999 73.865
51.500000 73.913
52.200001 73.938
53.000000 73.944
53.799999 73.936
54.500000 73.934
55.200001 73.943
56.000000 73.956
57.000000 73.971
58.000000 73.967
59.000000 73.937
60.000000 73.964
60.799999 74.034
61.500000 74.107
62.200001 74.170
63.000000 74.230
64.000000 74.299
65.000000 74.343
66.000000 74.350
67.000000 74.310
68.000000 74.249
69.000000 74.215
70.000000 74.193
71.000000 74.169
72.000000 74.183
73.000000 74.226
74.000000 74.263
75.000000 74.276
76.199997 74.251
77.500000 74.220
78.800003 74.223
80.000000 74.227
81.199997 74.208
82.500000 74.159
83.800003 74.091
85.000000 74.032
86.199997 73.982
87.500000 73.970
88.500000 73.990
90.000000 73.976
91.199997 73.902
92.500000 73.816
93.800003 73.755
95.000000 73.696
96.199997 73.636
97.500000 73.598
98.800003 73.579
100.000000 73.557
101.500000 73.517
103.000000 73.468
104.400002 73.421
106.000000 73.370
107.500000 73.334
109.000000 73.291
110.599998 73.219
112.000000 73.142
113.800003 73.052
115.000000 72.988
117.199997 72.880
118.000000 72.844
120.599998 72.689
122.000000 72.593
124.099998 72.419
125.000000 72.339
126.500000 72.240
128.000000 72.199
131.500000 72.058
132.000000 72.016
134.000000 71.843
136.000000 71.706
138.000000 71.604
140.000000 71.543
143.000000 71.492
145.000000 71.451
147.500000 71.331
150.000000 71.151
152.500000 70.977
155.000000 70.844
157.500000 70.737
160.000000 70.614
162.500000 70.488
165.000000 70.397
167.500000 70.292
170.000000 70.146
172.500000 69.965
175.000000 69.781
177.500000 69.650
180.000000 69.546
182.500000 69.471
185.000000 69.425
187.500000 69.305
190.000000 69.165
192.500000 69.083
195.000000 69.019
197.500000 68.935
200.000000 68.848
203.000000 68.754
206.000000 68.640
209.000000 68.512
212.000000 68.427
214.000000 68.392
218.000000 68.318
220.000000 68.297
224.000000 68.296
227.000000 68.249
230.000000 68.162
233.000000 68.086
236.000000 68.037
240.000000 67.997
243.000000 67.969
247.000000 67.918
250.000000 67.884
254.000000 67.883
258.000000 67.892
262.000000 67.887
265.000000 67.873
269.000000 67.834
272.000000 67.800
276.000000 67.770
280.000000 67.760
285.000000 67.731
290.000000 67.699
295.000000 67.691
300.000000 67.652
304.000000 67.623
307.000000 67.621
311.000000 67.633
315.000000 67.623
320.000000 67.594
325.000000 67.626
330.000000 67.673
335.000000 67.653
340.000000 67.626
345.000000 67.637
350.000000 67.663
355.000000 67.671
360.000000 67.632
365.000000 67.570
370.000000 67.560
375.000000 67.568
382.000000 67.538
387.000000 67.522
395.000000 67.508
400.000000 67.487
406.000000 67.467
412.000000 67.416
418.000000 67.337
425.000000 67.300
431.000000 67.321
437.000000 67.362
444.000000 67.381
450.000000 67.352
455.000000 67.317
462.000000 67.285
468.000000 67.254
475.000000 67.206
482.000000 67.192
487.000000 67.204
494.000000 67.188
500.000000 67.161
508.000000 67.152
515.000000 67.120
522.000000 67.059
530.000000 67.019
538.000000 67.017
545.000000 67.017
552.000000 67.014
560.000000 66.981
570.000000 66.904
580.000000 66.878
590.000000 66.880
600.000000 66.861
608.000000 66.843
615.000000 66.815
622.000000 66.784
630.000000 66.761
640.000000 66.744
650.000000 66.732
660.000000 66.714
670.000000 66.690
680.000000 66.689
690.000000 66.697
700.000000 66.677
710.000000 66.638
720.000000 66.617
730.000000 66.598
740.000000 66.586
750.000000 66.595
762.000000 66.626
775.000000 66.643
788.000000 66.652
800.000000 66.694
812.000000 66.719
825.000000 66.695
838.000000 66.700
850.000000 66.755
862.000000 66.819
875.000000 66.862
885.000000 66.883
900.000000 66.938
912.000000 66.976
925.000000 67.009
938.000000 67.070
950.000000 67.113
962.000000 67.131
975.000000 67.180
988.000000 67.280
1000.000000 67.367
1015.000000 67.451
1030.000000 67.533
1044.000000 67.610
1060.000000 67.693
1075.000000 67.764
1090.000000 67.839
1106.000000 67.909
1120.000000 67.980
1138.000000 68.086
1150.000000 68.134
1172.000000 68.216
1180.000000 68.262
1206.000000 68.424
1220.000000 68.486
1241.000000 68.569
1250.000000 68.606
1265.000000 68.663
1280.000000 68.715
1315.000000 68.845
1320.000000 68.860
1340.000000 68.908
1360.000000 68.945
1380.000000 68.979
1400.000000 69.000
1430.000000 69.093
1450.000000 69.154
1475.000000 69.211
1500.000000 69.249
1525.000000 69.302
1550.000000 69.349
1575.000000 69.414
1600.000000 69.449
1625.000000 69.460
1650.000000 69.481
1675.000000 69.522
1700.000000 69.562
1725.000000 69.578
1750.000000 69.588
1775.000000 69.615
1800.000000 69.654
1825.000000 69.665
1850.000000 69.656
1875.000000 69.688
1900.000000 69.733
1925.000000 69.759
1950.000000 69.768
1975.000000 69.761
2000.000000 69.747
2030.000000 69.737
2060.000000 69.752
2090.000000 69.777
2120.000000 69.802
2140.000000 69.833
2180.000000 69.912
2200.000000 69.947
2240.000000 70.025
2270.000000 70.092
2300.000000 70.181
2330.000000 70.297
2360.000000 70.405
2400.000000 70.522
2430.000000 70.619
2470.000000 70.773
2500.000000 70.894
2540.000000 71.050
2580.000000 71.167
2620.000000 71.295
2650.000000 71.422
2690.000000 71.599
2720.000000 71.720
2760.000000 71.880
2800.000000 72.078
2850.000000 72.288
2900.000000 72.480
2950.000000 72.705
3000.000000 72.964
3040.000000 73.167
3070.000000 73.311
3110.000000 73.496
3150.000000 73.662
3200.000000 73.869
3250.000000 74.085
3300.000000 74.296
3350.000000 74.490
3400.000000 74.678
3450.000000 74.874
3500.000000 75.065
3550.000000 75.262
3600.000000 75.434
3650.000000 75.591
3700.000000 75.734
3750.000000 75.843
3820.000000 75.942
3870.000000 75.996
3950.000000 76.048
4000.000000 76.034
4060.000000 75.976
4120.000000 75.875
4180.000000 75.757
4250.000000 75.584
4310.000000 75.378
4370.000000 75.133
4440.000000 74.854
4500.000000 74.600
4550.000000 74.393
4620.000000 74.105
4680.000000 73.842
4750.000000 73.504
4820.000000 73.178
4870.000000 72.973
4940.000000 72.692
5000.000000 72.461
5080.000000 72.165
5150.000000 71.870
5220.000000 71.584
5300.000000 71.300
5380.000000 71.041
5450.000000 70.844
5520.000000 70.665
5600.000000 70.479
5700.000000 70.258
5800.000000 70.059
5900.000000 69.874
6000.000000 69.785
6080.000000 69.754
6150.000000 69.744
6220.000000 69.746
6300.000000 69.769
6400.000000 69.821
6500.000000 69.882
6600.000000 70.018
6700.000000 70.218
6800.000000 70.472
6900.000000 70.794
7000.000000 71.172
7100.000000 71.597
7200.000000 72.072
7300.000000 72.609
7400.000000 73.200
7500.000000 73.797
7620.000000 74.515
7750.000000 75.229
7880.000000 75.696
8000.000000 75.805
8120.000000 75.709
8250.000000 75.357
8380.000000 74.412
8500.000000 73.326
8620.000000 72.309
8750.000000 71.263
8850.000000 70.482
9000.000000 69.304
9120.000000 68.400
9250.000000 67.448
9380.000000 66.522
9500.000000 65.763
9620.000000 65.056
9750.000000 64.328
9880.000000 63.685
10000.000000 63.139
10150.000000 62.512
10300.000000 61.896
10440.000000 61.369
10600.000000 60.836
10750.000000 60.368
10900.000000 59.960
11060.000000 59.562
11200.000000 59.246
11380.000000 58.896
11500.000000 58.673
11720.000000 58.242
11800.000000 58.100
12060.000000 57.752
12200.000000 57.572
12410.000000 57.324
12500.000000 57.238
12650.000000 57.145
12800.000000 57.167
13150.000000 57.862
13200.000000 58.034
13400.000000 58.977
13600.000000 60.307
13800.000000 61.776
14000.000000 63.358
14300.000000 66.156
14500.000000 67.983
14750.000000 69.506
15000.000000 70.673
15250.000000 71.256
15500.000000 71.114
15750.000000 70.324
16000.000000 68.842
16250.000000 67.080
16500.000000 65.219
16750.000000 63.737
17000.000000 62.340
17250.000000 60.597
17500.000000 58.795
17750.000000 57.145
18000.000000 55.609
18250.000000 54.175
18500.000000 53.102
18750.000000 52.332
19000.000000 51.669
19250.000000 50.927
19500.000000 49.894
19750.000000 48.700
