* Measurement data measured by REW V5.20.13
* Source: Trace Arithmetic result A / B
* Format: Trace Arithmetic result A / B
* Dated: Feb 24, 2024 9:16:53 PM
* REW Settings:
*  C-weighting compensation: Off
*  Target level: 75.0 dB
* Note: ; Trace Arithmetic A over B A = QKZ x HBB Khan S2 L B = iPhone calib
* Measurement: QKZ x HBB Khan S2 L
* Smoothing: 1/24 octave
* Frequency Step: 1/48 octave
* Start Frequency: 20.000 Hz
*
* Freq(Hz) SPL(dB)
20.000000 72.761
20.299999 72.923
20.600000 72.994
20.900000 73.049
21.200001 73.114
21.400000 73.170
21.799999 73.274
22.000000 73.305
22.400000 73.341
22.700001 73.368
23.000000 73.401
23.299999 73.436
23.600000 73.471
24.000000 73.517
24.299999 73.554
24.700001 73.614
25.000000 73.674
25.400000 73.760
25.799999 73.828
26.200001 73.866
26.500000 73.883
26.900000 73.922
27.200001 73.968
27.600000 74.031
28.000000 74.089
28.500000 74.159
29.000000 74.206
29.500000 74.222
30.000000 74.265
30.400000 74.313
30.700001 74.346
31.100000 74.384
31.500000 74.420
32.000000 74.465
32.500000 74.514
33.000000 74.576
33.500000 74.629
34.000000 74.671
34.500000 74.722
35.000000 74.793
35.500000 74.862
36.000000 74.912
36.500000 74.946
37.000000 74.971
37.500000 75.007
38.200001 75.062
38.700001 75.092
39.500000 75.152
40.000000 75.192
40.599998 75.220
41.200001 75.237
41.799999 75.245
42.500000 75.243
43.099998 75.259
43.700001 75.279
44.400002 75.276
45.000000 75.256
45.500000 75.248
46.200001 75.267
46.799999 75.301
47.500000 75.339
48.200001 75.366
48.700001 75.375
49.400002 75.364
50.000000 75.358
50.799999 75.384
51.500000 75.415
52.200001 75.438
53.000000 75.443
53.799999 75.424
54.500000 75.395
55.200001 75.369
56.000000 75.360
57.000000 75.371
58.000000 75.365
59.000000 75.313
60.000000 75.268
60.799999 75.257
61.500000 75.264
62.200001 75.277
63.000000 75.300
64.000000 75.347
65.000000 75.380
66.000000 75.365
67.000000 75.326
68.000000 75.286
69.000000 75.251
70.000000 75.219
71.000000 75.206
72.000000 75.200
73.000000 75.160
74.000000 75.074
75.000000 74.971
76.199997 74.868
77.500000 74.787
78.800003 74.701
80.000000 74.644
81.199997 74.609
82.500000 74.559
83.800003 74.497
85.000000 74.455
86.199997 74.413
87.500000 74.335
88.500000 74.273
90.000000 74.193
91.199997 74.128
92.500000 74.076
93.800003 74.023
95.000000 73.934
96.199997 73.833
97.500000 73.749
98.800003 73.683
100.000000 73.620
101.500000 73.530
103.000000 73.427
104.400002 73.302
106.000000 73.129
107.500000 72.982
109.000000 72.873
110.599998 72.773
112.000000 72.684
113.800003 72.559
115.000000 72.460
117.199997 72.238
118.000000 72.161
120.599998 71.977
122.000000 71.890
124.099998 71.717
125.000000 71.628
126.500000 71.482
128.000000 71.340
131.500000 71.023
132.000000 70.981
134.000000 70.829
136.000000 70.689
138.000000 70.538
140.000000 70.378
143.000000 70.098
145.000000 69.903
147.500000 69.692
150.000000 69.487
152.500000 69.275
155.000000 69.083
157.500000 68.911
160.000000 68.763
162.500000 68.573
165.000000 68.371
167.500000 68.204
170.000000 68.053
172.500000 67.898
175.000000 67.754
177.500000 67.645
180.000000 67.542
182.500000 67.452
185.000000 67.387
187.500000 67.278
190.000000 67.171
192.500000 67.130
195.000000 67.099
197.500000 67.019
200.000000 66.907
203.000000 66.794
206.000000 66.751
209.000000 66.803
212.000000 66.949
214.000000 67.037
218.000000 67.052
220.000000 67.021
224.000000 66.952
227.000000 66.891
230.000000 66.830
233.000000 66.764
236.000000 66.710
240.000000 66.733
243.000000 66.809
247.000000 66.873
250.000000 66.877
254.000000 66.916
258.000000 67.018
262.000000 67.127
265.000000 67.159
269.000000 67.150
272.000000 67.136
276.000000 67.108
280.000000 67.089
285.000000 67.117
290.000000 67.193
295.000000 67.266
300.000000 67.248
304.000000 67.213
307.000000 67.197
311.000000 67.195
315.000000 67.212
320.000000 67.247
325.000000 67.294
330.000000 67.329
335.000000 67.329
340.000000 67.327
345.000000 67.366
350.000000 67.429
355.000000 67.442
360.000000 67.386
365.000000 67.321
370.000000 67.308
375.000000 67.318
382.000000 67.292
387.000000 67.298
395.000000 67.318
400.000000 67.313
406.000000 67.285
412.000000 67.245
418.000000 67.256
425.000000 67.315
431.000000 67.328
437.000000 67.284
444.000000 67.237
450.000000 67.248
455.000000 67.265
462.000000 67.247
468.000000 67.210
475.000000 67.173
482.000000 67.127
487.000000 67.096
494.000000 67.063
500.000000 67.035
508.000000 67.010
515.000000 66.992
522.000000 66.969
530.000000 66.979
538.000000 67.006
545.000000 66.999
552.000000 66.977
560.000000 66.961
570.000000 66.940
580.000000 66.903
590.000000 66.889
600.000000 66.894
608.000000 66.883
615.000000 66.838
622.000000 66.793
630.000000 66.779
640.000000 66.788
650.000000 66.765
660.000000 66.744
670.000000 66.734
680.000000 66.718
690.000000 66.734
700.000000 66.773
710.000000 66.780
720.000000 66.769
730.000000 66.772
740.000000 66.780
750.000000 66.790
762.000000 66.779
775.000000 66.733
788.000000 66.769
800.000000 66.842
812.000000 66.877
825.000000 66.882
838.000000 66.899
850.000000 66.956
862.000000 67.030
875.000000 67.110
885.000000 67.162
900.000000 67.236
912.000000 67.276
925.000000 67.309
938.000000 67.378
950.000000 67.448
962.000000 67.504
975.000000 67.575
988.000000 67.676
1000.000000 67.748
1015.000000 67.790
1030.000000 67.840
1044.000000 67.913
1060.000000 68.013
1075.000000 68.125
1090.000000 68.231
1106.000000 68.309
1120.000000 68.382
1138.000000 68.504
1150.000000 68.581
1172.000000 68.706
1180.000000 68.753
1206.000000 68.883
1220.000000 68.949
1241.000000 69.062
1250.000000 69.110
1265.000000 69.192
1280.000000 69.283
1315.000000 69.503
1320.000000 69.530
1340.000000 69.604
1360.000000 69.646
1380.000000 69.684
1400.000000 69.726
1430.000000 69.843
1450.000000 69.916
1475.000000 70.017
1500.000000 70.093
1525.000000 70.154
1550.000000 70.227
1575.000000 70.319
1600.000000 70.389
1625.000000 70.453
1650.000000 70.516
1675.000000 70.573
1700.000000 70.634
1725.000000 70.703
1750.000000 70.736
1775.000000 70.776
1800.000000 70.853
1825.000000 70.909
1850.000000 70.940
1875.000000 70.995
1900.000000 71.076
1925.000000 71.171
1950.000000 71.265
1975.000000 71.346
2000.000000 71.418
2030.000000 71.493
2060.000000 71.565
2090.000000 71.641
2120.000000 71.718
2140.000000 71.791
2180.000000 71.982
2200.000000 72.072
2240.000000 72.214
2270.000000 72.291
2300.000000 72.382
2330.000000 72.506
2360.000000 72.642
2400.000000 72.816
2430.000000 72.954
2470.000000 73.157
2500.000000 73.292
2540.000000 73.458
2580.000000 73.611
2620.000000 73.782
2650.000000 73.927
2690.000000 74.139
2720.000000 74.293
2760.000000 74.476
2800.000000 74.678
2850.000000 74.888
2900.000000 75.079
2950.000000 75.288
3000.000000 75.498
3040.000000 75.672
3070.000000 75.802
3110.000000 75.962
3150.000000 76.105
3200.000000 76.262
3250.000000 76.361
3300.000000 76.453
3350.000000 76.532
3400.000000 76.579
3450.000000 76.634
3500.000000 76.702
3550.000000 76.762
3600.000000 76.782
3650.000000 76.772
3700.000000 76.767
3750.000000 76.762
3820.000000 76.699
3870.000000 76.654
3950.000000 76.564
4000.000000 76.466
4060.000000 76.340
4120.000000 76.227
4180.000000 76.107
4250.000000 75.963
4310.000000 75.818
4370.000000 75.667
4440.000000 75.493
4500.000000 75.333
4550.000000 75.191
4620.000000 74.998
4680.000000 74.865
4750.000000 74.705
4820.000000 74.527
4870.000000 74.410
4940.000000 74.254
5000.000000 74.123
5080.000000 73.943
5150.000000 73.768
5220.000000 73.598
5300.000000 73.453
5380.000000 73.342
5450.000000 73.252
5520.000000 73.164
5600.000000 73.075
5700.000000 72.949
5800.000000 72.852
5900.000000 72.770
6000.000000 72.747
6080.000000 72.745
6150.000000 72.742
6220.000000 72.747
6300.000000 72.776
6400.000000 72.861
6500.000000 72.966
6600.000000 73.116
6700.000000 73.306
6800.000000 73.521
6900.000000 73.804
7000.000000 74.158
7100.000000 74.530
7200.000000 74.918
7300.000000 75.359
7400.000000 75.845
7500.000000 76.308
7620.000000 76.822
7750.000000 77.308
7880.000000 77.574
8000.000000 77.565
8120.000000 77.462
8250.000000 77.264
8380.000000 76.635
8500.000000 75.928
8620.000000 75.279
8750.000000 74.558
8850.000000 73.934
9000.000000 72.765
9120.000000 71.638
9250.000000 70.207
9380.000000 68.616
9500.000000 67.218
9620.000000 65.964
9750.000000 64.761
9880.000000 63.725
10000.000000 62.872
10150.000000 61.962
10300.000000 61.161
10440.000000 60.491
10600.000000 59.824
10750.000000 59.228
10900.000000 58.685
11060.000000 58.184
11200.000000 57.795
11380.000000 57.317
11500.000000 57.021
11720.000000 56.507
11800.000000 56.334
12060.000000 55.912
12200.000000 55.745
12410.000000 55.526
12500.000000 55.453
12650.000000 55.392
12800.000000 55.448
13150.000000 56.106
13200.000000 56.252
13400.000000 57.035
13600.000000 58.142
13800.000000 59.349
14000.000000 60.659
14300.000000 63.253
14500.000000 65.164
14750.000000 67.179
15000.000000 69.403
15250.000000 71.200
15500.000000 71.932
15750.000000 71.354
16000.000000 69.610
16250.000000 67.581
16500.000000 65.713
16750.000000 64.404
17000.000000 63.263
17250.000000 61.840
17500.000000 60.353
17750.000000 58.939
18000.000000 57.538
18250.000000 56.144
18500.000000 55.025
18750.000000 54.135
19000.000000 53.276
19250.000000 52.346
19500.000000 51.206
19750.000000 49.958
