* Measurement data measured by REW V5.20.13
* Source: Headset (DS by VECLAN.COM), MICROPHONE (Master Volume), L, volume: 0.000
* Format: 2M Log Swept Sine, 1 sweep at -12.0 dBFS with no timing reference
* Dated: May 11, 2023 5:30:52 PM
* REW Settings:
*  C-weighting compensation: Off
*  Target level: 75.0 dB
* Note: ; 
* Measurement: S12 Pro L
* Smoothing: 1/24 octave
* Frequency Step: 1/48 octave
* Start Frequency: 1.000 Hz
*
* Freq(Hz) SPL(dB) Phase(degrees)
1.000000 52.748 127.0871
1.015000 53.122 124.8424
1.030000 53.492 122.7006
1.044000 53.832 120.8027
1.060000 54.215 118.7632
1.075000 54.568 116.9862
1.090000 54.914 115.3496
1.106000 55.277 113.7716
1.120000 55.589 112.5489
1.138000 55.983 111.1822
1.150000 56.242 110.3898
1.172000 56.707 109.1603
1.180000 56.874 108.7787
1.206000 57.406 107.7493
1.220000 57.688 107.3123
1.241000 58.102 106.7834
1.250000 58.278 106.5961
1.265000 58.567 106.3264
1.280000 58.853 106.0992
1.315000 59.506 105.6651
1.320000 59.597 105.6074
1.340000 59.962 105.3690
1.360000 60.321 105.0966
1.380000 60.676 104.7610
1.400000 61.028 104.3331
1.430000 61.548 103.4541
1.450000 61.891 102.6675
1.475000 62.317 101.4218
1.500000 62.734 99.9879
1.525000 63.142 98.4153
1.550000 63.542 96.7268
1.575000 63.933 94.9453
1.600000 64.317 93.0934
1.625000 64.694 91.1942
1.650000 65.064 89.2703
1.675000 65.428 87.3445
1.700000 65.785 85.4397
1.725000 66.137 83.5787
1.750000 66.485 81.7844
1.775000 66.827 80.0794
1.800000 67.165 78.4867
1.825000 67.500 77.0290
1.850000 67.830 75.7110
1.875000 68.154 74.4944
1.900000 68.472 73.3660
1.925000 68.784 72.3144
1.950000 69.090 71.3278
1.975000 69.391 70.3946
2.000000 69.687 69.5033
2.030000 70.035 68.4726
2.060000 70.377 67.4653
2.090000 70.713 66.4614
2.120000 71.044 65.4408
2.140000 71.261 64.7412
2.180000 71.689 63.2693
2.200000 71.901 62.4854
2.240000 72.315 60.8668
2.270000 72.618 59.6309
2.300000 72.915 58.3810
2.330000 73.206 57.1216
2.360000 73.491 55.8568
2.400000 73.862 54.1700
2.430000 74.135 52.9102
2.470000 74.492 51.2458
2.500000 74.755 50.0147
2.540000 75.099 48.4046
2.580000 75.436 46.8359
2.620000 75.765 45.2827
2.650000 76.006 44.1258
2.690000 76.319 42.5973
2.720000 76.549 41.4639
2.760000 76.848 39.9736
2.800000 77.141 38.5113
2.850000 77.499 36.7295
2.900000 77.847 35.0069
2.950000 78.188 33.3545
3.000000 78.519 31.7899
3.040000 78.775 30.5920
3.070000 78.963 29.7180
3.110000 79.209 28.5768
3.150000 79.449 27.4534
3.200000 79.743 26.0581
3.250000 80.030 24.6533
3.300000 80.312 23.2184
3.350000 80.587 21.7426
3.400000 80.853 20.2415
3.450000 81.112 18.7347
3.500000 81.365 17.2420
3.550000 81.612 15.7828
3.600000 81.855 14.3770
3.650000 82.095 13.0441
3.700000 82.330 11.8011
3.750000 82.560 10.6412
3.820000 82.873 9.1189
3.870000 83.091 8.0767
3.950000 83.434 6.4319
4.000000 83.644 5.3870
4.060000 83.895 4.0888
4.120000 84.140 2.7654
4.180000 84.381 1.4351
4.250000 84.657 -0.1059
4.310000 84.890 -1.4006
4.370000 85.120 -2.6555
4.440000 85.385 -4.0504
4.500000 85.608 -5.1890
4.550000 85.793 -6.1100
4.620000 86.047 -7.3772
4.680000 86.261 -8.4613
4.750000 86.507 -9.7477
4.820000 86.748 -11.0677
4.870000 86.918 -12.0193
4.940000 87.153 -13.3572
5.000000 87.350 -14.5039
5.080000 87.607 -16.0237
5.150000 87.825 -17.3371
5.220000 88.038 -18.6389
5.300000 88.276 -20.1166
5.380000 88.506 -21.5853
5.450000 88.701 -22.8645
5.520000 88.890 -24.1400
5.600000 89.098 -25.5972
5.700000 89.347 -27.4095
5.800000 89.584 -29.1978
5.900000 89.809 -30.9500
6.000000 90.022 -32.6797
6.080000 90.184 -34.0404
6.150000 90.320 -35.2067
6.220000 90.453 -36.3438
6.300000 90.599 -37.6066
6.400000 90.772 -39.1383
6.500000 90.937 -40.6197
6.600000 91.099 -42.0526
6.700000 91.254 -43.4354
6.800000 91.404 -44.7687
6.900000 91.552 -46.0562
7.000000 91.699 -47.2992
7.100000 91.844 -48.4863
7.200000 91.988 -49.6332
7.300000 92.132 -50.7614
7.400000 92.278 -51.8790
7.500000 92.424 -52.9728
7.620000 92.598 -54.2728
7.750000 92.787 -55.6882
7.880000 92.975 -57.1003
8.000000 93.146 -58.4119
8.120000 93.313 -59.7452
8.250000 93.489 -61.2113
8.380000 93.658 -62.6901
8.500000 93.806 -64.0634
8.620000 93.946 -65.4499
8.750000 94.088 -66.9458
8.850000 94.190 -68.0820
9.000000 94.330 -69.7767
9.120000 94.434 -71.1023
9.250000 94.538 -72.4929
9.380000 94.634 -73.8452
9.500000 94.716 -75.0457
9.620000 94.791 -76.1915
9.750000 94.865 -77.3776
9.880000 94.931 -78.5092
10.000000 94.984 -79.5020
10.150000 95.041 -80.6783
10.300000 95.096 -81.8073
10.440000 95.143 -82.8112
10.600000 95.199 -83.9279
10.750000 95.259 -84.9649
10.900000 95.322 -85.9893
11.060000 95.392 -87.0967
11.200000 95.456 -88.0756
11.380000 95.536 -89.3525
11.500000 95.587 -90.2202
11.720000 95.677 -91.8263
11.800000 95.707 -92.4120
12.060000 95.798 -94.3146
12.200000 95.841 -95.3169
12.410000 95.899 -96.7880
12.500000 95.921 -97.3965
12.650000 95.954 -98.3845
12.800000 95.985 -99.3368
13.150000 96.050 -101.4094
13.200000 96.060 -101.6917
13.400000 96.099 -102.7833
13.600000 96.141 -103.8345
13.800000 96.185 -104.8515
14.000000 96.229 -105.8434
14.300000 96.297 -107.2870
14.500000 96.340 -108.2183
14.750000 96.396 -109.3434
15.000000 96.455 -110.4262
15.250000 96.522 -111.4767
15.500000 96.595 -112.5248
15.750000 96.675 -113.5917
16.000000 96.755 -114.7120
16.250000 96.830 -115.8936
16.500000 96.894 -117.1257
16.750000 96.943 -118.3845
17.000000 96.975 -119.6059
17.250000 96.992 -120.7535
17.500000 96.999 -121.7813
17.750000 97.006 -122.6751
18.000000 97.019 -123.4585
18.250000 97.045 -124.1591
18.500000 97.087 -124.8530
18.750000 97.141 -125.5779
19.000000 97.202 -126.3688
19.250000 97.261 -127.2346
19.500000 97.313 -128.1462
19.750000 97.355 -129.0802
20.000000 97.386 -129.9874
20.299999 97.415 -131.0150
20.600000 97.441 -131.9684
20.900000 97.469 -132.8662
21.200001 97.500 -133.7469
21.400000 97.520 -134.3406
21.799999 97.554 -135.5360
22.000000 97.566 -136.1251
22.400000 97.578 -137.2396
22.700001 97.583 -137.9897
23.000000 97.591 -138.6635
23.299999 97.607 -139.2913
23.600000 97.632 -139.9107
24.000000 97.674 -140.7777
24.299999 97.708 -141.4800
24.700001 97.746 -142.4776
25.000000 97.767 -143.2495
25.400000 97.783 -144.2766
25.799999 97.787 -145.2680
26.200001 97.781 -146.1927
26.500000 97.773 -146.8270
26.900000 97.765 -147.5870
27.200001 97.764 -148.1046
27.600000 97.775 -148.7629
28.000000 97.799 -149.4446
28.500000 97.835 -150.3911
29.000000 97.863 -151.4213
29.500000 97.874 -152.4445
30.000000 97.876 -153.3840
30.400000 97.878 -154.0721
30.700001 97.881 -154.5649
31.100000 97.886 -155.2078
31.500000 97.892 -155.8412
32.000000 97.899 -156.6180
32.500000 97.906 -157.3795
33.000000 97.909 -158.1372
33.500000 97.906 -158.8901
34.000000 97.897 -159.6098
34.500000 97.885 -160.2678
35.000000 97.877 -160.8740
35.500000 97.874 -161.4756
36.000000 97.873 -162.1067
36.500000 97.867 -162.7545
37.000000 97.857 -163.3835
37.500000 97.848 -163.9877
38.200001 97.843 -164.8608
38.700001 97.836 -165.5357
39.500000 97.804 -166.5991
40.000000 97.777 -167.1700
40.599998 97.752 -167.7582
41.200001 97.741 -168.3214
41.799999 97.735 -168.9185
42.500000 97.725 -169.6340
43.099998 97.717 -170.2189
43.700001 97.713 -170.8000
44.400002 97.709 -171.5388
45.000000 97.694 -172.2052
45.500000 97.673 -172.7208
46.200001 97.643 -173.3466
46.799999 97.626 -173.8535
47.500000 97.608 -174.4765
48.200001 97.583 -175.0767
48.700001 97.565 -175.4589
49.400002 97.547 -175.9678
50.000000 97.535 -176.4258
50.799999 97.514 -177.0574
51.500000 97.492 -177.6050
52.200001 97.466 -178.1513
53.000000 97.430 -178.7514
53.799999 97.396 -179.3196
54.500000 97.367 -179.8289
55.200001 97.334 179.6606
56.000000 97.296 179.1301
57.000000 97.258 178.5296
58.000000 97.229 177.9196
59.000000 97.196 177.2919
60.000000 97.156 176.7137
60.799999 97.125 176.2883
61.500000 97.097 175.9114
62.200001 97.067 175.5384
63.000000 97.034 175.1272
64.000000 96.996 174.5833
65.000000 96.954 174.0236
66.000000 96.915 173.5154
67.000000 96.884 173.0076
68.000000 96.854 172.4952
69.000000 96.821 171.9786
70.000000 96.774 171.4576
71.000000 96.709 171.0704
72.000000 96.653 170.8582
73.000000 96.624 170.6606
74.000000 96.612 170.2917
75.000000 96.586 169.7344
76.199997 96.521 169.0654
77.500000 96.440 168.5195
78.800003 96.367 168.0522
80.000000 96.304 167.6809
81.199997 96.250 167.3199
82.500000 96.191 166.9094
83.800003 96.131 166.5378
85.000000 96.080 166.1965
86.199997 96.029 165.8499
87.500000 95.977 165.4680
88.500000 95.937 165.1624
90.000000 95.876 164.6945
91.199997 95.822 164.3751
92.500000 95.769 164.1207
93.800003 95.727 163.8843
95.000000 95.687 163.6007
96.199997 95.635 163.2508
97.500000 95.562 162.8892
98.800003 95.493 162.5968
100.000000 95.441 162.3356
101.500000 95.385 162.0223
103.000000 95.333 161.7531
104.400002 95.280 161.5409
106.000000 95.211 161.3220
107.500000 95.138 161.0999
109.000000 95.064 160.8864
110.599998 95.000 160.6580
112.000000 94.948 160.4222
113.800003 94.870 160.1672
115.000000 94.813 160.0489
117.199997 94.712 159.8178
118.000000 94.675 159.7052
120.599998 94.572 159.3606
122.000000 94.526 159.1605
124.099998 94.458 158.9539
125.000000 94.432 158.8687
126.500000 94.384 158.6854
128.000000 94.327 158.4900
131.500000 94.201 158.1217
132.000000 94.184 158.0749
134.000000 94.117 157.9053
136.000000 94.047 157.7984
138.000000 93.985 157.7203
140.000000 93.921 157.6006
143.000000 93.824 157.4242
145.000000 93.757 157.3004
147.500000 93.677 157.2407
150.000000 93.609 157.1932
152.500000 93.538 157.1103
155.000000 93.463 157.0232
157.500000 93.386 156.9416
160.000000 93.311 156.8884
162.500000 93.240 156.8551
165.000000 93.168 156.8552
167.500000 93.092 156.8448
170.000000 93.010 156.8038
172.500000 92.935 156.8045
175.000000 92.871 156.8121
177.500000 92.798 156.8107
180.000000 92.715 156.8077
182.500000 92.640 156.8009
185.000000 92.577 156.8179
187.500000 92.511 156.9059
190.000000 92.441 157.0428
192.500000 92.375 157.1260
195.000000 92.316 157.1635
197.500000 92.261 157.2005
200.000000 92.203 157.2453
203.000000 92.132 157.3168
206.000000 92.061 157.4221
209.000000 91.993 157.5610
212.000000 91.929 157.7060
214.000000 91.889 157.7914
218.000000 91.804 157.9136
220.000000 91.757 157.9826
224.000000 91.663 158.1949
227.000000 91.603 158.3522
230.000000 91.549 158.4595
233.000000 91.492 158.5798
236.000000 91.435 158.7498
240.000000 91.363 158.9846
243.000000 91.309 159.1393
247.000000 91.232 159.3790
250.000000 91.173 159.5836
254.000000 91.103 159.8438
258.000000 91.043 160.1077
262.000000 90.982 160.3680
265.000000 90.930 160.5028
269.000000 90.864 160.6912
272.000000 90.821 160.8764
276.000000 90.765 161.1498
280.000000 90.708 161.4426
285.000000 90.635 161.7606
290.000000 90.559 162.0060
295.000000 90.491 162.2993
300.000000 90.435 162.6891
304.000000 90.386 163.0068
307.000000 90.349 163.2197
311.000000 90.299 163.4867
315.000000 90.251 163.7734
320.000000 90.200 164.1517
325.000000 90.151 164.5229
330.000000 90.106 164.8658
335.000000 90.051 165.2004
340.000000 89.994 165.5790
345.000000 89.940 165.9706
350.000000 89.889 166.3499
355.000000 89.845 166.7244
360.000000 89.802 167.0785
365.000000 89.762 167.4552
370.000000 89.723 167.8719
375.000000 89.685 168.2778
382.000000 89.628 168.7952
387.000000 89.588 169.1254
395.000000 89.527 169.7313
400.000000 89.484 170.1625
406.000000 89.437 170.6835
412.000000 89.398 171.1566
418.000000 89.359 171.5808
425.000000 89.318 172.0890
431.000000 89.284 172.5567
437.000000 89.248 173.0566
444.000000 89.205 173.6350
450.000000 89.174 174.1113
455.000000 89.150 174.5068
462.000000 89.117 175.0548
468.000000 89.091 175.5210
475.000000 89.062 176.0575
482.000000 89.035 176.5837
487.000000 89.019 176.9572
494.000000 88.998 177.4919
500.000000 88.981 177.9619
508.000000 88.962 178.5853
515.000000 88.949 179.0956
522.000000 88.940 179.5792
530.000000 88.932 -179.8810
538.000000 88.917 -179.3312
545.000000 88.899 -178.7997
552.000000 88.881 -178.2553
560.000000 88.865 -177.6620
570.000000 88.853 -176.9622
580.000000 88.847 -176.2722
590.000000 88.838 -175.5480
600.000000 88.827 -174.8102
608.000000 88.819 -174.2309
615.000000 88.810 -173.7287
622.000000 88.801 -173.2161
630.000000 88.793 -172.6230
640.000000 88.788 -171.8873
650.000000 88.789 -171.1645
660.000000 88.796 -170.4612
670.000000 88.804 -169.7584
680.000000 88.811 -169.0417
690.000000 88.816 -168.3095
700.000000 88.822 -167.5727
710.000000 88.834 -166.8499
720.000000 88.850 -166.1435
730.000000 88.870 -165.4412
740.000000 88.891 -164.7177
750.000000 88.912 -163.9746
762.000000 88.940 -163.1000
775.000000 88.976 -162.1826
788.000000 89.014 -161.2709
800.000000 89.048 -160.4275
812.000000 89.088 -159.5808
825.000000 89.136 -158.6894
838.000000 89.188 -157.8120
850.000000 89.239 -157.0069
862.000000 89.290 -156.2045
875.000000 89.352 -155.3575
885.000000 89.405 -154.7248
900.000000 89.488 -153.7963
912.000000 89.556 -153.0592
925.000000 89.630 -152.2719
938.000000 89.711 -151.5147
950.000000 89.792 -150.8574
962.000000 89.874 -150.2252
975.000000 89.962 -149.5515
988.000000 90.047 -148.8950
1000.000000 90.128 -148.3074
1015.000000 90.235 -147.6205
1030.000000 90.345 -146.9850
1044.000000 90.447 -146.4154
1060.000000 90.560 -145.7924
1075.000000 90.667 -145.2432
1090.000000 90.783 -144.7286
1106.000000 90.918 -144.2267
1120.000000 91.039 -143.8254
1138.000000 91.194 -143.3384
1150.000000 91.295 -143.0185
1172.000000 91.472 -142.4551
1180.000000 91.535 -142.2646
1206.000000 91.740 -141.6862
1220.000000 91.852 -141.3849
1241.000000 92.024 -140.9587
1250.000000 92.100 -140.7862
1265.000000 92.228 -140.5089
1280.000000 92.356 -140.2433
1315.000000 92.643 -139.6374
1320.000000 92.682 -139.5524
1340.000000 92.833 -139.2208
1360.000000 92.967 -138.8990
1380.000000 93.100 -138.5958
1400.000000 93.247 -138.2966
1430.000000 93.474 -137.8470
1450.000000 93.633 -137.5732
1475.000000 93.838 -137.2668
1500.000000 94.041 -136.9572
1525.000000 94.245 -136.6647
1550.000000 94.453 -136.4279
1575.000000 94.666 -136.2161
1600.000000 94.882 -136.0485
1625.000000 95.105 -135.9338
1650.000000 95.336 -135.8849
1675.000000 95.580 -135.9310
1700.000000 95.828 -136.0717
1725.000000 96.072 -136.2891
1750.000000 96.314 -136.6077
1775.000000 96.553 -137.0267
1800.000000 96.790 -137.5469
1825.000000 97.023 -138.1675
1850.000000 97.251 -138.8829
1875.000000 97.474 -139.6894
1900.000000 97.691 -140.5690
1925.000000 97.900 -141.5127
1950.000000 98.104 -142.5262
1975.000000 98.303 -143.6129
2000.000000 98.497 -144.7750
2030.000000 98.720 -146.2762
2060.000000 98.929 -147.8754
2090.000000 99.129 -149.6019
2120.000000 99.326 -151.4797
2140.000000 99.455 -152.8242
2180.000000 99.705 -155.8143
2200.000000 99.822 -157.5096
2240.000000 100.018 -161.4656
2270.000000 100.100 -165.0610
2300.000000 100.073 -169.2439
2330.000000 99.863 -173.7700
2360.000000 99.406 -177.8849
2400.000000 98.472 179.1530
2430.000000 97.746 179.4156
2470.000000 97.078 -178.2970
2500.000000 96.831 -176.4120
2540.000000 96.701 -174.5269
2580.000000 96.667 -173.3707
2620.000000 96.674 -172.7563
2650.000000 96.698 -172.6414
2690.000000 96.724 -173.0328
2720.000000 96.705 -173.6556
2760.000000 96.600 -174.5457
2800.000000 96.431 -175.1505
2850.000000 96.199 -175.4348
2900.000000 95.988 -175.4968
2950.000000 95.787 -175.6259
3000.000000 95.547 -175.8666
3040.000000 95.285 -175.9135
3070.000000 95.041 -175.5925
3110.000000 94.692 -174.2686
3150.000000 94.443 -171.8825
3200.000000 94.423 -168.6894
3250.000000 94.592 -166.6722
3300.000000 94.757 -165.7704
3350.000000 94.859 -165.4572
3400.000000 94.890 -165.3152
3450.000000 94.877 -165.0755
3500.000000 94.853 -164.6528
3550.000000 94.834 -164.0642
3600.000000 94.828 -163.3680
3650.000000 94.835 -162.6346
3700.000000 94.855 -161.9089
3750.000000 94.884 -161.2090
3820.000000 94.934 -160.2866
3870.000000 94.966 -159.6411
3950.000000 95.019 -158.4737
4000.000000 95.076 -157.6981
4060.000000 95.172 -156.8745
4120.000000 95.287 -156.2853
4180.000000 95.387 -155.9690
4250.000000 95.430 -155.6486
4310.000000 95.425 -154.8654
4370.000000 95.477 -153.5934
4440.000000 95.633 -152.2623
4500.000000 95.787 -151.3822
4550.000000 95.935 -150.6504
4620.000000 96.200 -149.7642
4680.000000 96.466 -149.3398
4750.000000 96.794 -149.2880
4820.000000 97.132 -149.6884
4870.000000 97.374 -150.2657
4940.000000 97.701 -151.5528
5000.000000 97.943 -153.1188
5080.000000 98.174 -155.5614
5150.000000 98.349 -157.7501
5220.000000 98.537 -160.6708
5300.000000 98.580 -165.5507
5380.000000 98.242 -171.0137
5450.000000 97.602 -174.9145
5520.000000 96.656 -176.9353
5600.000000 95.216 -174.1698
5700.000000 94.235 -159.7531
5800.000000 95.535 -149.2187
5900.000000 96.734 -148.8294
6000.000000 97.437 -150.9964
6080.000000 97.798 -152.9733
6150.000000 98.014 -154.6989
6220.000000 98.163 -156.3095
6300.000000 98.277 -157.9150
6400.000000 98.368 -159.4937
6500.000000 98.443 -160.5627
6600.000000 98.555 -161.3196
6700.000000 98.720 -162.0091
6800.000000 98.957 -162.8137
6900.000000 99.268 -164.1646
7000.000000 99.552 -166.1016
7100.000000 99.795 -167.9422
7200.000000 100.105 -169.7057
7300.000000 100.505 -172.2143
7400.000000 100.880 -176.0397
7500.000000 101.093 179.0164
7620.000000 101.057 172.8922
7750.000000 100.800 168.0098
7880.000000 100.669 164.6031
8000.000000 100.714 159.5463
8120.000000 100.466 152.0668
8250.000000 99.673 144.2966
8380.000000 98.533 138.2845
8500.000000 97.216 134.3109
8620.000000 95.533 134.1590
8750.000000 93.805 141.0326
8850.000000 93.279 147.3942
9000.000000 93.185 151.8589
9120.000000 92.978 153.1085
9250.000000 92.589 154.5798
9380.000000 92.164 157.1855
9500.000000 91.952 160.5342
9620.000000 92.005 163.3577
9750.000000 92.168 164.8589
9880.000000 92.299 165.3794
10000.000000 92.414 165.3432
10150.000000 92.533 164.5225
10300.000000 92.636 162.9534
10440.000000 92.731 160.2063
10600.000000 92.662 154.6906
10750.000000 92.124 147.6629
10900.000000 90.819 142.5955
11060.000000 88.892 144.9869
11200.000000 87.728 150.9013
11380.000000 87.033 156.6009
11500.000000 86.625 159.4317
11720.000000 85.839 165.4922
11800.000000 85.599 168.1315
12060.000000 85.186 177.4937
12200.000000 85.233 -178.0530
12410.000000 85.326 -173.3314
12500.000000 85.316 -171.4526
12650.000000 85.326 -168.0016
12800.000000 85.457 -164.6122
13150.000000 85.952 -160.6533
13200.000000 85.963 -160.6584
13400.000000 85.575 -160.1992
13600.000000 84.725 -153.2756
13800.000000 85.041 -139.0734
14000.000000 87.012 -127.9102
14300.000000 90.252 -126.2317
14500.000000 91.925 -132.3109
14750.000000 93.220 -144.3752
15000.000000 93.678 -157.5691
15250.000000 93.520 -169.2631
15500.000000 93.103 -178.2932
15750.000000 92.803 173.8597
16000.000000 92.521 164.2708
16250.000000 91.788 152.4469
16500.000000 90.232 141.8073
16750.000000 87.911 137.3073
17000.000000 85.432 140.5515
17250.000000 83.643 147.8926
17500.000000 82.745 154.7334
17750.000000 82.288 159.5088
18000.000000 81.941 162.6121
18250.000000 81.616 164.6013
18500.000000 81.361 165.8513
18750.000000 81.265 166.3724
19000.000000 81.181 165.9692
19250.000000 80.696 165.9227
19500.000000 79.630 169.0204
19750.000000 78.353 176.2122
20000.000000 77.395 -174.9301
20300.000000 76.834 -166.9152
20600.000000 76.379 -163.8088
20900.000000 75.460 -163.6174
21200.000000 73.979 -163.7326
21400.000000 72.723 -163.5753
21800.000000 69.628 -163.2675
22000.000000 67.779 -163.6059
22400.000000 63.344 -169.4523
22700.000000 59.116 159.0780
23000.000000 53.858 -26.1730
23300.000000 47.456 -30.4979
23600.000000 39.917 49.2563
24000.000000 29.090 -19.7910
