* Measurement data measured by REW V5.20.13
* Source: Headset (DS by VECLAN.COM), MICROPHONE (Master Volume), L, volume: 0.630
* Format: 2M Log Swept Sine, 1 sweep at -12.0 dBFS with no timing reference
* Dated: Apr 29, 2023 3:51:25 PM
* REW Settings:
*  C-weighting compensation: Off
*  Target level: 75.0 dB
* Note: ; 
* Measurement: Salnotes Zero S2 R
* Smoothing: 1/24 octave
* Frequency Step: 1/48 octave
* Start Frequency: 1.000 Hz
*
* Freq(Hz) SPL(dB) Phase(degrees)
1.000000 62.767 2.7878
1.015000 63.084 1.5427
1.030000 63.394 0.3086
1.044000 63.676 -0.8298
1.060000 63.987 -2.1104
1.075000 64.266 -3.2873
1.090000 64.532 -4.4368
1.106000 64.800 -5.6357
1.120000 65.031 -6.6992
1.138000 65.326 -8.0940
1.150000 65.522 -9.0384
1.172000 65.878 -10.7935
1.180000 66.006 -11.4377
1.206000 66.420 -13.5454
1.220000 66.640 -14.6847
1.241000 66.967 -16.3922
1.250000 67.105 -17.1215
1.265000 67.334 -18.3311
1.280000 67.560 -19.5303
1.315000 68.077 -22.2699
1.320000 68.149 -22.6527
1.340000 68.436 -24.1580
1.360000 68.716 -25.6155
1.380000 68.990 -27.0174
1.400000 69.257 -28.3559
1.430000 69.645 -30.2276
1.450000 69.894 -31.3733
1.475000 70.194 -32.6784
1.500000 70.480 -33.8528
1.525000 70.752 -34.9105
1.550000 71.011 -35.8630
1.575000 71.260 -36.7219
1.600000 71.498 -37.4991
1.625000 71.727 -38.2060
1.650000 71.949 -38.8544
1.675000 72.164 -39.4558
1.700000 72.375 -40.0221
1.725000 72.582 -40.5648
1.750000 72.787 -41.0955
1.775000 72.991 -41.6260
1.800000 73.195 -42.1678
1.825000 73.400 -42.7327
1.850000 73.607 -43.3116
1.875000 73.808 -43.8626
1.900000 74.006 -44.3860
1.925000 74.200 -44.8846
1.950000 74.391 -45.3609
1.975000 74.578 -45.8175
2.000000 74.763 -46.2569
2.030000 74.981 -46.7652
2.060000 75.196 -47.2571
2.090000 75.408 -47.7368
2.120000 75.618 -48.2090
2.140000 75.757 -48.5218
2.180000 76.033 -49.1485
2.200000 76.171 -49.4649
2.240000 76.444 -50.0861
2.270000 76.646 -50.5366
2.300000 76.845 -50.9752
2.330000 77.042 -51.4034
2.360000 77.236 -51.8221
2.400000 77.492 -52.3680
2.430000 77.681 -52.7697
2.470000 77.929 -53.2974
2.500000 78.113 -53.6887
2.540000 78.354 -54.2070
2.580000 78.591 -54.7220
2.620000 78.824 -55.2208
2.650000 78.995 -55.5844
2.690000 79.220 -56.0585
2.720000 79.386 -56.4086
2.760000 79.603 -56.8716
2.800000 79.817 -57.3343
2.850000 80.080 -57.9188
2.900000 80.339 -58.5183
2.950000 80.592 -59.1402
3.000000 80.841 -59.7796
3.040000 81.035 -60.2999
3.070000 81.179 -60.6938
3.110000 81.368 -61.2223
3.150000 81.554 -61.7527
3.200000 81.782 -62.4151
3.250000 82.006 -63.0731
3.300000 82.225 -63.7225
3.350000 82.440 -64.3617
3.400000 82.650 -64.9937
3.450000 82.856 -65.6221
3.500000 83.058 -66.2505
3.550000 83.255 -66.8825
3.600000 83.448 -67.5215
3.650000 83.636 -68.1711
3.700000 83.821 -68.8340
3.750000 84.002 -69.5082
3.820000 84.247 -70.4653
3.870000 84.418 -71.1546
3.950000 84.682 -72.2594
4.000000 84.843 -72.9465
4.060000 85.030 -73.7647
4.120000 85.212 -74.5819
4.180000 85.387 -75.3987
4.250000 85.585 -76.3498
4.310000 85.750 -77.1628
4.370000 85.909 -77.9727
4.440000 86.088 -78.9151
4.500000 86.236 -79.7246
4.550000 86.356 -80.3981
4.620000 86.517 -81.3354
4.680000 86.651 -82.1297
4.750000 86.802 -83.0410
4.820000 86.947 -83.9359
4.870000 87.047 -84.5687
4.940000 87.181 -85.4436
5.000000 87.293 -86.1814
5.080000 87.437 -87.1441
5.150000 87.559 -87.9640
5.220000 87.677 -88.7641
5.300000 87.806 -89.6558
5.380000 87.931 -90.5244
5.450000 88.038 -91.2663
5.520000 88.144 -91.9916
5.600000 88.262 -92.7958
5.700000 88.405 -93.7693
5.800000 88.545 -94.7163
5.900000 88.685 -95.6443
6.000000 88.824 -96.5419
6.080000 88.934 -97.2451
6.150000 89.030 -97.8569
6.220000 89.125 -98.4713
6.300000 89.234 -99.1742
6.400000 89.370 -100.0466
6.500000 89.505 -100.9228
6.600000 89.638 -101.8143
6.700000 89.769 -102.7214
6.800000 89.898 -103.6402
6.900000 90.024 -104.5720
7.000000 90.144 -105.5188
7.100000 90.260 -106.4851
7.200000 90.371 -107.4627
7.300000 90.475 -108.4410
7.400000 90.573 -109.4183
7.500000 90.664 -110.4022
7.620000 90.765 -111.5714
7.750000 90.865 -112.8010
7.880000 90.952 -114.0048
8.000000 91.025 -115.0770
8.120000 91.092 -116.0939
8.250000 91.157 -117.1409
8.380000 91.218 -118.1291
8.500000 91.273 -118.9829
8.620000 91.326 -119.7799
8.750000 91.384 -120.5965
8.850000 91.431 -121.1989
9.000000 91.504 -122.0475
9.120000 91.566 -122.7048
9.250000 91.638 -123.4118
9.380000 91.714 -124.1034
9.500000 91.784 -124.7484
9.620000 91.852 -125.4112
9.750000 91.926 -126.1408
9.880000 91.992 -126.8842
10.000000 92.043 -127.5888
10.150000 92.095 -128.4863
10.300000 92.136 -129.3742
10.440000 92.160 -130.1979
10.600000 92.180 -131.1173
10.750000 92.194 -131.9423
10.900000 92.203 -132.7372
11.060000 92.212 -133.5479
11.200000 92.220 -134.2249
11.380000 92.231 -135.0589
11.500000 92.240 -135.5890
11.720000 92.259 -136.5305
11.800000 92.268 -136.8695
12.060000 92.303 -137.9609
12.200000 92.325 -138.5653
12.410000 92.359 -139.4882
12.500000 92.372 -139.8888
12.650000 92.392 -140.5660
12.800000 92.409 -141.2436
13.150000 92.432 -142.8022
13.200000 92.435 -143.0185
13.400000 92.441 -143.8664
13.600000 92.446 -144.6822
13.800000 92.451 -145.4611
14.000000 92.456 -146.2214
14.300000 92.465 -147.3378
14.500000 92.471 -148.0840
14.750000 92.477 -149.0235
15.000000 92.479 -149.9700
15.250000 92.476 -150.9100
15.500000 92.467 -151.8120
15.750000 92.454 -152.6594
16.000000 92.439 -153.4326
16.250000 92.428 -154.1492
16.500000 92.423 -154.8267
16.750000 92.426 -155.4955
17.000000 92.436 -156.1897
17.250000 92.448 -156.9168
17.500000 92.458 -157.6834
17.750000 92.461 -158.4611
18.000000 92.456 -159.2258
18.250000 92.443 -159.9506
18.500000 92.427 -160.6092
18.750000 92.414 -161.2073
19.000000 92.405 -161.7507
19.250000 92.405 -162.2753
19.500000 92.411 -162.8042
19.750000 92.422 -163.3549
20.000000 92.431 -163.9375
20.299999 92.436 -164.6583
20.600000 92.433 -165.3745
20.900000 92.422 -166.0524
21.200001 92.407 -166.6697
21.400000 92.398 -167.0505
21.799999 92.383 -167.7662
22.000000 92.378 -168.1169
22.400000 92.370 -168.8330
22.700001 92.363 -169.3862
23.000000 92.353 -169.9446
23.299999 92.339 -170.5000
23.600000 92.323 -171.0497
24.000000 92.295 -171.7729
24.299999 92.270 -172.3022
24.700001 92.229 -172.9648
25.000000 92.195 -173.4039
25.400000 92.151 -173.8957
25.799999 92.121 -174.3182
26.200001 92.107 -174.7617
26.500000 92.102 -175.1539
26.900000 92.090 -175.7562
27.200001 92.072 -176.2223
27.600000 92.038 -176.7819
28.000000 92.005 -177.2220
28.500000 91.988 -177.6845
29.000000 91.996 -178.2562
29.500000 92.002 -179.0259
30.000000 91.980 -179.8629
30.400000 91.946 179.5417
30.700001 91.918 179.1610
31.100000 91.885 178.7104
31.500000 91.858 178.2755
32.000000 91.828 177.7122
32.500000 91.792 177.1500
33.000000 91.753 176.6272
33.500000 91.714 176.1420
34.000000 91.677 175.6740
34.500000 91.643 175.2154
35.000000 91.608 174.7649
35.500000 91.572 174.3202
36.000000 91.532 173.8951
36.500000 91.493 173.5137
37.000000 91.459 173.1647
37.500000 91.433 172.7917
38.200001 91.393 172.1685
38.700001 91.350 171.7174
39.500000 91.272 171.1446
40.000000 91.228 170.8329
40.599998 91.173 170.4503
41.200001 91.108 170.1487
41.799999 91.051 170.0022
42.500000 91.022 169.8524
43.099998 91.012 169.5327
43.700001 90.987 169.0748
44.400002 90.936 168.5493
45.000000 90.887 168.1262
45.500000 90.843 167.7548
46.200001 90.767 167.2685
46.799999 90.701 166.9682
47.500000 90.643 166.6799
48.200001 90.600 166.3265
48.700001 90.568 166.0527
49.400002 90.526 165.6893
50.000000 90.492 165.3574
50.799999 90.432 164.9148
51.500000 90.369 164.6967
52.200001 90.325 164.6034
53.000000 90.294 164.3916
53.799999 90.244 164.0841
54.500000 90.191 163.8738
55.200001 90.144 163.6548
56.000000 90.089 163.2641
57.000000 89.980 162.7121
58.000000 89.856 162.4606
59.000000 89.787 162.3720
60.000000 89.754 162.0288
60.799999 89.716 161.6440
61.500000 89.673 161.3477
62.200001 89.624 161.1329
63.000000 89.571 161.0009
64.000000 89.520 160.9350
65.000000 89.484 160.8288
66.000000 89.440 160.6190
67.000000 89.379 160.4078
68.000000 89.315 160.2116
69.000000 89.242 159.9932
70.000000 89.161 159.8633
71.000000 89.097 159.8232
72.000000 89.059 159.7116
73.000000 89.019 159.3668
74.000000 88.939 159.0181
75.000000 88.853 158.9419
76.199997 88.783 158.9533
77.500000 88.723 158.9152
78.800003 88.668 158.8242
80.000000 88.611 158.7609
81.199997 88.563 158.7671
82.500000 88.527 158.7025
83.800003 88.484 158.5119
85.000000 88.423 158.3132
86.199997 88.348 158.1963
87.500000 88.263 158.1895
88.500000 88.210 158.2171
90.000000 88.151 158.1888
91.199997 88.124 157.9905
92.500000 88.072 157.5768
93.800003 87.985 157.3548
95.000000 87.915 157.4340
96.199997 87.868 157.5386
97.500000 87.803 157.6389
98.800003 87.738 157.8440
100.000000 87.689 157.9637
101.500000 87.629 157.9634
103.000000 87.562 157.8293
104.400002 87.497 157.8310
106.000000 87.459 158.0681
107.500000 87.462 158.3812
109.000000 87.464 158.5645
110.599998 87.400 158.6829
112.000000 87.296 158.8624
113.800003 87.158 159.0775
115.000000 87.091 159.0161
117.199997 87.012 158.4829
118.000000 86.995 158.2697
120.599998 86.936 157.8377
122.000000 86.892 157.9940
124.099998 86.832 158.3501
125.000000 86.806 158.4606
126.500000 86.764 158.5266
128.000000 86.715 158.5092
131.500000 86.605 158.7189
132.000000 86.594 158.7637
134.000000 86.555 158.8884
136.000000 86.513 159.0223
138.000000 86.463 159.1786
140.000000 86.391 159.4019
143.000000 86.318 159.6513
145.000000 86.310 159.5628
147.500000 86.288 159.4429
150.000000 86.217 159.7755
152.500000 86.141 160.0963
155.000000 86.064 160.1617
157.500000 86.015 160.2439
160.000000 85.974 160.4702
162.500000 85.921 160.7252
165.000000 85.850 160.9015
167.500000 85.794 161.0855
170.000000 85.754 161.3910
172.500000 85.736 161.7255
175.000000 85.702 161.7884
177.500000 85.621 161.9198
180.000000 85.571 162.3176
182.500000 85.590 162.5086
185.000000 85.620 162.1697
187.500000 85.590 161.7133
190.000000 85.517 161.5139
192.500000 85.465 161.5047
195.000000 85.475 161.6284
197.500000 85.493 162.1235
200.000000 85.450 163.1745
203.000000 85.337 164.4236
206.000000 85.261 164.9008
209.000000 85.267 164.8719
212.000000 85.269 164.7606
214.000000 85.241 164.7302
218.000000 85.179 164.9651
220.000000 85.153 165.1815
224.000000 85.078 165.5304
227.000000 85.020 165.6132
230.000000 84.983 165.7278
233.000000 84.971 165.9330
236.000000 84.955 166.2004
240.000000 84.908 166.6958
243.000000 84.872 166.9772
247.000000 84.827 167.1156
250.000000 84.802 167.2333
254.000000 84.796 167.5165
258.000000 84.789 167.7492
262.000000 84.751 167.9893
265.000000 84.729 168.2418
269.000000 84.710 168.5674
272.000000 84.691 168.7860
276.000000 84.671 169.0482
280.000000 84.648 169.2303
285.000000 84.598 169.5670
290.000000 84.566 169.9568
295.000000 84.550 170.1519
300.000000 84.538 170.3852
304.000000 84.530 170.6163
307.000000 84.521 170.7938
311.000000 84.502 171.0754
315.000000 84.477 171.3719
320.000000 84.460 171.6404
325.000000 84.448 171.9344
330.000000 84.426 172.2505
335.000000 84.415 172.5526
340.000000 84.400 172.8356
345.000000 84.382 173.0778
350.000000 84.365 173.3148
355.000000 84.347 173.5435
360.000000 84.335 173.7722
365.000000 84.328 174.0682
370.000000 84.314 174.3547
375.000000 84.297 174.6158
382.000000 84.270 175.0399
387.000000 84.246 175.3840
395.000000 84.206 175.7802
400.000000 84.192 175.9116
406.000000 84.193 176.0994
412.000000 84.199 176.3517
418.000000 84.187 176.6960
425.000000 84.148 177.1778
431.000000 84.118 177.5171
437.000000 84.101 177.8131
444.000000 84.078 178.1095
450.000000 84.059 178.3218
455.000000 84.051 178.5375
462.000000 84.040 178.9129
468.000000 84.033 179.2397
475.000000 84.021 179.6215
482.000000 83.998 179.9871
487.000000 83.979 -179.8124
494.000000 83.958 -179.5007
500.000000 83.949 -179.2113
508.000000 83.942 -178.8997
515.000000 83.924 -178.5155
522.000000 83.901 -178.0704
530.000000 83.887 -177.6835
538.000000 83.889 -177.2227
545.000000 83.875 -176.8562
552.000000 83.867 -176.6097
560.000000 83.864 -176.2449
570.000000 83.862 -175.7946
580.000000 83.858 -175.3563
590.000000 83.841 -174.7806
600.000000 83.835 -174.2314
608.000000 83.840 -173.8948
615.000000 83.839 -173.5919
622.000000 83.835 -173.2047
630.000000 83.825 -172.7297
640.000000 83.786 -172.2575
650.000000 83.756 -171.7245
660.000000 83.752 -171.1859
670.000000 83.753 -170.6703
680.000000 83.758 -170.1798
690.000000 83.763 -169.6533
700.000000 83.768 -169.0834
710.000000 83.769 -168.4948
720.000000 83.773 -167.9468
730.000000 83.784 -167.4530
740.000000 83.803 -166.9390
750.000000 83.810 -166.3856
762.000000 83.796 -165.6679
775.000000 83.776 -164.8386
788.000000 83.762 -164.0767
800.000000 83.769 -163.4443
812.000000 83.788 -162.7693
825.000000 83.820 -162.0293
838.000000 83.865 -161.3413
850.000000 83.912 -160.6955
862.000000 83.955 -160.0086
875.000000 83.996 -159.2835
885.000000 84.032 -158.7716
900.000000 84.093 -158.0063
912.000000 84.142 -157.3761
925.000000 84.195 -156.7177
938.000000 84.251 -156.0936
950.000000 84.305 -155.5312
962.000000 84.361 -154.9939
975.000000 84.422 -154.4490
988.000000 84.484 -153.9277
1000.000000 84.545 -153.4563
1015.000000 84.623 -152.9052
1030.000000 84.703 -152.3854
1044.000000 84.783 -151.9296
1060.000000 84.877 -151.5201
1075.000000 84.961 -151.2290
1090.000000 85.044 -151.0049
1106.000000 85.124 -150.8436
1120.000000 85.180 -150.6375
1138.000000 85.261 -150.1929
1150.000000 85.325 -149.8968
1172.000000 85.450 -149.4792
1180.000000 85.495 -149.3619
1206.000000 85.636 -149.0570
1220.000000 85.708 -148.9118
1241.000000 85.810 -148.7068
1250.000000 85.852 -148.6230
1265.000000 85.919 -148.4904
1280.000000 85.986 -148.3615
1315.000000 86.133 -148.0656
1320.000000 86.152 -148.0241
1340.000000 86.216 -147.8555
1360.000000 86.258 -147.6813
1380.000000 86.298 -147.5003
1400.000000 86.351 -147.3041
1430.000000 86.430 -147.0079
1450.000000 86.476 -146.7753
1475.000000 86.532 -146.4897
1500.000000 86.590 -146.1992
1525.000000 86.640 -145.8782
1550.000000 86.681 -145.5386
1575.000000 86.721 -145.1910
1600.000000 86.761 -144.8182
1625.000000 86.802 -144.4333
1650.000000 86.842 -144.0362
1675.000000 86.882 -143.6255
1700.000000 86.927 -143.2017
1725.000000 86.978 -142.7642
1750.000000 87.032 -142.3016
1775.000000 87.090 -141.8311
1800.000000 87.151 -141.3554
1825.000000 87.212 -140.8811
1850.000000 87.277 -140.4207
1875.000000 87.344 -139.9899
1900.000000 87.411 -139.5797
1925.000000 87.476 -139.1624
1950.000000 87.539 -138.7444
1975.000000 87.602 -138.3254
2000.000000 87.667 -137.9037
2030.000000 87.744 -137.3977
2060.000000 87.821 -136.8858
2090.000000 87.901 -136.3771
2120.000000 87.986 -135.8712
2140.000000 88.045 -135.5388
2180.000000 88.167 -134.9024
2200.000000 88.226 -134.5893
2240.000000 88.338 -133.9460
2270.000000 88.425 -133.4727
2300.000000 88.519 -133.0311
2330.000000 88.621 -132.6185
2360.000000 88.727 -132.2200
2400.000000 88.866 -131.7042
2430.000000 88.967 -131.3300
2470.000000 89.102 -130.8542
2500.000000 89.207 -130.5338
2540.000000 89.353 -130.1357
2580.000000 89.505 -129.7736
2620.000000 89.660 -129.4579
2650.000000 89.775 -129.2448
2690.000000 89.929 -128.9992
2720.000000 90.048 -128.8533
2760.000000 90.209 -128.7212
2800.000000 90.366 -128.6297
2850.000000 90.558 -128.5666
2900.000000 90.750 -128.5978
2950.000000 90.936 -128.7039
3000.000000 91.124 -128.8613
3040.000000 91.282 -129.0522
3070.000000 91.405 -129.2300
3110.000000 91.567 -129.4927
3150.000000 91.727 -129.7970
3200.000000 91.929 -130.2870
3250.000000 92.132 -130.9322
3300.000000 92.334 -131.7828
3350.000000 92.528 -132.8531
3400.000000 92.702 -134.1039
3450.000000 92.850 -135.4811
3500.000000 92.975 -136.9486
3550.000000 93.081 -138.4863
3600.000000 93.165 -140.0737
3650.000000 93.221 -141.6824
3700.000000 93.252 -143.3171
3750.000000 93.256 -144.9705
3820.000000 93.214 -147.2967
3870.000000 93.150 -148.9499
3950.000000 92.987 -151.5530
4000.000000 92.849 -153.1349
4060.000000 92.642 -154.9466
4120.000000 92.388 -156.5835
4180.000000 92.089 -157.9257
4250.000000 91.698 -158.9944
4310.000000 91.348 -159.4640
4370.000000 91.003 -159.5870
4440.000000 90.627 -159.4447
4500.000000 90.331 -159.1822
4550.000000 90.098 -158.9008
4620.000000 89.789 -158.4440
4680.000000 89.529 -157.9882
4750.000000 89.221 -157.3544
4820.000000 88.910 -156.5997
4870.000000 88.691 -155.9687
4940.000000 88.390 -154.9248
5000.000000 88.146 -153.8859
5080.000000 87.842 -152.3183
5150.000000 87.595 -150.8194
5220.000000 87.367 -149.2491
5300.000000 87.136 -147.3979
5380.000000 86.936 -145.5000
5450.000000 86.782 -143.8016
5520.000000 86.644 -142.0714
5600.000000 86.504 -140.0757
5700.000000 86.360 -137.5677
5800.000000 86.251 -135.0128
5900.000000 86.181 -132.3887
6000.000000 86.149 -129.8328
6080.000000 86.141 -127.9156
6150.000000 86.145 -126.2791
6220.000000 86.159 -124.6375
6300.000000 86.195 -122.7573
6400.000000 86.269 -120.4304
6500.000000 86.378 -118.1908
6600.000000 86.525 -116.0705
6700.000000 86.708 -114.1014
6800.000000 86.933 -112.3352
6900.000000 87.209 -110.8078
7000.000000 87.537 -109.5730
7100.000000 87.898 -108.6706
7200.000000 88.278 -108.1656
7300.000000 88.671 -108.1419
7400.000000 89.056 -108.6482
7500.000000 89.417 -109.7120
7620.000000 89.810 -111.7085
7750.000000 90.142 -114.6355
7880.000000 90.253 -118.1010
8000.000000 90.158 -121.4196
8120.000000 89.914 -124.5154
8250.000000 89.515 -127.3949
8380.000000 89.006 -129.6641
8500.000000 88.472 -131.1326
8620.000000 87.901 -131.9850
8750.000000 87.249 -132.2834
8850.000000 86.732 -132.1190
9000.000000 85.955 -131.2903
9120.000000 85.338 -130.1828
9250.000000 84.675 -128.5780
9380.000000 84.014 -126.5548
9500.000000 83.413 -124.3105
9620.000000 82.831 -121.6879
9750.000000 82.228 -118.3903
9880.000000 81.660 -114.6001
10000.000000 81.176 -110.6696
10150.000000 80.639 -105.1963
10300.000000 80.188 -99.1491
10440.000000 79.854 -93.0226
10600.000000 79.594 -85.4678
10750.000000 79.496 -77.8373
10900.000000 79.583 -69.6574
11060.000000 79.962 -60.4081
11200.000000 80.634 -52.2014
11380.000000 82.062 -42.6539
11500.000000 83.330 -37.8772
11720.000000 85.952 -34.4477
11800.000000 86.899 -35.1084
12060.000000 89.641 -43.9419
12200.000000 90.765 -52.8475
12410.000000 91.625 -71.0736
12500.000000 91.596 -79.7963
12650.000000 90.985 -93.4497
12800.000000 89.786 -104.0371
13150.000000 86.027 -114.4943
13200.000000 85.493 -114.7406
13400.000000 83.518 -113.8463
13600.000000 81.833 -110.9341
13800.000000 80.428 -106.8618
14000.000000 79.262 -102.1139
14300.000000 77.872 -94.2869
14500.000000 77.148 -88.8584
14750.000000 76.439 -82.1418
15000.000000 75.918 -75.6698
15250.000000 75.575 -69.5875
15500.000000 75.427 -64.1109
15750.000000 75.461 -59.4793
16000.000000 75.617 -55.9555
16250.000000 75.839 -53.8550
16500.000000 76.064 -53.5160
16750.000000 76.199 -55.2236
17000.000000 76.116 -58.9749
17250.000000 75.681 -64.1887
17500.000000 74.817 -69.6481
17750.000000 73.532 -73.9885
18000.000000 71.928 -76.4377
18250.000000 70.129 -77.1104
18500.000000 68.134 -75.9239
18750.000000 65.901 -71.1149
19000.000000 63.782 -63.0958
19250.000000 61.982 -54.3695
19500.000000 60.302 -45.1430
19750.000000 58.681 -34.8768
20000.000000 57.132 -23.5197
20300.000000 55.451 -8.7532
20600.000000 54.148 6.9699
20900.000000 53.275 23.2016
21200.000000 52.854 39.0933
21400.000000 52.817 48.9971
21800.000000 53.203 65.5792
22000.000000 53.486 71.5728
22400.000000 53.662 78.7782
22700.000000 53.075 82.3892
23000.000000 51.800 88.1986
23300.000000 50.071 98.8765
23600.000000 48.339 114.0835
24000.000000 47.018 129.6815
