* Measurement data measured by REW V5.20.13
* Source: Microphone (High Definition Audio Device), MICROPHONE (Master Volume), L, volume: 0.950. Timing signal peak level -15.4 dBFS, measurement signal peak level -15.5 dBFS
* Format: 512k Log Swept Sine, 1 sweep at -12.0 dBFS using an acoustic timing reference
* Dated: Dec 13, 2022 11:27:07 AM
* REW Settings:
*  C-weighting compensation: Off
*  Target level: 75.0 dB
* Note: ; Delay -0.0389 ms (-13 mm, -0.53 in) using estimated IR delay relative to Acoustic reference played from HEADPHONE L with no timing offset Clock adjustment: 120.5 ppm
* Measurement: Samsung FreeBuds L
* Smoothing: 1/24 octave
* Frequency Step: 1/48 octave
* Start Frequency: 1.000 Hz
*
* Freq(Hz) SPL(dB) Phase(degrees)
1.000000 80.928 54.7941
1.015000 80.789 54.8945
1.030000 80.650 54.9154
1.044000 80.520 54.8568
1.060000 80.373 54.6898
1.075000 80.236 54.4292
1.090000 80.099 54.0604
1.106000 79.954 53.5447
1.120000 79.822 53.0131
1.138000 79.644 52.2302
1.150000 79.521 51.6480
1.172000 79.288 50.4602
1.180000 79.201 49.9908
1.206000 78.914 48.3337
1.220000 78.758 47.3612
1.241000 78.521 45.8027
1.250000 78.420 45.0995
1.265000 78.252 43.8827
1.280000 78.085 42.6119
1.315000 77.707 39.4504
1.320000 77.655 38.9777
1.340000 77.451 37.0378
1.360000 77.258 35.0239
1.380000 77.076 32.9419
1.400000 76.908 30.7975
1.430000 76.687 27.4771
1.450000 76.562 25.2027
1.475000 76.435 22.2794
1.500000 76.329 19.0903
1.525000 76.241 15.6307
1.550000 76.171 11.9455
1.575000 76.118 8.0795
1.600000 76.082 4.0778
1.625000 76.062 -0.0148
1.650000 76.056 -4.1534
1.675000 76.065 -8.2931
1.700000 76.089 -12.3889
1.725000 76.125 -16.3960
1.750000 76.174 -20.2694
1.775000 76.235 -23.9643
1.800000 76.308 -27.4356
1.825000 76.391 -30.6386
1.850000 76.490 -33.5949
1.875000 76.617 -36.4415
1.900000 76.767 -39.1843
1.925000 76.938 -41.8230
1.950000 77.126 -44.3573
1.975000 77.327 -46.7866
2.000000 77.539 -49.1108
2.030000 77.801 -51.7604
2.060000 78.066 -54.2573
2.090000 78.328 -56.6010
2.120000 78.581 -58.7907
2.140000 78.741 -60.1648
2.180000 79.035 -62.7060
2.200000 79.164 -63.8723
2.240000 79.404 -65.8819
2.270000 79.576 -67.1050
2.300000 79.739 -68.1207
2.330000 79.897 -68.9619
2.360000 80.048 -69.6610
2.400000 80.242 -70.4287
2.430000 80.383 -70.9235
2.470000 80.564 -71.5372
2.500000 80.697 -72.0053
2.540000 80.871 -72.7020
2.580000 81.043 -73.5310
2.620000 81.206 -74.3580
2.650000 81.324 -74.9522
2.690000 81.475 -75.7110
2.720000 81.585 -76.2560
2.760000 81.726 -76.9516
2.800000 81.863 -77.6132
2.850000 82.030 -78.3947
2.900000 82.195 -79.1287
2.950000 82.357 -79.8149
3.000000 82.515 -80.4322
3.040000 82.637 -80.8797
3.070000 82.726 -81.1926
3.110000 82.843 -81.5848
3.150000 82.958 -81.9543
3.200000 83.100 -82.3945
3.250000 83.239 -82.8222
3.300000 83.379 -83.2503
3.350000 83.516 -83.6612
3.400000 83.650 -84.0424
3.450000 83.783 -84.4016
3.500000 83.913 -84.7469
3.550000 84.043 -85.0862
3.600000 84.171 -85.4274
3.650000 84.300 -85.7785
3.700000 84.430 -86.1430
3.750000 84.559 -86.5126
3.820000 84.739 -87.0332
3.870000 84.867 -87.4036
3.950000 85.069 -87.9864
4.000000 85.194 -88.3403
4.060000 85.342 -88.7490
4.120000 85.488 -89.1360
4.180000 85.633 -89.5093
4.250000 85.800 -89.9402
4.310000 85.942 -90.3164
4.370000 86.081 -90.7090
4.440000 86.242 -91.1975
4.500000 86.378 -91.6374
4.550000 86.491 -92.0137
4.620000 86.646 -92.5474
4.680000 86.776 -93.0041
4.750000 86.925 -93.5267
4.820000 87.071 -94.0343
4.870000 87.173 -94.3925
4.940000 87.313 -94.8902
5.000000 87.430 -95.3149
5.080000 87.582 -95.8816
5.150000 87.712 -96.3809
5.220000 87.838 -96.8874
5.300000 87.977 -97.4693
5.380000 88.112 -98.0458
5.450000 88.227 -98.5386
5.520000 88.339 -99.0151
5.600000 88.462 -99.5448
5.700000 88.611 -100.1879
5.800000 88.754 -100.8104
5.900000 88.894 -101.4124
6.000000 89.028 -101.9929
6.080000 89.132 -102.4427
6.150000 89.222 -102.8265
6.220000 89.310 -103.2018
6.300000 89.409 -103.6194
6.400000 89.529 -104.1235
6.500000 89.647 -104.6116
6.600000 89.763 -105.0875
6.700000 89.876 -105.5482
6.800000 89.988 -105.9946
6.900000 90.097 -106.4335
7.000000 90.205 -106.8707
7.100000 90.310 -107.3035
7.200000 90.414 -107.7313
7.300000 90.516 -108.1553
7.400000 90.615 -108.5756
7.500000 90.712 -108.9918
7.620000 90.825 -109.4865
7.750000 90.944 -110.0180
7.880000 91.058 -110.5453
8.000000 91.161 -111.0260
8.120000 91.260 -111.4984
8.250000 91.365 -112.0015
8.380000 91.467 -112.4972
8.500000 91.558 -112.9487
8.620000 91.648 -113.3937
8.750000 91.742 -113.8711
8.850000 91.813 -114.2365
9.000000 91.917 -114.7798
9.120000 91.999 -115.2120
9.250000 92.086 -115.6781
9.380000 92.173 -116.1416
9.500000 92.250 -116.5701
9.620000 92.323 -117.0014
9.750000 92.398 -117.4704
9.880000 92.466 -117.9382
10.000000 92.520 -118.3711
10.150000 92.577 -118.9102
10.300000 92.626 -119.4289
10.440000 92.662 -119.8934
10.600000 92.700 -120.4040
10.750000 92.736 -120.8595
10.900000 92.772 -121.2967
11.060000 92.813 -121.7592
11.200000 92.851 -122.1596
11.380000 92.902 -122.6668
11.500000 92.936 -122.9989
11.720000 93.003 -123.6017
11.800000 93.028 -123.8202
12.060000 93.115 -124.5303
12.200000 93.164 -124.9233
12.410000 93.238 -125.5221
12.500000 93.270 -125.7789
12.650000 93.321 -126.2091
12.800000 93.370 -126.6369
13.150000 93.478 -127.6134
13.200000 93.493 -127.7493
13.400000 93.552 -128.2842
13.600000 93.610 -128.7992
13.800000 93.667 -129.2913
14.000000 93.722 -129.7633
14.300000 93.801 -130.4342
14.500000 93.852 -130.8550
14.750000 93.916 -131.3535
15.000000 93.980 -131.8242
15.250000 94.047 -132.2785
15.500000 94.116 -132.7197
15.750000 94.185 -133.1520
16.000000 94.254 -133.5835
16.250000 94.321 -134.0253
16.500000 94.387 -134.4805
16.750000 94.450 -134.9506
17.000000 94.510 -135.4306
17.250000 94.567 -135.9160
17.500000 94.620 -136.4011
17.750000 94.669 -136.8781
18.000000 94.715 -137.3449
18.250000 94.758 -137.7998
18.500000 94.799 -138.2409
18.750000 94.840 -138.6689
19.000000 94.882 -139.0849
19.250000 94.925 -139.4937
19.500000 94.970 -139.8982
19.750000 95.016 -140.3006
20.000000 95.063 -140.7048
20.299999 95.120 -141.1961
20.600000 95.176 -141.6952
20.900000 95.230 -142.1987
21.200001 95.281 -142.6985
21.400000 95.314 -143.0234
21.799999 95.378 -143.6483
22.000000 95.409 -143.9485
22.400000 95.475 -144.5353
22.700001 95.526 -144.9779
23.000000 95.577 -145.4354
23.299999 95.623 -145.9090
23.600000 95.665 -146.3872
24.000000 95.710 -147.0017
24.299999 95.738 -147.4203
24.700001 95.774 -147.9090
25.000000 95.803 -148.2352
25.400000 95.848 -148.6525
25.799999 95.898 -149.0932
26.200001 95.947 -149.5771
26.500000 95.981 -149.9598
26.900000 96.020 -150.4738
27.200001 96.047 -150.8491
27.600000 96.081 -151.3329
28.000000 96.116 -151.8108
28.500000 96.160 -152.4227
29.000000 96.200 -153.0455
29.500000 96.234 -153.6421
30.000000 96.266 -154.1828
30.400000 96.294 -154.5841
30.700001 96.318 -154.8821
31.100000 96.352 -155.2964
31.500000 96.386 -155.7386
32.000000 96.422 -156.3141
32.500000 96.450 -156.8702
33.000000 96.473 -157.3744
33.500000 96.497 -157.8382
34.000000 96.526 -158.2995
34.500000 96.554 -158.7780
35.000000 96.580 -159.2584
35.500000 96.603 -159.7193
36.000000 96.627 -160.1675
36.500000 96.652 -160.6258
37.000000 96.674 -161.0954
37.500000 96.691 -161.5506
38.200001 96.716 -162.1416
38.700001 96.736 -162.5624
39.500000 96.763 -163.2626
40.000000 96.775 -163.6659
40.599998 96.794 -164.0964
41.200001 96.822 -164.5530
41.799999 96.849 -165.0974
42.500000 96.859 -165.7562
43.099998 96.860 -166.2294
43.700001 96.866 -166.6328
44.400002 96.881 -167.1048
45.000000 96.892 -167.5262
45.500000 96.901 -167.8687
46.200001 96.912 -168.3319
46.799999 96.922 -168.7286
47.500000 96.934 -169.2036
48.200001 96.939 -169.6973
48.700001 96.937 -170.0443
49.400002 96.928 -170.4688
50.000000 96.927 -170.7777
50.799999 96.942 -171.2397
51.500000 96.953 -171.7531
52.200001 96.952 -172.2775
53.000000 96.951 -172.8032
53.799999 96.959 -173.3032
54.500000 96.967 -173.7544
55.200001 96.972 -174.1818
56.000000 96.975 -174.5884
57.000000 96.985 -175.0357
58.000000 96.982 -175.4451
59.000000 96.986 -175.6342
60.000000 97.036 -176.0337
60.799999 97.048 -176.7010
61.500000 97.019 -177.2550
62.200001 96.983 -177.6542
63.000000 96.957 -178.0537
64.000000 96.935 -178.5806
65.000000 96.922 -179.1006
66.000000 96.915 -179.6310
67.000000 96.905 179.8730
68.000000 96.893 179.4226
69.000000 96.879 179.0083
70.000000 96.864 178.6126
71.000000 96.846 178.2036
72.000000 96.824 177.7943
73.000000 96.801 177.4043
74.000000 96.784 177.0145
75.000000 96.769 176.6121
76.199997 96.751 176.1295
77.500000 96.727 175.6385
78.800003 96.702 175.2020
80.000000 96.679 174.7900
81.199997 96.651 174.3670
82.500000 96.616 173.9245
83.800003 96.581 173.5012
85.000000 96.552 173.1387
86.199997 96.528 172.7865
87.500000 96.505 172.4096
88.500000 96.488 172.1145
90.000000 96.459 171.6584
91.199997 96.432 171.2869
92.500000 96.396 170.9067
93.800003 96.361 170.5795
95.000000 96.333 170.2819
96.199997 96.306 169.9746
97.500000 96.276 169.6397
98.800003 96.247 169.2957
100.000000 96.216 168.9964
101.500000 96.178 168.6599
103.000000 96.139 168.3386
104.400002 96.103 168.0338
106.000000 96.057 167.6654
107.500000 96.013 167.3578
109.000000 95.980 167.0489
110.599998 95.944 166.6703
112.000000 95.902 166.3640
113.800003 95.844 166.0440
115.000000 95.808 165.8281
117.199997 95.746 165.3495
118.000000 95.725 165.1581
120.599998 95.646 164.6059
122.000000 95.611 164.4316
124.099998 95.566 164.1335
125.000000 95.544 163.9865
126.500000 95.502 163.7407
128.000000 95.459 163.5049
131.500000 95.374 163.0605
132.000000 95.362 162.9880
134.000000 95.310 162.7051
136.000000 95.256 162.4287
138.000000 95.200 162.1412
140.000000 95.145 161.9012
143.000000 95.073 161.5908
145.000000 95.026 161.4141
147.500000 94.969 161.1623
150.000000 94.904 160.8561
152.500000 94.835 160.5767
155.000000 94.767 160.3805
157.500000 94.707 160.2347
160.000000 94.647 160.0493
162.500000 94.582 159.8694
165.000000 94.520 159.6656
167.500000 94.453 159.4519
170.000000 94.383 159.3128
172.500000 94.316 159.2189
175.000000 94.250 159.1379
177.500000 94.187 159.0254
180.000000 94.121 158.8948
182.500000 94.053 158.7507
185.000000 93.984 158.6063
187.500000 93.919 158.4888
190.000000 93.861 158.3981
192.500000 93.800 158.3216
195.000000 93.734 158.2674
197.500000 93.671 158.2232
200.000000 93.613 158.1842
203.000000 93.545 158.1340
206.000000 93.475 158.0940
209.000000 93.403 158.0696
212.000000 93.332 158.0421
214.000000 93.285 158.0147
218.000000 93.193 157.9656
220.000000 93.148 157.9556
224.000000 93.059 157.9564
227.000000 92.988 157.9690
230.000000 92.919 157.9982
233.000000 92.854 158.0339
236.000000 92.791 158.0847
240.000000 92.716 158.1204
243.000000 92.661 158.1246
247.000000 92.578 158.2036
250.000000 92.511 158.3006
254.000000 92.425 158.4031
258.000000 92.344 158.4834
262.000000 92.266 158.5811
265.000000 92.208 158.6654
269.000000 92.133 158.7830
272.000000 92.080 158.8845
276.000000 92.012 159.0312
280.000000 91.940 159.1935
285.000000 91.850 159.3969
290.000000 91.766 159.5677
295.000000 91.695 159.7426
300.000000 91.629 159.9598
304.000000 91.563 160.1772
307.000000 91.512 160.3394
311.000000 91.451 160.5328
315.000000 91.391 160.7321
320.000000 91.317 161.0033
325.000000 91.246 161.2647
330.000000 91.177 161.5117
335.000000 91.110 161.7474
340.000000 91.042 161.9997
345.000000 90.974 162.2798
350.000000 90.904 162.6091
355.000000 90.831 162.9333
360.000000 90.761 163.2552
365.000000 90.700 163.5662
370.000000 90.640 163.8724
375.000000 90.578 164.1782
382.000000 90.495 164.5814
387.000000 90.438 164.8902
395.000000 90.345 165.4393
400.000000 90.286 165.7744
406.000000 90.215 166.1800
412.000000 90.145 166.5924
418.000000 90.079 167.0244
425.000000 90.011 167.5004
431.000000 89.955 167.8990
437.000000 89.896 168.3251
444.000000 89.823 168.8597
450.000000 89.763 169.2892
455.000000 89.717 169.5972
462.000000 89.653 170.0409
468.000000 89.594 170.4825
475.000000 89.529 171.0425
482.000000 89.471 171.5953
487.000000 89.428 171.9707
494.000000 89.370 172.4885
500.000000 89.327 172.9091
508.000000 89.274 173.5146
515.000000 89.226 174.0596
522.000000 89.176 174.6135
530.000000 89.124 175.2625
538.000000 89.070 175.8790
545.000000 89.023 176.4374
552.000000 88.981 177.0195
560.000000 88.939 177.7049
570.000000 88.887 178.5670
580.000000 88.838 179.4036
590.000000 88.792 -179.7916
600.000000 88.750 -178.9613
608.000000 88.713 -178.3064
615.000000 88.677 -177.7320
622.000000 88.643 -177.1391
630.000000 88.612 -176.4575
640.000000 88.577 -175.6095
650.000000 88.539 -174.7472
660.000000 88.508 -173.8772
670.000000 88.483 -173.0063
680.000000 88.456 -172.1273
690.000000 88.435 -171.2334
700.000000 88.421 -170.3538
710.000000 88.407 -169.4908
720.000000 88.397 -168.6379
730.000000 88.389 -167.7680
740.000000 88.383 -166.9018
750.000000 88.379 -166.0435
762.000000 88.377 -165.0141
775.000000 88.384 -163.8995
788.000000 88.394 -162.7847
800.000000 88.402 -161.7335
812.000000 88.416 -160.6745
825.000000 88.436 -159.5652
838.000000 88.461 -158.4842
850.000000 88.490 -157.4838
862.000000 88.524 -156.4791
875.000000 88.570 -155.4130
885.000000 88.606 -154.6070
900.000000 88.658 -153.4299
912.000000 88.705 -152.5010
925.000000 88.762 -151.5088
938.000000 88.825 -150.5414
950.000000 88.886 -149.6612
962.000000 88.945 -148.8104
975.000000 89.010 -147.9357
988.000000 89.081 -147.0692
1000.000000 89.150 -146.2532
1015.000000 89.241 -145.2910
1030.000000 89.333 -144.3844
1044.000000 89.419 -143.5500
1060.000000 89.520 -142.6305
1075.000000 89.620 -141.8307
1090.000000 89.728 -141.1018
1106.000000 89.854 -140.3630
1120.000000 89.968 -139.7086
1138.000000 90.115 -138.9146
1150.000000 90.212 -138.4392
1172.000000 90.385 -137.6488
1180.000000 90.447 -137.3756
1206.000000 90.651 -136.4939
1220.000000 90.763 -136.0392
1241.000000 90.932 -135.4453
1250.000000 91.001 -135.2035
1265.000000 91.114 -134.7944
1280.000000 91.227 -134.3862
1315.000000 91.487 -133.4744
1320.000000 91.522 -133.3498
1340.000000 91.656 -132.8680
1360.000000 91.771 -132.4223
1380.000000 91.883 -131.9937
1400.000000 92.006 -131.5712
1430.000000 92.198 -130.9226
1450.000000 92.327 -130.4863
1475.000000 92.487 -129.9731
1500.000000 92.645 -129.4675
1525.000000 92.799 -128.9938
1550.000000 92.952 -128.5188
1575.000000 93.103 -128.0577
1600.000000 93.253 -127.6140
1625.000000 93.405 -127.1763
1650.000000 93.555 -126.7738
1675.000000 93.707 -126.3670
1700.000000 93.860 -125.9663
1725.000000 94.011 -125.5944
1750.000000 94.164 -125.2408
1775.000000 94.318 -124.9020
1800.000000 94.474 -124.5904
1825.000000 94.632 -124.3008
1850.000000 94.792 -124.0273
1875.000000 94.952 -123.7739
1900.000000 95.114 -123.5420
1925.000000 95.278 -123.3426
1950.000000 95.441 -123.1745
1975.000000 95.606 -123.0378
2000.000000 95.773 -122.9296
2030.000000 95.972 -122.8253
2060.000000 96.171 -122.7579
2090.000000 96.373 -122.7472
2120.000000 96.578 -122.7955
2140.000000 96.716 -122.8605
2180.000000 96.987 -123.0565
2200.000000 97.122 -123.1855
2240.000000 97.387 -123.5163
2270.000000 97.583 -123.8280
2300.000000 97.775 -124.1895
2330.000000 97.965 -124.6076
2360.000000 98.152 -125.0839
2400.000000 98.394 -125.8050
2430.000000 98.570 -126.4048
2470.000000 98.793 -127.2786
2500.000000 98.952 -127.9906
2540.000000 99.153 -129.0042
2580.000000 99.337 -130.0922
2620.000000 99.501 -131.2276
2650.000000 99.610 -132.0933
2690.000000 99.736 -133.2401
2720.000000 99.814 -134.0625
2760.000000 99.904 -135.0508
2800.000000 99.995 -135.8856
2850.000000 100.137 -136.8574
2900.000000 100.300 -138.0270
2950.000000 100.442 -139.4645
3000.000000 100.542 -141.0129
3040.000000 100.592 -142.2244
3070.000000 100.616 -143.0811
3110.000000 100.635 -144.1248
3150.000000 100.648 -145.0395
3200.000000 100.672 -146.0188
3250.000000 100.714 -146.9102
3300.000000 100.779 -147.8371
3350.000000 100.859 -148.9497
3400.000000 100.927 -150.3401
3450.000000 100.962 -151.9284
3500.000000 100.954 -153.5453
3550.000000 100.906 -155.0708
3600.000000 100.829 -156.4563
3650.000000 100.731 -157.7036
3700.000000 100.616 -158.8177
3750.000000 100.486 -159.8047
3820.000000 100.278 -160.9726
3870.000000 100.114 -161.6404
3950.000000 99.831 -162.4053
4000.000000 99.646 -162.7047
4060.000000 99.419 -162.8877
4120.000000 99.184 -162.8641
4180.000000 98.946 -162.6188
4250.000000 98.673 -162.0375
4310.000000 98.449 -161.2804
4370.000000 98.238 -160.3170
4440.000000 98.018 -159.0138
4500.000000 97.855 -157.8026
4550.000000 97.735 -156.7451
4620.000000 97.593 -155.2015
4680.000000 97.496 -153.8417
4750.000000 97.415 -152.2663
4820.000000 97.361 -150.7647
4870.000000 97.333 -149.7520
4940.000000 97.305 -148.4154
5000.000000 97.286 -147.3347
5080.000000 97.269 -145.9702
5150.000000 97.259 -144.8495
5220.000000 97.251 -143.8019
5300.000000 97.243 -142.6895
5380.000000 97.234 -141.6686
5450.000000 97.223 -140.8362
5520.000000 97.211 -140.0555
5600.000000 97.191 -139.2383
5700.000000 97.153 -138.3218
5800.000000 97.094 -137.4895
5900.000000 97.008 -136.7067
6000.000000 96.893 -135.9496
6080.000000 96.779 -135.3441
6150.000000 96.661 -134.7951
6220.000000 96.521 -134.1921
6300.000000 96.331 -133.3703
6400.000000 96.050 -131.9793
6500.000000 95.745 -129.9800
6600.000000 95.458 -127.2820
6700.000000 95.237 -123.9651
6800.000000 95.119 -120.2226
6900.000000 95.134 -116.2721
7000.000000 95.287 -112.2870
7100.000000 95.565 -108.3986
7200.000000 95.966 -104.7457
7300.000000 96.493 -101.5027
7400.000000 97.150 -98.8753
7500.000000 97.937 -97.1347
7620.000000 99.038 -96.7422
7750.000000 100.295 -99.2982
7880.000000 101.282 -105.7656
8000.000000 101.681 -114.6712
8120.000000 101.454 -124.2019
8250.000000 100.583 -132.3790
8380.000000 99.336 -136.8233
8500.000000 98.115 -137.8032
8620.000000 96.983 -136.5639
8750.000000 95.930 -133.6031
8850.000000 95.255 -130.6295
9000.000000 94.444 -125.5363
9120.000000 93.944 -121.1629
9250.000000 93.531 -116.2998
9380.000000 93.238 -111.4156
9500.000000 93.064 -106.9845
9620.000000 92.972 -102.7256
9750.000000 92.955 -98.3892
9880.000000 93.007 -94.4394
10000.000000 93.094 -91.2052
10150.000000 93.224 -87.7861
10300.000000 93.340 -85.0701
10440.000000 93.395 -83.0944
10600.000000 93.359 -81.3098
10750.000000 93.208 -79.8325
10900.000000 92.942 -78.2300
11060.000000 92.546 -76.0872
11200.000000 92.126 -73.6721
11380.000000 91.525 -69.7174
11500.000000 91.109 -66.5419
11720.000000 90.362 -59.6784
11800.000000 90.106 -56.8857
12060.000000 89.366 -46.9353
12200.000000 89.034 -41.1403
12410.000000 88.630 -32.0898
12500.000000 88.496 -28.1191
12650.000000 88.334 -21.4203
12800.000000 88.252 -14.6783
13150.000000 88.405 0.8853
13200.000000 88.470 3.0564
13400.000000 88.856 11.5068
13600.000000 89.469 19.4275
13800.000000 90.361 26.5082
14000.000000 91.587 32.2035
14300.000000 94.073 35.9963
14500.000000 95.938 32.7840
14750.000000 97.649 19.0465
15000.000000 97.704 -1.2451
15250.000000 96.085 -15.9077
15500.000000 93.800 -20.1586
15750.000000 91.811 -17.3673
16000.000000 90.409 -11.0930
16250.000000 89.529 -3.3011
16500.000000 89.052 4.9507
16750.000000 88.869 13.0044
17000.000000 88.879 20.4314
17250.000000 89.003 27.0938
17500.000000 89.224 32.8494
17750.000000 89.528 36.9276
18000.000000 89.712 38.1912
18250.000000 89.366 37.0178
18500.000000 88.280 36.1261
18750.000000 86.574 38.5540
19000.000000 84.497 45.3415
19250.000000 82.327 55.9550
19500.000000 80.223 69.3661
19750.000000 78.281 84.7207
20000.000000 76.507 101.3684
20300.000000 74.607 122.3313
20600.000000 73.125 143.3867
20900.000000 72.081 163.2035
21200.000000 71.405 -179.9429
21400.000000 71.130 -171.3165
21800.000000 70.958 -166.6795
22000.000000 71.087 168.7209
22400.000000 71.298 -86.1115
22700.000000 69.923 -176.2119
23000.000000 66.884 -35.7500
23300.000000 64.376 26.4590
23600.000000 63.330 -137.6367
24000.000000 63.042 94.9023
24300.000000 63.376 -147.6875
24700.000000 63.746 -165.9844
25000.000000 64.248 3.5625
25400.000000 65.105 -54.9219
25800.000000 65.087 104.6875
