* Measurement data measured by REW V5.20.13
* Source: Headset (DS by VECLAN.COM), MICROPHONE (Master Volume), L, volume: 0.710. Timing signal peak level -17.3 dBFS, measurement signal peak level -13.1 dBFS
* Format: 2M Log Swept Sine, 1 sweep at -12.0 dBFS using an acoustic timing reference
* Dated: Nov 12, 2023 5:26:36 PM
* REW Settings:
*  C-weighting compensation: Off
*  Target level: 75.0 dB
* Note: ; Delay -0.8111 ms (-278 mm, -10.95 in) using IR start time relative to Acoustic reference played from HEADPHONE L with no timing offset Clock adjustment: 1,376.4 ppm
* Measurement: Samsung Galaxy Buds2 Pro L
* Smoothing: 1/24 octave
* Frequency Step: 1/48 octave
* Start Frequency: 1.000 Hz
*
* Freq(Hz) SPL(dB) Phase(degrees)
1.000000 50.957 160.0213
1.015000 51.126 158.2836
1.030000 51.296 156.5626
1.044000 51.457 154.9757
1.060000 51.643 153.1905
1.075000 51.820 151.5492
1.090000 51.998 149.9442
1.106000 52.192 148.2712
1.120000 52.364 146.8061
1.138000 52.590 144.9123
1.150000 52.743 143.6449
1.172000 53.028 141.3148
1.180000 53.132 140.4663
1.206000 53.478 137.7087
1.220000 53.667 136.2262
1.241000 53.953 134.0098
1.250000 54.077 133.0636
1.265000 54.284 131.4930
1.280000 54.492 129.9321
1.315000 54.983 126.3374
1.320000 55.054 125.8303
1.340000 55.336 123.8206
1.360000 55.619 121.8442
1.380000 55.903 119.9054
1.400000 56.186 118.0085
1.430000 56.609 115.2510
1.450000 56.890 113.4777
1.475000 57.238 111.3391
1.500000 57.590 109.2688
1.525000 57.947 107.2596
1.550000 58.307 105.3091
1.575000 58.669 103.4151
1.600000 59.032 101.5750
1.625000 59.396 99.7866
1.650000 59.759 98.0475
1.675000 60.121 96.3554
1.700000 60.480 94.7078
1.725000 60.836 93.1024
1.750000 61.188 91.5368
1.775000 61.535 90.0088
1.800000 61.875 88.5158
1.825000 62.209 87.0556
1.850000 62.536 85.6352
1.875000 62.858 84.2738
1.900000 63.177 82.9677
1.925000 63.492 81.7125
1.950000 63.804 80.5036
1.975000 64.112 79.3367
2.000000 64.416 78.2073
2.030000 64.776 76.8950
2.060000 65.131 75.6224
2.090000 65.482 74.3818
2.120000 65.827 73.1654
2.140000 66.055 72.3640
2.180000 66.504 70.7741
2.200000 66.726 69.9810
2.240000 67.161 68.4323
2.270000 67.482 67.3121
2.300000 67.796 66.2245
2.330000 68.106 65.1666
2.360000 68.411 64.1358
2.400000 68.811 62.7987
2.430000 69.106 61.8204
2.470000 69.494 60.5434
2.500000 69.780 59.6027
2.540000 70.158 58.3660
2.580000 70.530 57.1462
2.620000 70.895 55.9625
2.650000 71.164 55.0994
2.690000 71.517 53.9780
2.720000 71.777 53.1566
2.760000 72.118 52.0841
2.800000 72.454 51.0334
2.850000 72.867 49.7441
2.900000 73.274 48.4735
2.950000 73.674 47.2158
3.000000 74.067 45.9893
3.040000 74.375 45.0311
3.070000 74.603 44.3241
3.110000 74.903 43.3946
3.150000 75.198 42.4776
3.200000 75.562 41.3447
3.250000 75.920 40.2215
3.300000 76.274 39.1026
3.350000 76.621 37.9940
3.400000 76.963 36.9011
3.450000 77.299 35.8215
3.500000 77.629 34.7531
3.550000 77.953 33.6934
3.600000 78.273 32.6403
3.650000 78.589 31.5915
3.700000 78.900 30.5476
3.750000 79.205 29.5141
3.820000 79.625 28.0809
3.870000 79.919 27.0641
3.950000 80.380 25.4431
4.000000 80.662 24.4302
4.060000 80.996 23.2126
4.120000 81.323 21.9965
4.180000 81.643 20.7827
4.250000 82.009 19.3699
4.310000 82.316 18.1620
4.370000 82.618 16.9572
4.440000 82.962 15.5557
4.500000 83.250 14.3577
4.550000 83.486 13.3616
4.620000 83.809 11.9705
4.680000 84.080 10.7811
4.750000 84.389 9.3969
4.820000 84.691 8.0152
4.870000 84.902 7.0294
4.940000 85.191 5.6524
5.000000 85.433 4.4763
5.080000 85.747 2.9166
5.150000 86.016 1.5615
5.220000 86.277 0.2130
5.300000 86.567 -1.3199
5.380000 86.848 -2.8420
5.450000 87.088 -4.1632
5.520000 87.322 -5.4734
5.600000 87.581 -6.9600
5.700000 87.895 -8.8007
5.800000 88.197 -10.6177
5.900000 88.488 -12.4074
6.000000 88.769 -14.1731
6.080000 88.985 -15.5670
6.150000 89.170 -16.7717
6.220000 89.350 -17.9609
6.300000 89.551 -19.3015
6.400000 89.793 -20.9514
6.500000 90.026 -22.5704
6.600000 90.253 -24.1564
6.700000 90.472 -25.7093
6.800000 90.684 -27.2299
6.900000 90.889 -28.7177
7.000000 91.090 -30.1719
7.100000 91.284 -31.5912
7.200000 91.474 -32.9782
7.300000 91.659 -34.3356
7.400000 91.842 -35.6635
7.500000 92.020 -36.9593
7.620000 92.230 -38.4803
7.750000 92.455 -40.0948
7.880000 92.675 -41.6682
8.000000 92.875 -43.0954
8.120000 93.073 -44.5095
8.250000 93.285 -46.0191
8.380000 93.493 -47.5170
8.500000 93.682 -48.8986
8.620000 93.867 -50.2745
8.750000 94.063 -51.7627
8.850000 94.209 -52.9089
9.000000 94.423 -54.6296
9.120000 94.587 -56.0015
9.250000 94.758 -57.4808
9.380000 94.923 -58.9552
9.500000 95.067 -60.2992
9.620000 95.201 -61.6224
9.750000 95.337 -63.0367
9.880000 95.460 -64.4170
10.000000 95.560 -65.6561
10.150000 95.670 -67.1621
10.300000 95.770 -68.6129
10.440000 95.852 -69.9139
10.600000 95.941 -71.3501
10.750000 96.027 -72.6501
10.900000 96.112 -73.9089
11.060000 96.205 -75.2322
11.200000 96.288 -76.3687
11.380000 96.394 -77.8264
11.500000 96.465 -78.8011
11.720000 96.592 -80.5936
11.800000 96.637 -81.2512
12.060000 96.778 -83.3976
12.200000 96.848 -84.5497
12.410000 96.946 -86.2659
12.500000 96.984 -86.9854
12.650000 97.042 -88.1685
12.800000 97.095 -89.3193
13.150000 97.207 -91.8484
13.200000 97.223 -92.1934
13.400000 97.286 -93.5269
13.600000 97.352 -94.8145
13.800000 97.423 -96.0619
14.000000 97.497 -97.3016
14.300000 97.612 -99.1632
14.500000 97.687 -100.4261
14.750000 97.777 -102.0207
15.000000 97.861 -103.6256
15.250000 97.937 -105.2112
15.500000 98.007 -106.7551
15.750000 98.072 -108.2466
16.000000 98.135 -109.6802
16.250000 98.197 -111.0739
16.500000 98.260 -112.4405
16.750000 98.324 -113.8002
17.000000 98.386 -115.1606
17.250000 98.443 -116.5160
17.500000 98.494 -117.8563
17.750000 98.536 -119.1532
18.000000 98.573 -120.3939
18.250000 98.606 -121.5646
18.500000 98.641 -122.6697
18.750000 98.680 -123.7293
19.000000 98.725 -124.7626
19.250000 98.776 -125.8091
19.500000 98.829 -126.8855
19.750000 98.879 -128.0039
20.000000 98.921 -129.1617
20.299999 98.957 -130.5682
20.600000 98.974 -131.9491
20.900000 98.974 -133.2534
21.200001 98.964 -134.4409
21.400000 98.957 -135.1639
21.799999 98.949 -136.4820
22.000000 98.952 -137.1057
22.400000 98.973 -138.3591
22.700001 98.996 -139.3522
23.000000 99.018 -140.4071
23.299999 99.033 -141.4975
23.600000 99.041 -142.5845
24.000000 99.044 -143.9716
24.299999 99.049 -144.9518
24.700001 99.069 -146.2242
25.000000 99.094 -147.2156
25.400000 99.130 -148.6560
25.799999 99.148 -150.2164
26.200001 99.131 -151.7538
26.500000 99.100 -152.7692
26.900000 99.055 -153.8391
27.200001 99.038 -154.4483
27.600000 99.061 -155.1578
28.000000 99.129 -156.0161
28.500000 99.222 -157.5621
29.000000 99.244 -159.4738
29.500000 99.168 -161.2277
30.000000 99.043 -162.3812
30.400000 98.961 -162.8933
30.700001 98.927 -163.1708
31.100000 98.914 -163.5958
31.500000 98.914 -164.1858
32.000000 98.902 -165.1089
32.500000 98.864 -166.0566
33.000000 98.818 -166.9301
33.500000 98.779 -167.7905
34.000000 98.743 -168.7125
34.500000 98.700 -169.6696
35.000000 98.652 -170.5864
35.500000 98.610 -171.4396
36.000000 98.582 -172.2859
36.500000 98.562 -173.1900
37.000000 98.539 -174.1578
37.500000 98.504 -175.1278
38.200001 98.440 -176.3463
38.700001 98.396 -177.0907
39.500000 98.341 -178.2003
40.000000 98.308 -178.8916
40.599998 98.261 -179.6742
41.200001 98.218 179.6215
41.799999 98.185 178.9055
42.500000 98.145 177.9502
43.099998 98.091 177.1168
43.700001 98.029 176.3953
44.400002 97.970 175.6563
45.000000 97.934 174.9895
45.500000 97.903 174.3894
46.200001 97.852 173.5490
46.799999 97.804 172.8782
47.500000 97.749 172.1668
48.200001 97.699 171.5220
48.700001 97.668 171.0757
49.400002 97.628 170.4260
50.000000 97.589 169.8550
50.799999 97.532 169.1328
51.500000 97.486 168.5046
52.200001 97.439 167.8094
53.000000 97.365 167.0186
53.799999 97.287 166.3975
54.500000 97.240 165.9189
55.200001 97.207 165.3384
56.000000 97.159 164.5702
57.000000 97.076 163.6794
58.000000 96.985 162.9315
59.000000 96.901 162.3707
60.000000 96.852 161.8223
60.799999 96.819 161.2372
61.500000 96.780 160.6815
62.200001 96.735 160.1517
63.000000 96.685 159.5783
64.000000 96.625 158.8782
65.000000 96.567 158.2098
66.000000 96.515 157.5624
67.000000 96.464 156.8823
68.000000 96.403 156.1877
69.000000 96.329 155.5436
70.000000 96.255 154.9928
71.000000 96.190 154.4646
72.000000 96.124 153.9244
73.000000 96.062 153.4336
74.000000 96.010 152.9217
75.000000 95.956 152.3810
76.199997 95.894 151.7573
77.500000 95.822 151.0229
78.800003 95.734 150.3898
80.000000 95.654 149.8654
81.199997 95.574 149.3533
82.500000 95.487 148.7460
83.800003 95.396 148.0343
85.000000 95.303 147.3063
86.199997 95.212 146.5848
87.500000 95.122 145.8341
88.500000 95.062 145.3844
90.000000 95.033 144.8281
91.199997 95.014 144.1095
92.500000 94.929 143.5420
93.800003 94.858 143.3146
95.000000 94.798 143.0067
96.199997 94.722 142.6387
97.500000 94.630 142.1746
98.800003 94.531 141.7216
100.000000 94.453 141.3431
101.500000 94.375 140.8414
103.000000 94.306 140.3323
104.400002 94.236 139.8425
106.000000 94.139 139.3309
107.500000 94.045 138.8427
109.000000 93.945 138.2798
110.599998 93.835 137.7231
112.000000 93.750 137.3256
113.800003 93.657 136.9404
115.000000 93.599 136.7109
117.199997 93.464 136.2629
118.000000 93.406 136.1211
120.599998 93.258 135.5122
122.000000 93.188 134.9684
124.099998 93.091 134.2483
125.000000 93.056 134.0046
126.500000 93.001 133.6433
128.000000 92.937 133.3045
131.500000 92.741 132.4810
132.000000 92.713 132.3817
134.000000 92.624 131.8608
136.000000 92.523 131.3347
138.000000 92.449 131.1406
140.000000 92.379 130.8928
143.000000 92.217 130.8881
145.000000 92.127 130.6385
147.500000 91.929 130.1620
150.000000 91.827 130.3564
152.500000 91.913 129.9134
155.000000 91.941 128.6866
157.500000 91.815 127.4413
160.000000 91.635 126.5999
162.500000 91.513 126.3621
165.000000 91.433 126.9192
167.500000 91.321 127.5872
170.000000 91.151 127.6805
172.500000 91.035 127.2409
175.000000 90.983 126.8951
177.500000 90.929 126.9217
180.000000 90.841 126.9221
182.500000 90.756 126.6426
185.000000 90.689 126.3623
187.500000 90.620 126.1819
190.000000 90.540 125.9528
192.500000 90.471 125.5027
195.000000 90.397 125.1119
197.500000 90.339 125.0698
200.000000 90.308 125.1339
203.000000 90.282 125.0153
206.000000 90.243 124.6676
209.000000 90.174 124.3281
212.000000 90.104 124.2651
214.000000 90.080 124.2944
218.000000 90.050 123.9944
220.000000 90.012 123.6436
224.000000 89.952 122.8788
227.000000 89.950 122.6285
230.000000 89.956 122.8284
233.000000 89.917 122.9124
236.000000 89.849 122.4970
240.000000 89.784 121.7751
243.000000 89.753 121.5156
247.000000 89.715 121.1625
250.000000 89.707 120.9003
254.000000 89.702 120.6071
258.000000 89.691 120.0754
262.000000 89.666 119.3791
265.000000 89.630 119.0148
269.000000 89.585 118.5911
272.000000 89.570 118.2463
276.000000 89.569 117.6996
280.000000 89.556 116.9722
285.000000 89.528 116.0764
290.000000 89.538 115.3850
295.000000 89.516 114.8911
300.000000 89.507 114.1998
304.000000 89.499 113.4329
307.000000 89.475 112.8055
311.000000 89.451 111.9492
315.000000 89.455 111.0344
320.000000 89.435 109.9796
325.000000 89.438 109.5676
330.000000 89.423 109.1823
335.000000 89.377 108.2224
340.000000 89.332 107.1374
345.000000 89.229 106.3555
350.000000 89.251 106.2819
355.000000 89.341 104.5964
360.000000 89.220 102.1052
365.000000 88.965 100.8657
370.000000 88.853 100.5237
375.000000 88.944 100.4760
382.000000 89.104 100.2582
387.000000 89.092 100.0765
395.000000 88.976 98.8483
400.000000 88.979 97.4858
406.000000 89.008 96.2419
412.000000 89.015 95.4007
418.000000 88.945 94.2797
425.000000 88.830 93.3161
431.000000 88.824 92.7316
437.000000 88.874 91.9001
444.000000 88.865 90.8303
450.000000 88.816 89.7425
455.000000 88.749 88.8239
462.000000 88.706 87.7277
468.000000 88.813 86.4123
475.000000 88.958 84.1240
482.000000 89.066 81.9771
487.000000 89.116 81.1791
494.000000 89.106 81.1954
500.000000 88.902 80.6040
508.000000 88.678 78.2914
515.000000 88.433 76.9094
522.000000 88.349 75.4854
530.000000 88.548 73.8631
538.000000 88.716 73.0073
545.000000 88.672 72.4324
552.000000 88.631 72.0016
560.000000 88.739 70.6729
570.000000 88.844 68.3976
580.000000 88.797 66.3224
590.000000 88.661 64.1382
600.000000 88.334 63.4648
608.000000 88.129 63.1351
615.000000 88.216 60.4221
622.000000 88.544 57.8175
630.000000 88.786 56.4187
640.000000 88.874 54.5958
650.000000 88.883 52.6370
660.000000 88.896 50.6662
670.000000 88.906 48.6084
680.000000 88.927 46.4218
690.000000 88.964 44.0670
700.000000 88.952 41.7498
710.000000 88.914 39.8482
720.000000 88.944 38.0070
730.000000 88.975 35.7572
740.000000 88.975 33.4084
750.000000 88.991 31.2943
762.000000 89.023 28.8607
775.000000 89.044 26.1344
788.000000 89.061 23.3356
800.000000 89.064 20.7659
812.000000 89.078 18.2267
825.000000 89.117 15.3817
838.000000 89.153 12.5450
850.000000 89.171 9.9473
862.000000 89.183 7.3604
875.000000 89.202 4.5455
885.000000 89.227 2.5297
900.000000 89.282 -0.5621
912.000000 89.282 -3.4037
925.000000 89.316 -6.4399
938.000000 89.360 -9.3860
950.000000 89.391 -12.1337
962.000000 89.426 -14.8528
975.000000 89.462 -17.7661
988.000000 89.496 -20.7402
1000.000000 89.529 -23.5070
1015.000000 89.571 -26.9661
1030.000000 89.614 -30.4925
1044.000000 89.653 -33.7858
1060.000000 89.693 -37.5195
1075.000000 89.735 -41.0559
1090.000000 89.793 -44.6476
1106.000000 89.868 -48.5253
1120.000000 89.918 -51.9236
1138.000000 89.974 -56.3583
1150.000000 90.020 -59.3276
1172.000000 90.109 -64.7411
1180.000000 90.140 -66.6916
1206.000000 90.229 -73.0113
1220.000000 90.280 -76.4659
1241.000000 90.367 -81.6757
1250.000000 90.404 -83.8888
1265.000000 90.464 -87.5834
1280.000000 90.522 -91.3110
1315.000000 90.660 -100.0080
1320.000000 90.682 -101.2526
1340.000000 90.769 -106.2512
1360.000000 90.837 -111.2383
1380.000000 90.901 -116.2144
1400.000000 90.977 -121.2098
1430.000000 91.106 -128.6805
1450.000000 91.196 -133.6948
1475.000000 91.312 -139.9814
1500.000000 91.428 -146.2554
1525.000000 91.550 -152.5699
1550.000000 91.672 -158.9060
1575.000000 91.792 -165.3184
1600.000000 91.918 -171.7595
1625.000000 92.056 -178.2207
1650.000000 92.199 175.2969
1675.000000 92.347 168.7766
1700.000000 92.492 162.2595
1725.000000 92.634 155.6873
1750.000000 92.779 149.0654
1775.000000 92.926 142.4331
1800.000000 93.078 135.7745
1825.000000 93.238 129.0662
1850.000000 93.404 122.3118
1875.000000 93.572 115.5278
1900.000000 93.741 108.7213
1925.000000 93.912 101.8641
1950.000000 94.087 94.9587
1975.000000 94.267 88.0149
2000.000000 94.455 81.0212
2030.000000 94.688 72.5583
2060.000000 94.927 64.0098
2090.000000 95.171 55.3860
2120.000000 95.422 46.6781
2140.000000 95.595 40.8159
2180.000000 95.947 28.9552
2200.000000 96.124 22.9526
2240.000000 96.477 10.7976
2270.000000 96.747 1.5223
2300.000000 97.018 -7.8911
2330.000000 97.286 -17.4399
2360.000000 97.550 -27.1427
2400.000000 97.894 -40.3135
2430.000000 98.142 -50.3723
2470.000000 98.450 -64.0120
2500.000000 98.655 -74.3971
2540.000000 98.880 -88.3700
2580.000000 99.060 -102.0433
2620.000000 99.325 -115.5266
2650.000000 99.540 -126.2725
2690.000000 99.718 -141.0619
2720.000000 99.792 -152.0872
2760.000000 99.848 -166.6416
2800.000000 99.871 178.8987
2850.000000 99.862 160.9360
2900.000000 99.803 143.1306
2950.000000 99.682 125.7178
3000.000000 99.602 109.0045
3040.000000 99.624 95.3657
3070.000000 99.614 84.8024
3110.000000 99.541 70.7490
3150.000000 99.437 56.8894
3200.000000 99.298 39.7306
3250.000000 99.154 22.7168
3300.000000 99.002 5.8333
3350.000000 98.845 -10.9305
3400.000000 98.689 -27.5952
3450.000000 98.539 -44.1792
3500.000000 98.388 -60.6677
3550.000000 98.239 -77.0770
3600.000000 98.095 -93.4065
3650.000000 97.955 -109.6506
3700.000000 97.818 -125.8079
3750.000000 97.687 -141.8738
3820.000000 97.526 -164.2616
3870.000000 97.428 179.7943
3950.000000 97.296 154.2642
4000.000000 97.232 138.2236
4060.000000 97.168 118.8596
4120.000000 97.102 99.3833
4180.000000 97.026 79.8237
4250.000000 96.923 56.9718
4310.000000 96.818 37.4366
4370.000000 96.701 18.0199
4440.000000 96.578 -4.4937
4500.000000 96.505 -23.7659
4550.000000 96.464 -39.8771
4620.000000 96.425 -62.5775
4680.000000 96.394 -82.1924
4750.000000 96.353 -105.2129
4820.000000 96.311 -128.3262
4870.000000 96.280 -144.8735
4940.000000 96.233 -168.0850
5000.000000 96.192 171.9651
5080.000000 96.143 145.2666
5150.000000 96.104 121.8042
5220.000000 96.062 98.2524
5300.000000 96.001 71.2419
5380.000000 95.932 44.1348
5450.000000 95.863 20.3479
5520.000000 95.783 -3.4702
5600.000000 95.679 -30.7397
5700.000000 95.522 -64.8572
5800.000000 95.351 -98.9089
5900.000000 95.181 -132.9539
6000.000000 94.998 -166.9722
6080.000000 94.853 165.8835
6150.000000 94.728 142.1814
6220.000000 94.609 118.5100
6300.000000 94.480 91.4858
6400.000000 94.335 57.7273
6500.000000 94.213 23.9385
6600.000000 94.100 -9.8914
6700.000000 94.004 -43.8228
6800.000000 93.930 -77.8574
6900.000000 93.900 -111.9438
7000.000000 93.930 -146.2637
7100.000000 93.964 179.0327
7200.000000 93.980 144.1458
7300.000000 93.988 109.1743
7400.000000 94.008 74.0183
7500.000000 94.024 38.4731
7620.000000 94.025 -4.4912
7750.000000 94.032 -51.3774
7880.000000 93.955 -99.0652
8000.000000 93.736 -144.1768
8120.000000 93.246 170.0872
8250.000000 92.320 121.6321
8380.000000 91.137 76.2234
8500.000000 90.126 37.1375
8620.000000 89.427 -0.5601
8750.000000 89.049 -41.6082
8850.000000 88.919 -73.9658
9000.000000 88.797 -123.9204
9120.000000 88.675 -164.7463
9250.000000 88.475 150.6033
9380.000000 88.197 105.8208
9500.000000 87.881 64.6499
9620.000000 87.534 23.8394
9750.000000 87.152 -19.7847
9880.000000 86.801 -62.6382
10000.000000 86.560 -101.4585
10150.000000 86.475 -149.2107
10300.000000 86.729 163.0234
10440.000000 87.245 117.1836
10600.000000 87.954 62.3352
10750.000000 88.537 8.8013
10900.000000 88.957 -45.8018
11060.000000 89.261 -104.3760
11200.000000 89.451 -155.6343
11380.000000 89.654 138.4043
11500.000000 89.781 94.2705
11720.000000 89.971 12.7896
11800.000000 90.018 -17.0571
12060.000000 90.006 -114.6963
12200.000000 89.868 -167.4390
12410.000000 89.481 113.8506
12500.000000 89.254 80.5557
12650.000000 88.803 26.9155
12800.000000 88.262 -18.9961
13150.000000 87.458 -33.8130
13200.000000 87.433 -25.8833
13400.000000 87.476 13.3188
13600.000000 87.777 56.1006
13800.000000 88.340 99.7681
14000.000000 89.145 143.4922
14300.000000 90.580 -152.2705
14500.000000 91.510 -110.6753
14750.000000 92.392 -59.9053
15000.000000 92.804 -9.2373
15250.000000 92.748 42.8682
15500.000000 92.320 97.6362
15750.000000 91.681 155.7168
16000.000000 90.935 -143.6504
16250.000000 89.995 -81.2773
16500.000000 88.685 -16.5557
16750.000000 86.962 52.2437
17000.000000 85.033 126.4080
17250.000000 83.288 -153.9968
17500.000000 81.958 -69.6514
17750.000000 80.901 18.6182
18000.000000 79.900 110.0076
18250.000000 78.974 -155.9287
18500.000000 78.274 -59.6304
18750.000000 77.893 38.4138
19000.000000 77.848 137.6243
19250.000000 78.063 -122.9597
19500.000000 78.389 -24.0671
19750.000000 78.665 74.1304
20000.000000 78.697 172.0286
20300.000000 78.344 -69.6675
20600.000000 77.601 51.1104
20900.000000 76.389 175.8013
21200.000000 74.701 -60.5811
21400.000000 73.373 2.0366
21800.000000 70.489 -53.3765
22000.000000 68.977 -92.5854
22400.000000 64.825 76.2578
22700.000000 60.294 -23.2683
23000.000000 54.685 -29.4535
23300.000000 48.067 -20.4385
23600.000000 41.590 -73.9727
24000.000000 37.983 -88.5547
