* Measurement data measured by REW V5.20.13
* Source: Headset (DS by VECLAN.COM), MICROPHONE (Master Volume), L, volume: 0.720. Timing signal peak level -17.8 dBFS, measurement signal peak level -15.6 dBFS
* Format: 2M Log Swept Sine, 1 sweep at -12.0 dBFS using an acoustic timing reference
* Dated: Nov 12, 2023 7:41:15 PM
* REW Settings:
*  C-weighting compensation: Off
*  Target level: 75.0 dB
* Note: ; Delay -0.0590 ms (-20 mm, -0.8 in) using estimated IR delay relative to Acoustic reference played from HEADPHONE L with no timing offset
* Measurement: SeeAudio Miu CP145 L
* Smoothing: 1/24 octave
* Frequency Step: 1/48 octave
* Start Frequency: 1.000 Hz
*
* Freq(Hz) SPL(dB) Phase(degrees)
1.000000 81.690 70.7967
1.015000 82.451 70.9836
1.030000 83.177 71.1502
1.044000 83.814 71.2859
1.060000 84.489 71.4165
1.075000 85.063 71.5135
1.090000 85.573 71.5848
1.106000 86.043 71.6297
1.120000 86.419 71.6362
1.138000 86.865 71.6007
1.150000 87.139 71.5517
1.172000 87.597 71.4144
1.180000 87.751 71.3505
1.206000 88.205 71.0975
1.220000 88.423 70.9362
1.241000 88.721 70.6668
1.250000 88.838 70.5428
1.265000 89.020 70.3269
1.280000 89.189 70.1017
1.315000 89.538 69.5542
1.320000 89.584 69.4749
1.340000 89.758 69.1588
1.360000 89.923 68.8491
1.380000 90.082 68.5518
1.400000 90.238 68.2732
1.430000 90.478 67.9037
1.450000 90.646 67.6986
1.475000 90.870 67.4961
1.500000 91.078 67.3313
1.525000 91.262 67.1938
1.550000 91.425 67.0789
1.575000 91.571 66.9822
1.600000 91.700 66.8989
1.625000 91.816 66.8244
1.650000 91.921 66.7543
1.675000 92.017 66.6838
1.700000 92.107 66.6084
1.725000 92.193 66.5234
1.750000 92.278 66.4243
1.775000 92.363 66.3065
1.800000 92.452 66.1653
1.825000 92.546 65.9962
1.850000 92.643 65.7980
1.875000 92.736 65.5780
1.900000 92.823 65.3389
1.925000 92.906 65.0833
1.950000 92.986 64.8138
1.975000 93.062 64.5327
2.000000 93.136 64.2426
2.030000 93.222 63.8862
2.060000 93.306 63.5247
2.090000 93.389 63.1627
2.120000 93.472 62.8043
2.140000 93.529 62.5695
2.180000 93.644 62.1158
2.200000 93.704 61.8994
2.240000 93.825 61.4762
2.270000 93.917 61.1625
2.300000 94.009 60.8512
2.330000 94.101 60.5418
2.360000 94.192 60.2337
2.400000 94.313 59.8241
2.430000 94.402 59.5169
2.470000 94.518 59.1064
2.500000 94.604 58.7971
2.540000 94.714 58.3817
2.580000 94.819 57.9621
2.620000 94.921 57.5410
2.650000 94.995 57.2247
2.690000 95.090 56.8019
2.720000 95.160 56.4840
2.760000 95.251 56.0586
2.800000 95.340 55.6313
2.850000 95.449 55.0940
2.900000 95.556 54.5526
2.950000 95.661 54.0059
3.000000 95.764 53.4487
3.040000 95.844 52.9969
3.070000 95.904 52.6561
3.110000 95.981 52.2007
3.150000 96.057 51.7461
3.200000 96.150 51.1826
3.250000 96.240 50.6282
3.300000 96.328 50.0871
3.350000 96.414 49.5618
3.400000 96.497 49.0489
3.450000 96.578 48.5444
3.500000 96.656 48.0441
3.550000 96.732 47.5439
3.600000 96.806 47.0397
3.650000 96.878 46.5273
3.700000 96.947 46.0034
3.750000 97.014 45.4696
3.820000 97.104 44.7133
3.870000 97.166 44.1720
3.950000 97.261 43.3151
4.000000 97.318 42.7914
4.060000 97.384 42.1805
4.120000 97.447 41.5839
4.180000 97.508 40.9982
4.250000 97.575 40.3246
4.310000 97.630 39.7524
4.370000 97.682 39.1819
4.440000 97.740 38.5143
4.500000 97.786 37.9400
4.550000 97.822 37.4630
4.620000 97.870 36.8026
4.680000 97.909 36.2479
4.750000 97.953 35.6201
4.820000 97.994 35.0149
4.870000 98.021 34.5932
4.940000 98.058 34.0170
5.000000 98.087 33.5359
5.080000 98.125 32.9118
5.150000 98.156 32.3817
5.220000 98.186 31.8672
5.300000 98.218 31.2984
5.380000 98.249 30.7490
5.450000 98.275 30.2835
5.520000 98.302 29.8321
5.600000 98.333 29.3380
5.700000 98.371 28.7475
5.800000 98.409 28.1766
5.900000 98.449 27.6165
6.000000 98.491 27.0775
6.080000 98.525 26.6563
6.150000 98.555 26.2891
6.220000 98.586 25.9185
6.300000 98.622 25.4917
6.400000 98.668 24.9594
6.500000 98.714 24.4233
6.600000 98.760 23.8778
6.700000 98.806 23.3225
6.800000 98.851 22.7595
6.900000 98.895 22.1885
7.000000 98.936 21.6087
7.100000 98.975 21.0166
7.200000 99.012 20.4179
7.300000 99.046 19.8202
7.400000 99.076 19.2256
7.500000 99.103 18.6290
7.620000 99.131 17.9208
7.750000 99.157 17.1754
7.880000 99.178 16.4466
8.000000 99.193 15.7950
8.120000 99.207 15.1714
8.250000 99.218 14.5249
8.380000 99.228 13.9064
8.500000 99.237 13.3609
8.620000 99.245 12.8413
8.750000 99.254 12.2990
8.850000 99.261 11.8925
9.000000 99.274 11.3058
9.120000 99.285 10.8465
9.250000 99.299 10.3528
9.380000 99.315 9.8669
9.500000 99.329 9.4176
9.620000 99.340 8.9630
9.750000 99.351 8.4680
9.880000 99.355 7.9706
10.000000 99.351 7.5067
10.150000 99.336 6.9240
10.300000 99.313 6.3525
10.440000 99.282 5.8287
10.600000 99.241 5.2446
10.750000 99.203 4.7164
10.900000 99.163 4.2043
11.060000 99.121 3.6737
11.200000 99.085 3.2220
11.380000 99.040 2.6648
11.500000 99.009 2.3107
11.720000 98.957 1.6894
11.800000 98.940 1.4717
12.060000 98.890 0.7885
12.200000 98.868 0.4224
12.410000 98.840 -0.1241
12.500000 98.829 -0.3604
12.650000 98.811 -0.7559
12.800000 98.795 -1.1555
13.150000 98.755 -2.1097
13.200000 98.750 -2.2472
13.400000 98.728 -2.8022
13.600000 98.705 -3.3527
13.800000 98.682 -3.8944
14.000000 98.659 -4.4230
14.300000 98.624 -5.1900
14.500000 98.602 -5.6821
14.750000 98.578 -6.2892
15.000000 98.559 -6.8958
15.250000 98.545 -7.5257
15.500000 98.533 -8.1787
15.750000 98.518 -8.8519
16.000000 98.497 -9.5321
16.250000 98.469 -10.1990
16.500000 98.436 -10.8393
16.750000 98.400 -11.4337
17.000000 98.365 -11.9788
17.250000 98.333 -12.4811
17.500000 98.305 -12.9512
17.750000 98.281 -13.4114
18.000000 98.261 -13.8712
18.250000 98.242 -14.3409
18.500000 98.222 -14.8167
18.750000 98.201 -15.2894
19.000000 98.178 -15.7504
19.250000 98.156 -16.1886
19.500000 98.135 -16.6055
19.750000 98.117 -17.0032
20.000000 98.102 -17.3966
20.299999 98.088 -17.8835
20.600000 98.076 -18.4013
20.900000 98.061 -18.9539
21.200001 98.040 -19.5277
21.400000 98.022 -19.9065
21.799999 97.978 -20.6318
22.000000 97.955 -20.9715
22.400000 97.909 -21.6103
22.700001 97.878 -22.0753
23.000000 97.850 -22.5511
23.299999 97.820 -23.0438
23.600000 97.787 -23.5429
24.000000 97.740 -24.1893
24.299999 97.704 -24.6427
24.700001 97.660 -25.2135
25.000000 97.633 -25.6436
25.400000 97.601 -26.2577
25.799999 97.566 -26.9245
26.200001 97.525 -27.6028
26.500000 97.491 -28.0919
26.900000 97.450 -28.7202
27.200001 97.423 -29.2064
27.600000 97.389 -29.9263
28.000000 97.340 -30.7287
28.500000 97.242 -31.6796
29.000000 97.118 -32.2873
29.500000 97.022 -32.4820
30.000000 96.997 -32.5645
30.400000 97.017 -32.8169
30.700001 97.038 -33.1759
31.100000 97.053 -33.8278
31.500000 97.042 -34.5564
32.000000 97.001 -35.4045
32.500000 96.946 -36.1219
33.000000 96.890 -36.7399
33.500000 96.835 -37.2767
34.000000 96.788 -37.7370
34.500000 96.755 -38.1803
35.000000 96.732 -38.6946
35.500000 96.702 -39.3066
36.000000 96.656 -39.9449
36.500000 96.596 -40.5236
37.000000 96.536 -41.0242
37.500000 96.482 -41.4920
38.200001 96.413 -42.1660
38.700001 96.364 -42.6610
39.500000 96.290 -43.4555
40.000000 96.246 -43.9705
40.599998 96.192 -44.6099
41.200001 96.134 -45.2276
41.799999 96.078 -45.7869
42.500000 96.024 -46.4128
43.099998 95.985 -47.0013
43.700001 95.938 -47.6243
44.400002 95.872 -48.2975
45.000000 95.815 -48.8019
45.500000 95.771 -49.2093
46.200001 95.712 -49.7970
46.799999 95.659 -50.3007
47.500000 95.598 -50.8750
48.200001 95.539 -51.4628
48.700001 95.497 -51.8928
49.400002 95.434 -52.4815
50.000000 95.383 -52.9642
50.799999 95.319 -53.6056
51.500000 95.265 -54.1839
52.200001 95.209 -54.7600
53.000000 95.144 -55.3860
53.799999 95.081 -55.9898
54.500000 95.028 -56.5268
55.200001 94.973 -57.0723
56.000000 94.907 -57.6879
57.000000 94.822 -58.4387
58.000000 94.734 -59.1524
59.000000 94.649 -59.7982
60.000000 94.576 -60.4249
60.799999 94.523 -60.9609
61.500000 94.473 -61.4511
62.200001 94.419 -61.9302
63.000000 94.356 -62.4361
64.000000 94.284 -63.0454
65.000000 94.214 -63.6954
66.000000 94.137 -64.3463
67.000000 94.061 -64.9659
68.000000 93.988 -65.5802
69.000000 93.916 -66.1961
70.000000 93.845 -66.7970
71.000000 93.777 -67.3830
72.000000 93.711 -67.9563
73.000000 93.646 -68.5104
74.000000 93.583 -69.0646
75.000000 93.518 -69.6270
76.199997 93.434 -70.2995
77.500000 93.343 -70.9908
78.800003 93.257 -71.6863
80.000000 93.177 -72.3361
81.199997 93.098 -72.9469
82.500000 93.019 -73.5657
83.800003 92.944 -74.1897
85.000000 92.872 -74.7716
86.199997 92.799 -75.3601
87.500000 92.717 -76.0181
88.500000 92.654 -76.5113
90.000000 92.570 -77.2509
91.199997 92.502 -77.8629
92.500000 92.427 -78.4349
93.800003 92.362 -78.9574
95.000000 92.303 -79.4356
96.199997 92.246 -79.9270
97.500000 92.180 -80.4967
98.800003 92.110 -81.0725
100.000000 92.045 -81.5819
101.500000 91.968 -82.1936
103.000000 91.890 -82.7674
104.400002 91.821 -83.2760
106.000000 91.741 -83.8829
107.500000 91.663 -84.4582
109.000000 91.589 -85.0215
110.599998 91.515 -85.6337
112.000000 91.451 -86.1621
113.800003 91.368 -86.8203
115.000000 91.311 -87.2512
117.199997 91.205 -88.0489
118.000000 91.167 -88.3274
120.599998 91.064 -89.1968
122.000000 91.014 -89.6823
124.099998 90.932 -90.3680
125.000000 90.896 -90.6477
126.500000 90.835 -91.1068
128.000000 90.777 -91.5701
131.500000 90.652 -92.7021
132.000000 90.635 -92.8587
134.000000 90.564 -93.4476
136.000000 90.496 -94.0071
138.000000 90.431 -94.5787
140.000000 90.368 -95.1550
143.000000 90.280 -96.0285
145.000000 90.217 -96.5865
147.500000 90.140 -97.2587
150.000000 90.067 -97.9448
152.500000 89.998 -98.5952
155.000000 89.929 -99.1985
157.500000 89.856 -99.7859
160.000000 89.782 -100.3907
162.500000 89.715 -101.0120
165.000000 89.656 -101.6127
167.500000 89.598 -102.1864
170.000000 89.535 -102.7293
172.500000 89.469 -103.2940
175.000000 89.400 -103.8280
177.500000 89.343 -104.3610
180.000000 89.282 -104.9116
182.500000 89.226 -105.4213
185.000000 89.168 -105.9386
187.500000 89.110 -106.4309
190.000000 89.055 -106.8981
192.500000 89.004 -107.3565
195.000000 88.950 -107.8147
197.500000 88.898 -108.2890
200.000000 88.854 -108.7664
203.000000 88.804 -109.2887
206.000000 88.751 -109.8000
209.000000 88.698 -110.3220
212.000000 88.654 -110.7740
214.000000 88.623 -111.0485
218.000000 88.551 -111.6481
220.000000 88.518 -111.9702
224.000000 88.459 -112.5740
227.000000 88.413 -113.0108
230.000000 88.368 -113.4442
233.000000 88.327 -113.8529
236.000000 88.285 -114.2613
240.000000 88.231 -114.8138
243.000000 88.193 -115.2042
247.000000 88.144 -115.6827
250.000000 88.108 -116.0465
254.000000 88.061 -116.5251
258.000000 88.016 -116.9926
262.000000 87.971 -117.4441
265.000000 87.938 -117.7694
269.000000 87.898 -118.1813
272.000000 87.870 -118.4782
276.000000 87.835 -118.8727
280.000000 87.800 -119.2708
285.000000 87.758 -119.7404
290.000000 87.724 -120.1902
295.000000 87.686 -120.7278
300.000000 87.630 -121.2930
304.000000 87.593 -121.6529
307.000000 87.581 -121.8529
311.000000 87.572 -122.0188
315.000000 87.550 -122.1655
320.000000 87.516 -122.4890
325.000000 87.490 -122.8367
330.000000 87.461 -123.1660
335.000000 87.435 -123.4938
340.000000 87.405 -123.7863
345.000000 87.385 -124.0026
350.000000 87.381 -124.2764
355.000000 87.371 -124.6528
360.000000 87.349 -124.9709
365.000000 87.326 -125.1464
370.000000 87.295 -125.2384
375.000000 87.253 -125.4254
382.000000 87.208 -125.8095
387.000000 87.204 -125.9712
395.000000 87.161 -126.3692
400.000000 87.129 -126.4823
406.000000 87.109 -126.5641
412.000000 87.094 -126.6805
418.000000 87.075 -126.8290
425.000000 87.047 -127.0139
431.000000 87.026 -127.1824
437.000000 87.011 -127.3167
444.000000 86.993 -127.4426
450.000000 86.979 -127.5664
455.000000 86.968 -127.6446
462.000000 86.948 -127.7111
468.000000 86.932 -127.7762
475.000000 86.916 -127.8166
482.000000 86.904 -127.8679
487.000000 86.896 -127.9067
494.000000 86.888 -127.9509
500.000000 86.882 -127.9758
508.000000 86.870 -127.9978
515.000000 86.858 -128.0076
522.000000 86.845 -127.9927
530.000000 86.831 -127.9474
538.000000 86.817 -127.9237
545.000000 86.812 -127.9132
552.000000 86.814 -127.8398
560.000000 86.801 -127.6999
570.000000 86.786 -127.6393
580.000000 86.773 -127.4561
590.000000 86.761 -127.2728
600.000000 86.750 -127.0672
608.000000 86.740 -126.8527
615.000000 86.730 -126.6501
622.000000 86.720 -126.4261
630.000000 86.712 -126.1486
640.000000 86.706 -125.7762
650.000000 86.704 -125.3687
660.000000 86.704 -124.9460
670.000000 86.708 -124.5031
680.000000 86.718 -124.0455
690.000000 86.734 -123.5721
700.000000 86.755 -123.0881
710.000000 86.783 -122.6081
720.000000 86.814 -122.1255
730.000000 86.846 -121.6524
740.000000 86.881 -121.1797
750.000000 86.922 -120.7096
762.000000 86.971 -120.1427
775.000000 87.023 -119.5234
788.000000 87.080 -118.9091
800.000000 87.137 -118.3394
812.000000 87.197 -117.7726
825.000000 87.264 -117.1570
838.000000 87.337 -116.5411
850.000000 87.407 -115.9851
862.000000 87.481 -115.4266
875.000000 87.564 -114.8254
885.000000 87.631 -114.3813
900.000000 87.736 -113.7341
912.000000 87.822 -113.2310
925.000000 87.920 -112.7074
938.000000 88.021 -112.2084
950.000000 88.117 -111.7663
962.000000 88.214 -111.3422
975.000000 88.319 -110.9125
988.000000 88.425 -110.5190
1000.000000 88.525 -110.1777
1015.000000 88.649 -109.7749
1030.000000 88.773 -109.4089
1044.000000 88.888 -109.1117
1060.000000 89.019 -108.8100
1075.000000 89.142 -108.5581
1090.000000 89.268 -108.3425
1106.000000 89.410 -108.1474
1120.000000 89.535 -108.0035
1138.000000 89.691 -107.8478
1150.000000 89.793 -107.7613
1172.000000 89.975 -107.6464
1180.000000 90.039 -107.6137
1206.000000 90.242 -107.5302
1220.000000 90.351 -107.5029
1241.000000 90.513 -107.4710
1250.000000 90.581 -107.4599
1265.000000 90.691 -107.4451
1280.000000 90.799 -107.4285
1315.000000 91.041 -107.4233
1320.000000 91.074 -107.4205
1340.000000 91.196 -107.3949
1360.000000 91.296 -107.3883
1380.000000 91.395 -107.3797
1400.000000 91.505 -107.3447
1430.000000 91.667 -107.2943
1450.000000 91.771 -107.2593
1475.000000 91.898 -107.1965
1500.000000 92.023 -107.1368
1525.000000 92.142 -107.0665
1550.000000 92.256 -106.9938
1575.000000 92.367 -106.9164
1600.000000 92.475 -106.8378
1625.000000 92.583 -106.7526
1650.000000 92.690 -106.6680
1675.000000 92.796 -106.5963
1700.000000 92.900 -106.5245
1725.000000 93.000 -106.4606
1750.000000 93.094 -106.3918
1775.000000 93.186 -106.2920
1800.000000 93.283 -106.2283
1825.000000 93.381 -106.2080
1850.000000 93.476 -106.1828
1875.000000 93.568 -106.1475
1900.000000 93.657 -106.1171
1925.000000 93.745 -106.0901
1950.000000 93.830 -106.0661
1975.000000 93.914 -106.0467
2000.000000 93.997 -106.0269
2030.000000 94.094 -106.0075
2060.000000 94.189 -105.9915
2090.000000 94.284 -105.9862
2120.000000 94.375 -106.0075
2140.000000 94.435 -106.0264
2180.000000 94.550 -106.0640
2200.000000 94.604 -106.0746
2240.000000 94.710 -106.0787
2270.000000 94.792 -106.0772
2300.000000 94.875 -106.0808
2330.000000 94.961 -106.1298
2360.000000 95.047 -106.2326
2400.000000 95.151 -106.4388
2430.000000 95.218 -106.6290
2470.000000 95.295 -106.8840
2500.000000 95.343 -107.0656
2540.000000 95.400 -107.2728
2580.000000 95.449 -107.4455
2620.000000 95.493 -107.5831
2650.000000 95.523 -107.6592
2690.000000 95.562 -107.7360
2720.000000 95.590 -107.7707
2760.000000 95.626 -107.7946
2800.000000 95.660 -107.7985
2850.000000 95.703 -107.7754
2900.000000 95.750 -107.7406
2950.000000 95.802 -107.6975
3000.000000 95.858 -107.6603
3040.000000 95.906 -107.6409
3070.000000 95.944 -107.6431
3110.000000 95.995 -107.6639
3150.000000 96.048 -107.7160
3200.000000 96.116 -107.8376
3250.000000 96.181 -108.0069
3300.000000 96.242 -108.2271
3350.000000 96.298 -108.4857
3400.000000 96.351 -108.7799
3450.000000 96.404 -109.1051
3500.000000 96.458 -109.4618
3550.000000 96.508 -109.8502
3600.000000 96.552 -110.2682
3650.000000 96.591 -110.7269
3700.000000 96.625 -111.2260
3750.000000 96.652 -111.7699
3820.000000 96.671 -112.5991
3870.000000 96.668 -113.2338
3950.000000 96.628 -114.2780
4000.000000 96.581 -114.9095
4060.000000 96.509 -115.5990
4120.000000 96.424 -116.1840
4180.000000 96.335 -116.6701
4250.000000 96.231 -117.1651
4310.000000 96.138 -117.5800
4370.000000 96.032 -118.0054
4440.000000 95.890 -118.5078
4500.000000 95.751 -118.9192
4550.000000 95.623 -119.2129
4620.000000 95.432 -119.5268
4680.000000 95.259 -119.6651
4750.000000 95.052 -119.6707
4820.000000 94.847 -119.5238
4870.000000 94.703 -119.3362
4940.000000 94.508 -118.9989
5000.000000 94.344 -118.6392
5080.000000 94.131 -118.0837
5150.000000 93.947 -117.5186
5220.000000 93.766 -116.8854
5300.000000 93.558 -116.0643
5380.000000 93.349 -115.1348
5450.000000 93.167 -114.2252
5520.000000 92.987 -113.2169
5600.000000 92.786 -111.9363
5700.000000 92.539 -110.1231
5800.000000 92.303 -108.0694
5900.000000 92.084 -105.7690
6000.000000 91.887 -103.2319
6080.000000 91.748 -101.0451
6150.000000 91.645 -99.0295
6220.000000 91.559 -96.9280
6300.000000 91.482 -94.4261
6400.000000 91.421 -91.1681
6500.000000 91.401 -87.7862
6600.000000 91.426 -84.3160
6700.000000 91.500 -80.7923
6800.000000 91.632 -77.2597
6900.000000 91.843 -73.7727
7000.000000 92.136 -70.3888
7100.000000 92.497 -67.1876
7200.000000 92.918 -64.2602
7300.000000 93.393 -61.7314
7400.000000 93.914 -59.7192
7500.000000 94.466 -58.3306
7620.000000 95.160 -57.6577
7750.000000 95.876 -58.3303
7880.000000 96.387 -60.4799
8000.000000 96.611 -63.4618
8120.000000 96.571 -66.8021
8250.000000 96.236 -69.9846
8380.000000 95.654 -71.9749
8500.000000 94.977 -72.4169
8620.000000 94.234 -71.4882
8750.000000 93.419 -69.1060
8850.000000 92.817 -66.4521
9000.000000 91.991 -61.3999
9120.000000 91.409 -56.5999
9250.000000 90.869 -50.7989
9380.000000 90.440 -44.5302
9500.000000 90.147 -38.4544
9620.000000 89.956 -32.2243
9750.000000 89.862 -25.4201
9880.000000 89.882 -18.6585
10000.000000 89.997 -12.5336
10150.000000 90.264 -5.1555
10300.000000 90.671 1.7184
10440.000000 91.172 7.4461
10600.000000 91.868 12.8221
10750.000000 92.582 16.3370
10900.000000 93.264 18.0394
11060.000000 93.828 17.7793
11200.000000 94.070 16.2059
11380.000000 93.947 13.6559
11500.000000 93.611 12.4777
11720.000000 92.636 12.6791
11800.000000 92.220 13.5710
12060.000000 90.822 19.0506
12200.000000 90.102 23.3355
12410.000000 89.132 30.8575
12500.000000 88.757 34.3604
12650.000000 88.186 40.4915
12800.000000 87.690 46.8975
13150.000000 86.843 62.1401
13200.000000 86.756 64.2741
13400.000000 86.487 72.4906
13600.000000 86.318 79.9525
13800.000000 86.204 86.3690
14000.000000 86.076 91.5629
14300.000000 85.647 97.2945
14500.000000 85.098 100.3979
14750.000000 84.072 104.6862
15000.000000 82.737 110.5053
15250.000000 81.230 118.2788
15500.000000 79.686 127.8206
15750.000000 78.143 139.1081
16000.000000 76.581 152.7503
16250.000000 75.143 169.0720
16500.000000 74.038 -172.9371
16750.000000 73.294 -154.5726
17000.000000 72.813 -136.3785
17250.000000 72.532 -118.3887
17500.000000 72.440 -100.5775
17750.000000 72.538 -82.9938
18000.000000 72.840 -65.8069
18250.000000 73.411 -49.3360
18500.000000 74.365 -34.1534
18750.000000 75.751 -21.2287
19000.000000 77.281 -11.8711
19250.000000 78.378 -7.0085
19500.000000 78.549 -5.5098
19750.000000 77.651 -3.4662
20000.000000 75.850 3.0685
20300.000000 73.051 18.4951
20600.000000 70.311 40.7827
20900.000000 68.083 67.2838
21200.000000 66.538 91.8885
21400.000000 65.890 89.5067
21800.000000 64.827 39.5161
22000.000000 63.701 -163.6504
22400.000000 59.084 -71.0693
22700.000000 54.331 51.7520
23000.000000 51.571 35.6289
23300.000000 52.510 49.8750
23600.000000 53.755 169.3281
24000.000000 54.238 128.8281
