* Measurement data measured by REW V5.20.13
* Source: Headset (DS by VECLAN.COM), MICROPHONE (Master Volume), L, volume: 0.720. Timing signal peak level -8.1 dBFS, measurement signal peak level -8.1 dBFS
* Format: 2M Log Swept Sine, 1 sweep at -12.0 dBFS using an acoustic timing reference
* Dated: Nov 24, 2023 1:21:06 PM
* REW Settings:
*  C-weighting compensation: Off
*  Target level: 75.0 dB
* Note: ; Delay -0.1521 ms (-52 mm, -2.05 in) using estimated IR delay relative to Acoustic reference played from HEADPHONE L with no timing offset
* Measurement: Shozy Black Hole L
* Smoothing: 1/24 octave
* Frequency Step: 1/48 octave
* Start Frequency: 1.000 Hz
*
* Freq(Hz) SPL(dB) Phase(degrees)
1.000000 68.933 -101.1725
1.015000 68.967 -99.0217
1.030000 69.005 -96.9333
1.044000 69.044 -95.0480
1.060000 69.092 -92.9774
1.075000 69.140 -91.1263
1.090000 69.192 -89.3707
1.106000 69.251 -87.6072
1.120000 69.312 -86.1298
1.138000 69.401 -84.3081
1.150000 69.467 -83.1401
1.172000 69.599 -81.0895
1.180000 69.650 -80.3715
1.206000 69.827 -78.1328
1.220000 69.928 -76.9836
1.241000 70.085 -75.3270
1.250000 70.153 -74.6400
1.265000 70.268 -73.5234
1.280000 70.385 -72.4396
1.315000 70.655 -70.0223
1.320000 70.693 -69.6881
1.340000 70.842 -68.3749
1.360000 70.985 -67.0942
1.380000 71.120 -65.8391
1.400000 71.246 -64.6026
1.430000 71.411 -62.7676
1.450000 71.503 -61.5474
1.475000 71.596 -60.0177
1.500000 71.672 -58.5145
1.525000 71.733 -57.0492
1.550000 71.782 -55.6250
1.575000 71.820 -54.2453
1.600000 71.847 -52.9133
1.625000 71.865 -51.6323
1.650000 71.876 -50.4055
1.675000 71.880 -49.2361
1.700000 71.879 -48.1274
1.725000 71.874 -47.0828
1.750000 71.866 -46.1053
1.775000 71.857 -45.1984
1.800000 71.847 -44.3652
1.825000 71.839 -43.6090
1.850000 71.831 -42.9415
1.875000 71.817 -42.3792
1.900000 71.798 -41.9131
1.925000 71.774 -41.5332
1.950000 71.746 -41.2297
1.975000 71.715 -40.9926
2.000000 71.680 -40.8120
2.030000 71.636 -40.6557
2.060000 71.589 -40.5492
2.090000 71.540 -40.4753
2.120000 71.491 -40.4167
2.140000 71.459 -40.3777
2.180000 71.395 -40.2771
2.200000 71.364 -40.2056
2.240000 71.305 -40.0809
2.270000 71.262 -40.0231
2.300000 71.219 -39.9931
2.330000 71.175 -39.9886
2.360000 71.129 -40.0070
2.400000 71.066 -40.0633
2.430000 71.014 -40.1261
2.470000 70.941 -40.2327
2.500000 70.881 -40.3267
2.540000 70.792 -40.4661
2.580000 70.693 -40.6199
2.620000 70.583 -40.8126
2.650000 70.494 -40.9827
2.690000 70.369 -41.2370
2.720000 70.270 -41.4440
2.760000 70.134 -41.7351
2.800000 69.995 -42.0363
2.850000 69.819 -42.4145
2.900000 69.643 -42.7799
2.950000 69.471 -43.1241
3.000000 69.293 -43.4938
3.040000 69.147 -43.8058
3.070000 69.036 -44.0426
3.110000 68.888 -44.3538
3.150000 68.740 -44.6507
3.200000 68.561 -44.9860
3.250000 68.388 -45.2630
3.300000 68.227 -45.4620
3.350000 68.069 -45.5770
3.400000 67.910 -45.6237
3.450000 67.755 -45.6171
3.500000 67.609 -45.5723
3.550000 67.477 -45.5044
3.600000 67.364 -45.4286
3.650000 67.274 -45.3600
3.700000 67.207 -45.2921
3.750000 67.155 -45.1888
3.820000 67.111 -45.0111
3.870000 67.101 -44.8822
3.950000 67.129 -44.7162
4.000000 67.175 -44.6622
4.060000 67.264 -44.6588
4.120000 67.394 -44.6654
4.180000 67.559 -44.6976
4.250000 67.784 -44.8050
4.310000 67.998 -44.9892
4.370000 68.221 -45.2881
4.440000 68.492 -45.8115
4.500000 68.748 -46.3954
4.550000 68.975 -46.9613
4.620000 69.304 -47.8511
4.680000 69.591 -48.6823
4.750000 69.920 -49.7033
4.820000 70.246 -50.7900
4.870000 70.483 -51.6323
4.940000 70.818 -52.8792
5.000000 71.102 -53.9875
5.080000 71.470 -55.4836
5.150000 71.775 -56.7796
5.220000 72.070 -58.1103
5.300000 72.397 -59.6653
5.380000 72.709 -61.2134
5.450000 72.969 -62.5266
5.520000 73.215 -63.7758
5.600000 73.480 -65.1723
5.700000 73.788 -66.8559
5.800000 74.072 -68.4169
5.900000 74.333 -69.8068
6.000000 74.568 -71.0591
6.080000 74.740 -71.9547
6.150000 74.882 -72.6477
6.220000 75.020 -73.2453
6.300000 75.168 -73.8083
6.400000 75.337 -74.3466
6.500000 75.499 -74.7082
6.600000 75.666 -74.9004
6.700000 75.834 -74.8904
6.800000 76.001 -74.6996
6.900000 76.178 -74.3960
7.000000 76.374 -74.0308
7.100000 76.584 -73.5368
7.200000 76.807 -72.9729
7.300000 77.045 -72.4321
7.400000 77.299 -71.9490
7.500000 77.572 -71.4655
7.620000 77.910 -70.9717
7.750000 78.279 -70.6516
7.880000 78.660 -70.5213
8.000000 79.007 -70.5712
8.120000 79.335 -70.8058
8.250000 79.678 -71.2756
8.380000 79.998 -71.9101
8.500000 80.262 -72.6109
8.620000 80.501 -73.4515
8.750000 80.728 -74.4343
8.850000 80.877 -75.1991
9.000000 81.060 -76.4175
9.120000 81.175 -77.3684
9.250000 81.271 -78.3169
9.380000 81.334 -79.2147
9.500000 81.373 -79.9396
9.620000 81.394 -80.5320
9.750000 81.394 -81.0490
9.880000 81.385 -81.4280
10.000000 81.370 -81.6343
10.150000 81.343 -81.7256
10.300000 81.329 -81.7220
10.440000 81.326 -81.6009
10.600000 81.342 -81.4502
10.750000 81.384 -81.3856
10.900000 81.448 -81.3802
11.060000 81.524 -81.5629
11.200000 81.603 -81.8792
11.380000 81.697 -82.4563
11.500000 81.751 -82.9644
11.720000 81.834 -84.0350
11.800000 81.856 -84.4381
12.060000 81.904 -85.7914
12.200000 81.923 -86.4456
12.410000 81.947 -87.3422
12.500000 81.964 -87.6834
12.650000 81.997 -88.1809
12.800000 82.044 -88.6600
13.150000 82.230 -89.8430
13.200000 82.262 -90.0500
13.400000 82.410 -90.9845
13.600000 82.557 -92.1130
13.800000 82.697 -93.4713
14.000000 82.806 -94.9117
14.300000 82.901 -97.0956
14.500000 82.914 -98.3292
14.750000 82.912 -99.4113
15.000000 82.905 -99.9060
15.250000 82.956 -99.8385
15.500000 83.093 -99.5244
15.750000 83.317 -99.1847
16.000000 83.607 -99.1926
16.250000 83.904 -99.6628
16.500000 84.176 -100.5638
16.750000 84.383 -101.7630
17.000000 84.519 -102.9302
17.250000 84.593 -103.9003
17.500000 84.625 -104.4713
17.750000 84.659 -104.6240
18.000000 84.717 -104.4763
18.250000 84.819 -104.1677
18.500000 84.962 -103.9827
18.750000 85.123 -104.0127
19.000000 85.281 -104.3405
19.250000 85.407 -104.9006
19.500000 85.493 -105.5555
19.750000 85.535 -106.1961
20.000000 85.545 -106.6570
20.299999 85.544 -106.9303
20.600000 85.557 -106.9263
20.900000 85.609 -106.7732
21.200001 85.710 -106.6710
21.400000 85.798 -106.7333
21.799999 85.999 -107.2641
22.000000 86.097 -107.7501
22.400000 86.260 -109.0985
22.700001 86.339 -110.3007
23.000000 86.375 -111.4985
23.299999 86.377 -112.5458
23.600000 86.363 -113.3530
24.000000 86.355 -114.0194
24.299999 86.381 -114.3026
24.700001 86.469 -114.6121
25.000000 86.561 -114.9355
25.400000 86.688 -115.5452
25.799999 86.790 -116.2211
26.200001 86.868 -116.7409
26.500000 86.926 -116.9584
26.900000 87.023 -117.0666
27.200001 87.118 -117.1125
27.600000 87.263 -117.2538
28.000000 87.411 -117.5323
28.500000 87.585 -118.0049
29.000000 87.756 -118.6013
29.500000 87.919 -119.5004
30.000000 88.026 -120.8212
30.400000 88.031 -121.9930
30.700001 87.984 -122.7342
31.100000 87.881 -123.2713
31.500000 87.789 -123.2119
32.000000 87.781 -122.6401
32.500000 87.909 -122.2892
33.000000 88.080 -122.6990
33.500000 88.196 -123.6624
34.000000 88.244 -124.5767
34.500000 88.285 -125.1386
35.000000 88.369 -125.5688
35.500000 88.476 -126.2155
36.000000 88.554 -127.0616
36.500000 88.590 -127.7919
37.000000 88.621 -128.2240
37.500000 88.680 -128.5319
38.200001 88.772 -129.1664
38.700001 88.798 -129.6336
39.500000 88.827 -129.8076
40.000000 88.896 -129.7669
40.599998 89.015 -130.0566
41.200001 89.096 -130.7343
41.799999 89.119 -131.3818
42.500000 89.132 -131.8071
43.099998 89.170 -132.0891
43.700001 89.218 -132.4714
44.400002 89.264 -132.9643
45.000000 89.305 -133.3439
45.500000 89.346 -133.6793
46.200001 89.401 -134.2476
46.799999 89.430 -134.7375
47.500000 89.455 -135.1408
48.200001 89.498 -135.4333
48.700001 89.535 -135.6715
49.400002 89.578 -136.0040
50.000000 89.616 -136.1792
50.799999 89.700 -136.4072
51.500000 89.780 -136.8712
52.200001 89.820 -137.4651
53.000000 89.830 -137.9262
53.799999 89.855 -138.1599
54.500000 89.897 -138.3667
55.200001 89.949 -138.6406
56.000000 90.009 -139.0699
57.000000 90.055 -139.6821
58.000000 90.086 -140.0407
59.000000 90.158 -140.3315
60.000000 90.226 -140.9200
60.799999 90.241 -141.3925
61.500000 90.242 -141.6386
62.200001 90.255 -141.7933
63.000000 90.282 -142.0066
64.000000 90.314 -142.3364
65.000000 90.348 -142.7118
66.000000 90.375 -143.1345
67.000000 90.401 -143.4384
68.000000 90.451 -143.7121
69.000000 90.501 -144.0809
70.000000 90.533 -144.3992
71.000000 90.561 -144.5902
72.000000 90.593 -144.7666
73.000000 90.621 -144.9973
74.000000 90.640 -145.3048
75.000000 90.643 -145.6754
76.199997 90.637 -146.0261
77.500000 90.654 -146.3197
78.800003 90.691 -146.5625
80.000000 90.743 -146.7682
81.199997 90.786 -147.0166
82.500000 90.819 -147.1911
83.800003 90.857 -147.4149
85.000000 90.874 -147.7232
86.199997 90.886 -147.9353
87.500000 90.921 -148.1744
88.500000 90.939 -148.3870
90.000000 90.961 -148.5500
91.199997 90.974 -148.7280
92.500000 90.955 -148.8257
93.800003 90.959 -148.7393
95.000000 91.000 -148.8122
96.199997 91.046 -149.1234
97.500000 91.068 -149.5789
98.800003 91.060 -149.9037
100.000000 91.037 -150.0291
101.500000 91.027 -149.9521
103.000000 91.055 -150.1512
104.400002 91.059 -150.4566
106.000000 91.104 -150.6212
107.500000 91.189 -150.8856
109.000000 91.259 -151.2214
110.599998 91.296 -151.5015
112.000000 91.292 -151.6341
113.800003 91.271 -151.5693
115.000000 91.271 -151.5411
117.199997 91.284 -151.6410
118.000000 91.297 -151.7029
120.599998 91.354 -152.2080
122.000000 91.349 -152.3903
124.099998 91.374 -152.2751
125.000000 91.390 -152.3358
126.500000 91.383 -152.5293
128.000000 91.352 -152.5960
131.500000 91.379 -152.6117
132.000000 91.394 -152.6272
134.000000 91.452 -152.7206
136.000000 91.488 -152.8120
138.000000 91.496 -152.8898
140.000000 91.505 -153.0337
143.000000 91.526 -153.2165
145.000000 91.557 -153.2490
147.500000 91.586 -153.2984
150.000000 91.595 -153.3594
152.500000 91.599 -153.3068
155.000000 91.634 -153.2729
157.500000 91.654 -153.4330
160.000000 91.674 -153.4092
162.500000 91.719 -153.4731
165.000000 91.737 -153.6300
167.500000 91.753 -153.6786
170.000000 91.780 -153.7802
172.500000 91.794 -153.8513
175.000000 91.811 -153.8763
177.500000 91.818 -154.0425
180.000000 91.795 -154.1537
182.500000 91.784 -153.9651
185.000000 91.819 -153.7219
187.500000 91.868 -153.7062
190.000000 91.914 -153.8081
192.500000 91.944 -153.8922
195.000000 91.961 -153.9783
197.500000 91.949 -154.0691
200.000000 91.941 -154.0016
203.000000 91.934 -153.7057
206.000000 91.903 -153.3391
209.000000 91.879 -153.0408
212.000000 91.921 -152.9252
214.000000 91.969 -152.9472
218.000000 92.048 -153.2436
220.000000 92.070 -153.4030
224.000000 92.093 -153.5173
227.000000 92.102 -153.4144
230.000000 92.126 -153.2827
233.000000 92.148 -153.1196
236.000000 92.159 -152.9856
240.000000 92.160 -153.0020
243.000000 92.171 -152.9804
247.000000 92.189 -153.0403
250.000000 92.197 -153.1004
254.000000 92.249 -153.0417
258.000000 92.273 -152.7484
262.000000 92.256 -152.3910
265.000000 92.266 -152.3238
269.000000 92.284 -152.3120
272.000000 92.296 -152.3085
276.000000 92.341 -152.3503
280.000000 92.409 -152.3280
285.000000 92.418 -152.1569
290.000000 92.390 -151.8477
295.000000 92.418 -152.0965
300.000000 92.445 -151.9807
304.000000 92.471 -151.6813
307.000000 92.509 -151.6636
311.000000 92.551 -151.5705
315.000000 92.545 -151.2619
320.000000 92.550 -150.9849
325.000000 92.586 -150.7877
330.000000 92.609 -150.5649
335.000000 92.632 -150.4020
340.000000 92.658 -150.3826
345.000000 92.702 -150.5934
350.000000 92.721 -150.9879
355.000000 92.730 -150.6808
360.000000 92.779 -149.9466
365.000000 92.815 -149.5485
370.000000 92.863 -149.5208
375.000000 92.855 -150.3773
382.000000 92.568 -150.2617
387.000000 92.527 -149.1589
395.000000 92.746 -146.8434
400.000000 92.756 -146.3729
406.000000 92.701 -147.6745
412.000000 92.833 -148.5976
418.000000 92.922 -148.0963
425.000000 92.918 -147.6805
431.000000 92.918 -147.5920
437.000000 92.928 -147.4425
444.000000 92.933 -147.3115
450.000000 92.940 -147.2569
455.000000 92.958 -147.1755
462.000000 92.996 -146.9718
468.000000 93.029 -146.6820
475.000000 93.054 -146.4037
482.000000 93.044 -146.2503
487.000000 93.029 -146.1230
494.000000 93.034 -145.8016
500.000000 93.031 -145.5981
508.000000 93.025 -145.5040
515.000000 93.045 -145.4959
522.000000 93.064 -145.6422
530.000000 93.058 -146.0411
538.000000 93.095 -146.3615
545.000000 93.159 -145.8380
552.000000 93.186 -144.8027
560.000000 93.222 -144.2383
570.000000 93.198 -143.9283
580.000000 93.092 -143.3795
590.000000 93.006 -143.2337
600.000000 93.074 -142.8574
608.000000 93.103 -142.5445
615.000000 93.075 -142.2886
622.000000 93.039 -142.0296
630.000000 93.010 -141.6671
640.000000 92.986 -141.2994
650.000000 92.980 -141.0320
660.000000 93.006 -140.7983
670.000000 93.003 -140.3972
680.000000 92.935 -139.7959
690.000000 92.940 -138.9093
700.000000 92.977 -138.5520
710.000000 92.936 -138.4358
720.000000 92.897 -138.2276
730.000000 92.913 -138.0265
740.000000 92.940 -137.9193
750.000000 92.910 -138.0806
762.000000 92.739 -138.3712
775.000000 92.455 -137.7413
788.000000 92.270 -136.0135
800.000000 92.207 -134.6009
812.000000 92.192 -133.4069
825.000000 92.175 -132.1714
838.000000 92.141 -131.0742
850.000000 92.118 -130.1249
862.000000 92.088 -129.1744
875.000000 92.050 -128.1125
885.000000 92.018 -127.2692
900.000000 91.952 -125.8491
912.000000 91.893 -124.5597
925.000000 91.874 -122.9049
938.000000 91.942 -121.0991
950.000000 92.048 -119.7204
962.000000 92.138 -118.7517
975.000000 92.192 -117.9874
988.000000 92.233 -117.3127
1000.000000 92.262 -116.6052
1015.000000 92.283 -115.6462
1030.000000 92.301 -114.6970
1044.000000 92.317 -113.8200
1060.000000 92.334 -112.7385
1075.000000 92.352 -111.6880
1090.000000 92.377 -110.6955
1106.000000 92.416 -109.6628
1120.000000 92.456 -108.7715
1138.000000 92.511 -107.6621
1150.000000 92.550 -106.9641
1172.000000 92.610 -105.7435
1180.000000 92.629 -105.2718
1206.000000 92.692 -103.7004
1220.000000 92.726 -102.8976
1241.000000 92.777 -101.7199
1250.000000 92.800 -101.2106
1265.000000 92.847 -100.3772
1280.000000 92.896 -99.5554
1315.000000 92.985 -97.5581
1320.000000 92.997 -97.2818
1340.000000 93.018 -96.2060
1360.000000 93.010 -95.1231
1380.000000 93.007 -94.0180
1400.000000 93.020 -92.8839
1430.000000 93.048 -91.1482
1450.000000 93.066 -89.9820
1475.000000 93.084 -88.5559
1500.000000 93.085 -87.0662
1525.000000 93.090 -85.3645
1550.000000 93.110 -83.7343
1575.000000 93.131 -82.1551
1600.000000 93.143 -80.5562
1625.000000 93.142 -78.8553
1650.000000 93.142 -77.1389
1675.000000 93.153 -75.4654
1700.000000 93.170 -73.7864
1725.000000 93.190 -72.0299
1750.000000 93.217 -70.2162
1775.000000 93.235 -68.4359
1800.000000 93.251 -66.6532
1825.000000 93.276 -64.8527
1850.000000 93.312 -63.0574
1875.000000 93.356 -61.2635
1900.000000 93.403 -59.4700
1925.000000 93.445 -57.6606
1950.000000 93.485 -55.8294
1975.000000 93.529 -54.0056
2000.000000 93.582 -52.1787
2030.000000 93.653 -50.0073
2060.000000 93.731 -47.8480
2090.000000 93.810 -45.6673
2120.000000 93.891 -43.5085
2140.000000 93.945 -42.0764
2180.000000 94.059 -39.2426
2200.000000 94.120 -37.8461
2240.000000 94.245 -35.0552
2270.000000 94.340 -32.9639
2300.000000 94.440 -30.8793
2330.000000 94.545 -28.8224
2360.000000 94.652 -26.7853
2400.000000 94.795 -24.0870
2430.000000 94.905 -22.0665
2470.000000 95.057 -19.3667
2500.000000 95.177 -17.3280
2540.000000 95.346 -14.5680
2580.000000 95.533 -11.7847
2620.000000 95.747 -9.0474
2650.000000 95.928 -7.0927
2690.000000 96.186 -4.6768
2720.000000 96.382 -3.0183
2760.000000 96.636 -0.9644
2800.000000 96.879 0.9768
2850.000000 97.166 3.2760
2900.000000 97.441 5.4410
2950.000000 97.707 7.4512
3000.000000 97.968 9.3512
3040.000000 98.164 10.7954
3070.000000 98.302 11.8293
3110.000000 98.475 13.1571
3150.000000 98.638 14.4437
3200.000000 98.823 16.0126
3250.000000 98.991 17.5496
3300.000000 99.150 19.0630
3350.000000 99.295 20.5787
3400.000000 99.419 22.1106
3450.000000 99.532 23.6470
3500.000000 99.641 25.1749
3550.000000 99.746 26.6906
3600.000000 99.841 28.2017
3650.000000 99.920 29.7396
3700.000000 99.981 31.3264
3750.000000 100.023 32.9887
3820.000000 100.058 35.4615
3870.000000 100.072 37.3154
3950.000000 100.073 40.4147
4000.000000 100.045 42.4675
4060.000000 99.949 45.4830
4120.000000 99.928 50.1041
4180.000000 100.297 54.6456
4250.000000 100.672 56.8631
4310.000000 100.766 58.7690
4370.000000 100.839 61.3334
4440.000000 100.961 64.6630
4500.000000 101.099 67.5861
4550.000000 101.237 70.0132
4620.000000 101.460 73.3549
4680.000000 101.684 76.1290
4750.000000 101.985 79.2148
4820.000000 102.326 82.0877
4870.000000 102.592 83.9742
4940.000000 102.992 86.3267
5000.000000 103.360 88.0021
5080.000000 103.878 89.6091
5150.000000 104.332 90.3102
5220.000000 104.757 90.2877
5300.000000 105.168 89.4105
5380.000000 105.462 87.7675
5450.000000 105.597 85.8601
5520.000000 105.601 83.6976
5600.000000 105.430 81.2222
5700.000000 104.968 78.7095
5800.000000 104.289 77.4085
5900.000000 103.473 77.6056
6000.000000 102.600 79.2805
6080.000000 101.905 81.5616
6150.000000 101.321 84.1375
6220.000000 100.773 87.1714
6300.000000 100.197 91.1026
6400.000000 99.562 96.5702
6500.000000 99.018 102.5150
6600.000000 98.563 108.8125
6700.000000 98.195 115.3660
6800.000000 97.927 122.0795
6900.000000 97.784 128.8722
7000.000000 97.766 135.6756
7100.000000 97.862 142.4108
7200.000000 98.072 148.9640
7300.000000 98.409 155.1784
7400.000000 98.884 160.8666
7500.000000 99.510 165.7806
7620.000000 100.477 170.1066
7750.000000 101.709 171.7117
7880.000000 102.799 168.4926
8000.000000 103.300 160.6962
8120.000000 102.983 150.4200
8250.000000 101.657 141.2186
8380.000000 99.640 137.2634
8500.000000 97.559 138.2422
8620.000000 95.521 142.5505
8750.000000 93.489 149.9198
8850.000000 92.124 156.7975
9000.000000 90.441 167.3154
9120.000000 89.228 175.5557
9250.000000 87.943 -174.9861
9380.000000 86.739 -164.9209
9500.000000 85.711 -155.3031
9620.000000 84.747 -145.4587
9750.000000 83.764 -134.4514
9880.000000 82.865 -122.9936
10000.000000 82.137 -112.1614
10150.000000 81.355 -98.5901
10300.000000 80.669 -85.0970
10440.000000 80.092 -72.5493
10600.000000 79.497 -58.2351
10750.000000 79.002 -44.8292
10900.000000 78.567 -31.4376
11060.000000 78.161 -17.1786
11200.000000 77.833 -4.6375
11380.000000 77.479 12.0286
11500.000000 77.357 23.2184
11720.000000 77.241 42.9119
11800.000000 77.206 50.0255
12060.000000 77.188 73.3160
12200.000000 77.258 85.8666
12410.000000 77.473 104.6080
12500.000000 77.607 112.6046
12650.000000 77.891 125.8743
12800.000000 78.262 139.0460
13150.000000 79.555 169.1687
13200.000000 79.801 173.3702
13400.000000 80.988 -170.2262
13600.000000 82.605 -154.8428
13800.000000 84.819 -141.4958
14000.000000 87.629 -132.6760
14300.000000 91.425 -138.7416
14500.000000 92.004 -156.9370
14750.000000 89.822 -173.7559
15000.000000 85.859 -170.1699
15250.000000 82.210 -154.1108
15500.000000 79.737 -134.1782
15750.000000 78.119 -113.1665
16000.000000 76.996 -91.6003
16250.000000 76.223 -69.6696
16500.000000 75.747 -47.5056
16750.000000 75.542 -25.2338
17000.000000 75.615 -2.9865
17250.000000 76.006 19.0731
17500.000000 76.783 40.6743
17750.000000 78.049 61.2791
18000.000000 79.942 79.6488
18250.000000 82.413 92.9141
18500.000000 84.769 96.2915
18750.000000 85.903 88.6407
19000.000000 85.231 80.3235
19250.000000 83.133 82.7961
19500.000000 80.455 96.2964
19750.000000 77.876 116.3220
20000.000000 75.713 139.6467
20300.000000 73.809 169.5405
20600.000000 72.725 -159.8533
20900.000000 72.334 -129.3134
21200.000000 72.590 -99.5850
21400.000000 73.050 -80.9200
21800.000000 73.661 -50.0737
22000.000000 73.039 -45.1932
22400.000000 68.914 121.8695
22700.000000 63.627 5.9951
23000.000000 56.950 -74.0977
23300.000000 49.632 149.9746
23600.000000 44.195 -24.8320
24000.000000 42.812 -163.3945
