* Measurement data measured by REW V5.20.13
* Source: Headset (DS by VECLAN.COM), MICROPHONE (Master Volume), L, volume: 0.720. Timing signal peak level -8.1 dBFS, measurement signal peak level -7.9 dBFS
* Format: 2M Log Swept Sine, 1 sweep at -12.0 dBFS using an acoustic timing reference
* Dated: Nov 24, 2023 1:22:58 PM
* REW Settings:
*  C-weighting compensation: Off
*  Target level: 75.0 dB
* Note: ; Delay -0.1519 ms (-52 mm, -2.05 in) using estimated IR delay relative to Acoustic reference played from HEADPHONE R with no timing offset
* Measurement: Shozy Black Hole R
* Smoothing: 1/24 octave
* Frequency Step: 1/48 octave
* Start Frequency: 1.000 Hz
*
* Freq(Hz) SPL(dB) Phase(degrees)
1.000000 63.648 -74.7989
1.015000 63.904 -74.8523
1.030000 64.151 -74.9107
1.044000 64.373 -74.9699
1.060000 64.614 -75.0431
1.075000 64.826 -75.1172
1.090000 65.024 -75.1966
1.106000 65.219 -75.2880
1.120000 65.383 -75.3777
1.138000 65.585 -75.5066
1.150000 65.714 -75.6003
1.172000 65.942 -75.7865
1.180000 66.022 -75.8585
1.206000 66.270 -76.1058
1.220000 66.397 -76.2463
1.241000 66.578 -76.4650
1.250000 66.652 -76.5610
1.265000 66.772 -76.7235
1.280000 66.887 -76.8884
1.315000 67.135 -77.2773
1.320000 67.169 -77.3329
1.340000 67.297 -77.5540
1.360000 67.418 -77.7716
1.380000 67.531 -77.9837
1.400000 67.637 -78.1882
1.430000 67.782 -78.4764
1.450000 67.870 -78.6531
1.475000 67.971 -78.8543
1.500000 68.053 -79.0419
1.525000 68.116 -79.2192
1.550000 68.163 -79.3875
1.575000 68.194 -79.5480
1.600000 68.212 -79.7021
1.625000 68.218 -79.8509
1.650000 68.216 -79.9958
1.675000 68.205 -80.1379
1.700000 68.189 -80.2786
1.725000 68.169 -80.4190
1.750000 68.147 -80.5605
1.775000 68.124 -80.7043
1.800000 68.104 -80.8516
1.825000 68.087 -81.0037
1.850000 68.072 -81.1631
1.875000 68.051 -81.3322
1.900000 68.025 -81.5088
1.925000 67.994 -81.6906
1.950000 67.959 -81.8752
1.975000 67.921 -82.0603
2.000000 67.881 -82.2436
2.030000 67.830 -82.4580
2.060000 67.777 -82.6624
2.090000 67.724 -82.8528
2.120000 67.672 -83.0252
2.140000 67.638 -83.1281
2.180000 67.575 -83.2999
2.200000 67.546 -83.3665
2.240000 67.493 -83.4958
2.270000 67.457 -83.5943
2.300000 67.422 -83.6871
2.330000 67.388 -83.7679
2.360000 67.354 -83.8305
2.400000 67.308 -83.8747
2.430000 67.270 -83.8703
2.470000 67.216 -83.8023
2.500000 67.171 -83.6967
2.540000 67.104 -83.4711
2.580000 67.025 -83.1420
2.620000 66.931 -82.7570
2.650000 66.851 -82.4337
2.690000 66.737 -81.9465
2.720000 66.648 -81.5324
2.760000 66.528 -80.9055
2.800000 66.411 -80.1819
2.850000 66.276 -79.1229
2.900000 66.162 -77.8698
2.950000 66.074 -76.3930
3.000000 65.987 -74.6428
3.040000 65.918 -73.0720
3.070000 65.871 -71.8137
3.110000 65.817 -70.0524
3.150000 65.781 -68.2227
3.200000 65.766 -65.8842
3.250000 65.795 -63.5421
3.300000 65.880 -61.2527
3.350000 66.021 -58.8794
3.400000 66.211 -56.3570
3.450000 66.442 -53.7705
3.500000 66.708 -51.2048
3.550000 67.001 -48.7448
3.600000 67.314 -46.4754
3.650000 67.639 -44.4815
3.700000 67.982 -42.7821
3.750000 68.363 -41.2614
3.820000 68.942 -39.4239
3.870000 69.373 -38.3201
3.950000 70.066 -36.9172
4.000000 70.483 -36.2681
4.060000 70.958 -35.7365
4.120000 71.428 -35.5329
4.180000 71.895 -35.6117
4.250000 72.427 -35.9799
4.310000 72.867 -36.4634
4.370000 73.285 -37.0383
4.440000 73.742 -37.8017
4.500000 74.113 -38.6334
4.550000 74.409 -39.4341
4.620000 74.803 -40.6779
4.680000 75.120 -41.8196
4.750000 75.468 -43.1899
4.820000 75.790 -44.6073
4.870000 76.005 -45.6873
4.940000 76.284 -47.2681
5.000000 76.504 -48.6628
5.080000 76.772 -50.5386
5.150000 76.981 -52.1633
5.220000 77.167 -53.8208
5.300000 77.349 -55.7475
5.380000 77.503 -57.6647
5.450000 77.615 -59.2984
5.520000 77.707 -60.8670
5.600000 77.784 -62.6408
5.700000 77.840 -64.7948
5.800000 77.860 -66.7896
5.900000 77.847 -68.5492
6.000000 77.791 -70.1522
6.080000 77.723 -71.2859
6.150000 77.653 -72.1268
6.220000 77.581 -72.7913
6.300000 77.487 -73.3285
6.400000 77.346 -73.7124
6.500000 77.207 -73.7884
6.600000 77.104 -73.5678
6.700000 77.026 -72.9492
6.800000 76.970 -72.0023
6.900000 76.960 -70.9355
7.000000 77.019 -69.9093
7.100000 77.146 -68.7399
7.200000 77.325 -67.5728
7.300000 77.539 -66.6464
7.400000 77.788 -66.0828
7.500000 78.084 -65.7496
7.620000 78.458 -65.7180
7.750000 78.832 -66.2467
7.880000 79.199 -67.3894
8.000000 79.506 -68.8152
8.120000 79.751 -70.4737
8.250000 79.963 -72.6514
8.380000 80.109 -74.9744
8.500000 80.173 -77.0866
8.620000 80.172 -79.2910
8.750000 80.105 -81.4875
8.850000 80.005 -82.8944
9.000000 79.767 -84.7446
9.120000 79.540 -85.6920
9.250000 79.267 -85.9172
9.380000 78.953 -85.4390
9.500000 78.715 -84.4214
9.620000 78.561 -82.7310
9.750000 78.459 -80.1876
9.880000 78.490 -77.5860
10.000000 78.682 -75.2574
10.150000 79.089 -72.3840
10.300000 79.580 -70.4792
10.440000 80.139 -69.6282
10.600000 80.798 -69.6280
10.750000 81.353 -70.7042
10.900000 81.870 -72.6772
11.060000 82.321 -75.2779
11.200000 82.634 -78.0668
11.380000 82.925 -81.8551
11.500000 83.042 -84.4524
11.720000 83.121 -89.1261
11.800000 83.108 -90.6931
12.060000 82.926 -95.3026
12.200000 82.764 -97.2102
12.410000 82.453 -99.3231
12.500000 82.320 -99.8848
12.650000 82.083 -100.3463
12.800000 81.872 -100.3532
13.150000 81.581 -98.8306
13.200000 81.567 -98.5524
13.400000 81.594 -97.2584
13.600000 81.708 -96.0976
13.800000 81.903 -95.2403
14.000000 82.123 -94.7171
14.300000 82.474 -94.5317
14.500000 82.696 -94.6586
14.750000 82.968 -94.9843
15.000000 83.233 -95.4529
15.250000 83.501 -96.0942
15.500000 83.755 -96.9622
15.750000 83.986 -98.0617
16.000000 84.171 -99.3650
16.250000 84.298 -100.7040
16.500000 84.369 -101.9569
16.750000 84.393 -102.9373
17.000000 84.403 -103.5445
17.250000 84.423 -103.8130
17.500000 84.481 -103.8081
17.750000 84.588 -103.7905
18.000000 84.733 -103.8980
18.250000 84.901 -104.2828
18.500000 85.055 -104.9727
18.750000 85.179 -105.8624
19.000000 85.260 -106.8511
19.250000 85.298 -107.7155
19.500000 85.313 -108.3627
19.750000 85.320 -108.7274
20.000000 85.348 -108.8339
20.299999 85.429 -108.8099
20.600000 85.562 -108.8276
20.900000 85.730 -109.0860
21.200001 85.900 -109.6739
21.400000 85.995 -110.2025
21.799999 86.133 -111.3956
22.000000 86.174 -111.9536
22.400000 86.221 -112.8037
22.700001 86.246 -113.1659
23.000000 86.284 -113.3399
23.299999 86.341 -113.4239
23.600000 86.414 -113.4923
24.000000 86.526 -113.6321
24.299999 86.615 -113.7882
24.700001 86.733 -114.0647
25.000000 86.821 -114.3377
25.400000 86.929 -114.8198
25.799999 87.014 -115.4321
26.200001 87.065 -116.0833
26.500000 87.083 -116.5125
26.900000 87.096 -116.9369
27.200001 87.111 -117.1584
27.600000 87.152 -117.4216
28.000000 87.212 -117.7893
28.500000 87.287 -118.4855
29.000000 87.337 -119.3115
29.500000 87.364 -120.0499
30.000000 87.396 -120.5871
30.400000 87.444 -120.8969
30.700001 87.499 -121.1013
31.100000 87.602 -121.4249
31.500000 87.728 -121.9106
32.000000 87.886 -122.8479
32.500000 87.996 -124.0258
33.000000 88.039 -125.0393
33.500000 88.060 -125.5714
34.000000 88.123 -125.7278
34.500000 88.242 -125.9443
35.000000 88.364 -126.4665
35.500000 88.443 -127.1219
36.000000 88.487 -127.6168
36.500000 88.535 -127.9430
37.000000 88.593 -128.3325
37.500000 88.630 -128.8664
38.200001 88.618 -129.4120
38.700001 88.612 -129.4090
39.500000 88.714 -129.3125
40.000000 88.810 -129.6215
40.599998 88.892 -130.2829
41.200001 88.935 -130.8668
41.799999 88.981 -131.2647
42.500000 89.064 -131.7394
43.099998 89.135 -132.2865
43.700001 89.186 -132.8623
44.400002 89.227 -133.4158
45.000000 89.262 -133.7717
45.500000 89.298 -134.0381
46.200001 89.354 -134.4365
46.799999 89.400 -134.8076
47.500000 89.451 -135.2428
48.200001 89.501 -135.7069
48.700001 89.532 -136.0763
49.400002 89.556 -136.5781
50.000000 89.567 -136.8808
50.799999 89.602 -137.0914
51.500000 89.667 -137.3265
52.200001 89.735 -137.8008
53.000000 89.768 -138.4630
53.799999 89.764 -138.8091
54.500000 89.791 -138.7930
55.200001 89.873 -138.7732
56.000000 90.009 -139.0680
57.000000 90.161 -140.1168
58.000000 90.166 -141.5380
59.000000 90.029 -141.9288
60.000000 90.001 -141.1369
60.799999 90.099 -140.7242
61.500000 90.197 -140.8254
62.200001 90.267 -141.1960
63.000000 90.306 -141.7107
64.000000 90.317 -142.2101
65.000000 90.341 -142.5422
66.000000 90.379 -142.9060
67.000000 90.421 -143.2449
68.000000 90.472 -143.6611
69.000000 90.486 -144.1311
70.000000 90.479 -144.3279
71.000000 90.499 -144.4272
72.000000 90.524 -144.6883
73.000000 90.540 -144.9764
74.000000 90.563 -145.3015
75.000000 90.577 -145.7217
76.199997 90.575 -146.0057
77.500000 90.617 -146.0904
78.800003 90.674 -146.3588
80.000000 90.706 -146.6285
81.199997 90.738 -146.9047
82.500000 90.764 -147.2989
83.800003 90.791 -147.6182
85.000000 90.828 -147.8687
86.199997 90.878 -148.0125
87.500000 90.948 -148.1832
88.500000 90.987 -148.3831
90.000000 91.001 -148.6714
91.199997 90.994 -148.8695
92.500000 90.975 -149.1703
93.800003 90.956 -149.4264
95.000000 90.961 -149.6652
96.199997 90.981 -149.9037
97.500000 91.013 -150.1325
98.800003 91.052 -150.3049
100.000000 91.084 -150.4901
101.500000 91.107 -150.7176
103.000000 91.110 -150.9307
104.400002 91.118 -150.9484
106.000000 91.144 -151.0683
107.500000 91.144 -151.1666
109.000000 91.139 -151.2301
110.599998 91.122 -151.4289
112.000000 91.090 -151.6123
113.800003 91.065 -151.6729
115.000000 91.074 -151.6125
117.199997 91.145 -151.6264
118.000000 91.167 -151.7138
120.599998 91.242 -151.9555
122.000000 91.291 -152.3110
124.099998 91.296 -152.7190
125.000000 91.280 -152.7042
126.500000 91.260 -152.3858
128.000000 91.277 -152.1079
131.500000 91.304 -152.7042
132.000000 91.305 -152.7992
134.000000 91.338 -153.0331
136.000000 91.393 -153.1028
138.000000 91.434 -153.0768
140.000000 91.458 -153.0779
143.000000 91.489 -153.1583
145.000000 91.514 -153.1607
147.500000 91.524 -153.1931
150.000000 91.523 -153.2283
152.500000 91.547 -153.3117
155.000000 91.582 -153.3408
157.500000 91.606 -153.4100
160.000000 91.611 -153.4981
162.500000 91.634 -153.4550
165.000000 91.676 -153.4885
167.500000 91.685 -153.7409
170.000000 91.691 -153.9665
172.500000 91.725 -154.1273
175.000000 91.743 -154.2271
177.500000 91.699 -154.2381
180.000000 91.631 -153.9823
182.500000 91.624 -153.4745
185.000000 91.667 -153.1851
187.500000 91.705 -153.2269
190.000000 91.754 -153.4046
192.500000 91.810 -153.4672
195.000000 91.845 -153.3465
197.500000 91.843 -153.3068
200.000000 91.832 -153.3257
203.000000 91.861 -153.2909
206.000000 91.896 -153.2325
209.000000 91.925 -153.2293
212.000000 91.962 -153.2735
214.000000 91.981 -153.2938
218.000000 92.011 -153.2830
220.000000 92.027 -153.2120
224.000000 92.027 -152.9228
227.000000 92.011 -152.8581
230.000000 92.030 -152.9514
233.000000 92.056 -152.9102
236.000000 92.066 -152.6778
240.000000 92.085 -152.5127
243.000000 92.104 -152.4052
247.000000 92.121 -152.1878
250.000000 92.146 -152.0436
254.000000 92.185 -151.8372
258.000000 92.213 -151.8762
262.000000 92.228 -152.0904
265.000000 92.239 -151.8774
269.000000 92.243 -151.7888
272.000000 92.233 -151.9706
276.000000 92.228 -152.2966
280.000000 92.238 -152.3754
285.000000 92.349 -152.2158
290.000000 92.417 -151.5203
295.000000 92.536 -150.1790
300.000000 92.389 -150.1648
304.000000 92.405 -150.7357
307.000000 92.471 -151.0405
311.000000 92.476 -151.0161
315.000000 92.453 -150.5709
320.000000 92.525 -150.1523
325.000000 92.501 -149.7812
330.000000 92.506 -149.6794
335.000000 92.653 -149.7412
340.000000 92.716 -149.9872
345.000000 92.681 -150.0752
350.000000 92.694 -149.9445
355.000000 92.737 -150.0801
360.000000 92.794 -149.9788
365.000000 92.821 -149.3474
370.000000 92.795 -148.9539
375.000000 92.774 -149.0208
382.000000 92.802 -148.7185
387.000000 92.845 -148.8560
395.000000 92.872 -148.7296
400.000000 92.890 -148.3963
406.000000 92.910 -148.1285
412.000000 92.918 -147.8982
418.000000 92.939 -147.5901
425.000000 92.961 -147.3665
431.000000 92.971 -147.3230
437.000000 92.993 -147.2295
444.000000 93.006 -147.0771
450.000000 93.017 -147.1214
455.000000 93.027 -147.0499
462.000000 93.016 -146.7445
468.000000 93.014 -146.4704
475.000000 93.025 -146.1293
482.000000 93.045 -145.9382
487.000000 93.069 -145.8432
494.000000 93.112 -145.7655
500.000000 93.135 -145.8084
508.000000 93.114 -145.8904
515.000000 93.112 -145.8358
522.000000 93.165 -145.8035
530.000000 93.222 -145.4542
538.000000 93.270 -144.6436
545.000000 93.197 -143.9778
552.000000 93.097 -143.8648
560.000000 93.060 -143.9328
570.000000 93.020 -143.9456
580.000000 93.045 -143.6442
590.000000 93.103 -143.2157
600.000000 93.101 -142.9009
608.000000 93.064 -142.6510
615.000000 93.039 -142.3471
622.000000 93.016 -141.8767
630.000000 93.003 -141.5283
640.000000 92.999 -141.3257
650.000000 92.985 -140.8903
660.000000 92.963 -140.3581
670.000000 92.942 -139.8957
680.000000 92.912 -139.5199
690.000000 92.880 -139.2236
700.000000 92.861 -138.7484
710.000000 92.839 -138.2696
720.000000 92.801 -137.8840
730.000000 92.748 -137.3625
740.000000 92.700 -136.7129
750.000000 92.666 -136.0365
762.000000 92.639 -135.3325
775.000000 92.614 -134.6203
788.000000 92.577 -133.9051
800.000000 92.539 -133.0878
812.000000 92.497 -132.2111
825.000000 92.469 -131.3534
838.000000 92.456 -130.5104
850.000000 92.428 -129.7608
862.000000 92.400 -129.0087
875.000000 92.384 -128.0730
885.000000 92.387 -127.3694
900.000000 92.368 -126.5850
912.000000 92.315 -126.1056
925.000000 92.218 -125.5044
938.000000 92.063 -124.7141
950.000000 91.912 -123.4024
962.000000 91.834 -121.4965
975.000000 91.871 -119.3770
988.000000 91.957 -117.6760
1000.000000 92.027 -116.4967
1015.000000 92.105 -115.3274
1030.000000 92.167 -114.3082
1044.000000 92.202 -113.4220
1060.000000 92.235 -112.2968
1075.000000 92.278 -111.1244
1090.000000 92.327 -109.9962
1106.000000 92.379 -108.9175
1120.000000 92.420 -108.0495
1138.000000 92.480 -106.9325
1150.000000 92.524 -106.1936
1172.000000 92.599 -104.9086
1180.000000 92.623 -104.4617
1206.000000 92.687 -102.9729
1220.000000 92.720 -102.1501
1241.000000 92.776 -100.9535
1250.000000 92.803 -100.4594
1265.000000 92.849 -99.6283
1280.000000 92.889 -98.7648
1315.000000 92.962 -96.7405
1320.000000 92.973 -96.4531
1340.000000 93.024 -95.3388
1360.000000 93.053 -94.2684
1380.000000 93.057 -93.1373
1400.000000 93.064 -91.9306
1430.000000 93.115 -90.2647
1450.000000 93.132 -89.1363
1475.000000 93.146 -87.5608
1500.000000 93.175 -86.0139
1525.000000 93.190 -84.4301
1550.000000 93.196 -82.8464
1575.000000 93.200 -81.2368
1600.000000 93.210 -79.5617
1625.000000 93.226 -77.8591
1650.000000 93.240 -76.1320
1675.000000 93.258 -74.3809
1700.000000 93.282 -72.6205
1725.000000 93.313 -70.8605
1750.000000 93.342 -69.1066
1775.000000 93.372 -67.3275
1800.000000 93.406 -65.4958
1825.000000 93.435 -63.7123
1850.000000 93.481 -61.9466
1875.000000 93.534 -60.1263
1900.000000 93.581 -58.3137
1925.000000 93.629 -56.5353
1950.000000 93.683 -54.7423
1975.000000 93.738 -52.9360
2000.000000 93.795 -51.1263
2030.000000 93.871 -48.9611
2060.000000 93.952 -46.8032
2090.000000 94.037 -44.6645
2120.000000 94.126 -42.5377
2140.000000 94.190 -41.1181
2180.000000 94.326 -38.3105
2200.000000 94.391 -36.9153
2240.000000 94.520 -34.1272
2270.000000 94.623 -32.0535
2300.000000 94.735 -30.0026
2330.000000 94.851 -27.9444
2360.000000 94.970 -25.8751
2400.000000 95.137 -23.1320
2430.000000 95.276 -21.1137
2470.000000 95.473 -18.5052
2500.000000 95.622 -16.6172
2540.000000 95.817 -14.1642
2580.000000 96.014 -11.7503
2620.000000 96.217 -9.3320
2650.000000 96.377 -7.5172
2690.000000 96.607 -5.1588
2720.000000 96.792 -3.4891
2760.000000 97.049 -1.4400
2800.000000 97.305 0.4327
2850.000000 97.609 2.5732
2900.000000 97.892 4.5381
2950.000000 98.155 6.3503
3000.000000 98.402 8.0359
3040.000000 98.586 9.3096
3070.000000 98.714 10.2328
3110.000000 98.870 11.4326
3150.000000 99.010 12.6250
3200.000000 99.166 14.1395
3250.000000 99.312 15.6775
3300.000000 99.456 17.2262
3350.000000 99.598 18.7543
3400.000000 99.728 20.2316
3450.000000 99.840 21.6719
3500.000000 99.934 23.1036
3550.000000 100.015 24.5543
3600.000000 100.085 26.0550
3650.000000 100.144 27.6241
3700.000000 100.191 29.2760
3750.000000 100.223 31.0314
3820.000000 100.254 33.6645
3870.000000 100.278 35.6554
3950.000000 100.327 38.9890
4000.000000 100.366 41.1518
4060.000000 100.414 43.8251
4120.000000 100.462 46.5940
4180.000000 100.521 49.4503
4250.000000 100.616 52.9446
4310.000000 100.727 56.0327
4370.000000 100.852 59.1009
4440.000000 101.013 62.6131
4500.000000 101.172 65.5609
4550.000000 101.325 67.9963
4620.000000 101.578 71.3388
4680.000000 101.825 74.1030
4750.000000 102.144 77.1628
4820.000000 102.498 79.9717
4870.000000 102.774 81.7867
4940.000000 103.192 83.9905
5000.000000 103.579 85.4930
5080.000000 104.121 86.8088
5150.000000 104.591 87.1968
5220.000000 105.020 86.7831
5300.000000 105.417 85.3039
5380.000000 105.659 82.9172
5450.000000 105.709 80.3978
5520.000000 105.592 77.8562
5600.000000 105.267 75.3515
5700.000000 104.633 73.3099
5800.000000 103.827 72.7891
5900.000000 102.937 73.8239
6000.000000 102.044 76.2477
6080.000000 101.360 79.0237
6150.000000 100.794 81.9641
6220.000000 100.263 85.3060
6300.000000 99.703 89.5343
6400.000000 99.083 95.3048
6500.000000 98.555 101.4924
6600.000000 98.118 107.9917
6700.000000 97.776 114.7146
6800.000000 97.537 121.5798
6900.000000 97.417 128.5107
7000.000000 97.417 135.4412
7100.000000 97.530 142.2876
7200.000000 97.763 148.9367
7300.000000 98.124 155.2430
7400.000000 98.623 161.0207
7500.000000 99.272 166.0245
7620.000000 100.275 170.4432
7750.000000 101.559 172.0872
7880.000000 102.712 168.7536
8000.000000 103.258 160.6514
8120.000000 102.952 149.9665
8250.000000 101.600 140.4718
8380.000000 99.543 136.4783
8500.000000 97.443 137.5070
8620.000000 95.416 141.7225
8750.000000 93.413 148.5778
8850.000000 92.019 154.8962
9000.000000 90.146 165.4567
9120.000000 88.810 174.5372
9250.000000 87.503 -175.1710
9380.000000 86.326 -164.5213
9500.000000 85.337 -154.4591
9620.000000 84.432 -144.2278
9750.000000 83.537 -132.9956
9880.000000 82.726 -121.6486
10000.000000 82.048 -111.1009
10150.000000 81.286 -97.8376
10300.000000 80.603 -84.5110
10440.000000 80.027 -72.0356
10600.000000 79.439 -57.7513
10750.000000 78.951 -44.3370
10900.000000 78.519 -30.8795
11060.000000 78.121 -16.4752
11200.000000 77.826 -3.8450
11380.000000 77.523 12.4482
11500.000000 77.371 23.3749
11720.000000 77.216 43.4045
11800.000000 77.194 50.6066
12060.000000 77.212 73.9080
12200.000000 77.294 86.4791
12410.000000 77.529 105.2871
12500.000000 77.674 113.3130
12650.000000 77.986 126.6248
12800.000000 78.390 139.8349
13150.000000 79.793 170.0209
13200.000000 80.060 174.2241
13400.000000 81.353 -169.4154
13600.000000 83.128 -154.2336
13800.000000 85.562 -141.5255
14000.000000 88.544 -134.4948
14300.000000 92.008 -146.2836
14500.000000 91.994 -165.9636
14750.000000 89.152 -178.5671
15000.000000 85.029 -170.5563
15250.000000 81.678 -152.9680
15500.000000 79.493 -132.7509
15750.000000 78.058 -111.5989
16000.000000 77.083 -89.9393
16250.000000 76.450 -67.9951
16500.000000 76.116 -45.9312
16750.000000 76.074 -23.8857
17000.000000 76.341 -2.0146
17250.000000 76.964 19.4576
17500.000000 78.038 40.1085
17750.000000 79.703 58.9833
18000.000000 81.994 73.8145
18250.000000 84.414 80.1069
18500.000000 85.885 74.3925
18750.000000 85.591 63.7811
19000.000000 83.702 61.7759
19250.000000 81.110 71.7933
19500.000000 78.553 89.4508
19750.000000 76.292 111.0058
20000.000000 74.366 134.6367
20300.000000 72.546 164.5677
20600.000000 71.405 -164.3666
20900.000000 70.965 -132.9543
21200.000000 71.250 -102.2795
21400.000000 71.779 -83.3127
21800.000000 72.510 -61.1582
22000.000000 71.887 -87.2615
22400.000000 67.698 75.1304
22700.000000 62.397 -143.1261
23000.000000 55.788 -139.8945
23300.000000 48.731 94.0449
23600.000000 43.980 -130.9922
24000.000000 43.156 -17.8398
