* Measurement data measured by REW V5.20.13
* Source: Headset (DS by VECLAN.COM), MICROPHONE (Master Volume), L, volume: 0.720. Timing signal peak level -17.9 dBFS, measurement signal peak level -12.9 dBFS
* Format: 2M Log Swept Sine, 1 sweep at -12.0 dBFS using an acoustic timing reference
* Dated: Feb 24, 2024 2:53:28 PM
* REW Settings:
*  C-weighting compensation: Off
*  Target level: 75.0 dB
* Note: ; Delay -0.0064 ms (-2.2 mm, -0.09 in) using estimated IR delay relative to Acoustic reference played from HEADPHONE R with no timing offset
* Measurement: Shure SE846 R
* Smoothing: 1/24 octave
* Frequency Step: 1/48 octave
* Start Frequency: 1.000 Hz
*
* Freq(Hz) SPL(dB) Phase(degrees)
1.000000 80.748 -70.7259
1.015000 81.496 -71.6147
1.030000 82.209 -72.4775
1.044000 82.837 -73.2564
1.060000 83.502 -74.1116
1.075000 84.069 -74.8760
1.090000 84.573 -75.6006
1.106000 85.039 -76.3277
1.120000 85.414 -76.9336
1.138000 85.860 -77.6760
1.150000 86.136 -78.1494
1.172000 86.602 -78.9760
1.180000 86.759 -79.2641
1.206000 87.228 -80.1592
1.220000 87.456 -80.6172
1.241000 87.769 -81.2765
1.250000 87.894 -81.5500
1.265000 88.091 -81.9949
1.280000 88.274 -82.4279
1.315000 88.658 -83.4012
1.320000 88.709 -83.5370
1.340000 88.905 -84.0745
1.360000 89.090 -84.6061
1.380000 89.270 -85.1360
1.400000 89.446 -85.6681
1.430000 89.713 -86.4796
1.450000 89.899 -87.0355
1.475000 90.141 -87.7510
1.500000 90.365 -88.4647
1.525000 90.567 -89.1697
1.550000 90.748 -89.8663
1.575000 90.911 -90.5545
1.600000 91.058 -91.2344
1.625000 91.192 -91.9059
1.650000 91.314 -92.5693
1.675000 91.427 -93.2244
1.700000 91.534 -93.8714
1.725000 91.637 -94.5103
1.750000 91.737 -95.1412
1.775000 91.838 -95.7642
1.800000 91.942 -96.3792
1.825000 92.051 -96.9864
1.850000 92.164 -97.5841
1.875000 92.271 -98.1686
1.900000 92.373 -98.7412
1.925000 92.470 -99.3031
1.950000 92.564 -99.8555
1.975000 92.654 -100.3996
2.000000 92.741 -100.9368
2.030000 92.842 -101.5741
2.060000 92.941 -102.2054
2.090000 93.039 -102.8328
2.120000 93.136 -103.4586
2.140000 93.201 -103.8760
2.180000 93.332 -104.7140
2.200000 93.399 -105.1359
2.240000 93.534 -105.9791
2.270000 93.635 -106.6085
2.300000 93.735 -107.2353
2.330000 93.835 -107.8593
2.360000 93.933 -108.4806
2.400000 94.062 -109.3047
2.430000 94.157 -109.9194
2.470000 94.280 -110.7346
2.500000 94.369 -111.3425
2.540000 94.484 -112.1483
2.580000 94.594 -112.9490
2.620000 94.699 -113.7469
2.650000 94.775 -114.3434
2.690000 94.873 -115.1349
2.720000 94.944 -115.7251
2.760000 95.035 -116.5065
2.800000 95.123 -117.2805
2.850000 95.230 -118.2358
2.900000 95.333 -119.1753
2.950000 95.433 -120.0969
3.000000 95.529 -121.0011
3.040000 95.603 -121.7132
3.070000 95.657 -122.2413
3.110000 95.726 -122.9381
3.150000 95.793 -123.6273
3.200000 95.873 -124.4795
3.250000 95.950 -125.3229
3.300000 96.024 -126.1592
3.350000 96.094 -126.9900
3.400000 96.161 -127.8143
3.450000 96.223 -128.6297
3.500000 96.283 -129.4340
3.550000 96.340 -130.2249
3.600000 96.394 -131.0000
3.650000 96.446 -131.7572
3.700000 96.495 -132.4947
3.750000 96.541 -133.2139
3.820000 96.601 -134.1935
3.870000 96.641 -134.8761
3.950000 96.701 -135.9437
4.000000 96.736 -136.5984
4.060000 96.778 -137.3735
4.120000 96.816 -138.1343
4.180000 96.852 -138.8797
4.250000 96.891 -139.7292
4.310000 96.922 -140.4393
4.370000 96.952 -141.1323
4.440000 96.986 -141.9173
4.500000 97.012 -142.5687
4.550000 97.032 -143.0981
4.620000 97.059 -143.8214
4.680000 97.081 -144.4277
4.750000 97.106 -145.1225
4.820000 97.130 -145.8040
4.870000 97.146 -146.2803
4.940000 97.168 -146.9333
5.000000 97.185 -147.4810
5.080000 97.208 -148.1953
5.150000 97.227 -148.8063
5.220000 97.245 -149.4018
5.300000 97.264 -150.0644
5.380000 97.282 -150.7106
5.450000 97.297 -151.2649
5.520000 97.312 -151.8105
5.600000 97.328 -152.4204
5.700000 97.346 -153.1633
5.800000 97.364 -153.8873
5.900000 97.380 -154.5954
6.000000 97.394 -155.2859
6.080000 97.405 -155.8258
6.150000 97.414 -156.2894
6.220000 97.422 -156.7453
6.300000 97.431 -157.2566
6.400000 97.441 -157.8808
6.500000 97.450 -158.4890
6.600000 97.458 -159.0818
6.700000 97.464 -159.6593
6.800000 97.471 -160.2212
6.900000 97.476 -160.7680
7.000000 97.481 -161.2999
7.100000 97.486 -161.8157
7.200000 97.490 -162.3170
7.300000 97.494 -162.8057
7.400000 97.498 -163.2828
7.500000 97.502 -163.7469
7.620000 97.506 -164.2885
7.750000 97.511 -164.8587
7.880000 97.516 -165.4101
8.000000 97.520 -165.9051
8.120000 97.525 -166.3895
8.250000 97.530 -166.9007
8.380000 97.535 -167.3998
8.500000 97.539 -167.8514
8.620000 97.544 -168.2935
8.750000 97.548 -168.7624
8.850000 97.551 -169.1165
9.000000 97.555 -169.6366
9.120000 97.558 -170.0430
9.250000 97.562 -170.4734
9.380000 97.567 -170.8934
9.500000 97.569 -171.2733
9.620000 97.569 -171.6463
9.750000 97.567 -172.0422
9.880000 97.559 -172.4297
10.000000 97.545 -172.7811
10.150000 97.519 -173.2104
10.300000 97.488 -173.6225
10.440000 97.451 -173.9899
10.600000 97.407 -174.3954
10.750000 97.368 -174.7634
10.900000 97.330 -175.1207
11.060000 97.292 -175.5018
11.200000 97.260 -175.8351
11.380000 97.221 -176.2577
11.500000 97.194 -176.5350
11.720000 97.147 -177.0334
11.800000 97.131 -177.2106
12.060000 97.080 -177.7738
12.200000 97.055 -178.0717
12.410000 97.020 -178.5094
12.500000 97.005 -178.6913
12.650000 96.980 -178.9872
12.800000 96.955 -179.2749
13.150000 96.901 -179.9151
13.200000 96.894 179.9955
13.400000 96.868 179.6442
13.600000 96.845 179.2961
13.800000 96.825 178.9501
14.000000 96.807 178.5981
14.300000 96.782 178.0565
14.500000 96.764 177.6872
14.750000 96.743 177.2212
15.000000 96.721 176.7529
15.250000 96.702 176.2839
15.500000 96.683 175.8232
15.750000 96.664 175.3750
16.000000 96.644 174.9440
16.250000 96.624 174.5254
16.500000 96.605 174.1174
16.750000 96.589 173.7181
17.000000 96.575 173.3251
17.250000 96.563 172.9368
17.500000 96.553 172.5512
17.750000 96.545 172.1664
18.000000 96.538 171.7802
18.250000 96.532 171.3898
18.500000 96.527 170.9926
18.750000 96.523 170.5876
19.000000 96.519 170.1736
19.250000 96.514 169.7520
19.500000 96.507 169.3287
19.750000 96.498 168.9089
20.000000 96.486 168.5027
20.299999 96.470 168.0419
20.600000 96.452 167.6159
20.900000 96.436 167.2249
21.200001 96.422 166.8603
21.400000 96.416 166.6227
21.799999 96.407 166.1411
22.000000 96.405 165.8887
22.400000 96.398 165.3525
22.700001 96.390 164.9323
23.000000 96.378 164.5141
23.299999 96.363 164.1132
23.600000 96.347 163.7358
24.000000 96.328 163.2639
24.299999 96.318 162.9155
24.700001 96.306 162.4323
25.000000 96.296 162.0503
25.400000 96.278 161.5329
25.799999 96.253 161.0477
26.200001 96.229 160.6217
26.500000 96.216 160.3294
26.900000 96.208 159.9328
27.200001 96.209 159.5950
27.600000 96.208 159.0679
28.000000 96.198 158.4793
28.500000 96.167 157.7584
29.000000 96.127 157.1465
29.500000 96.094 156.6273
30.000000 96.072 156.1091
30.400000 96.058 155.6578
30.700001 96.045 155.3031
31.100000 96.025 154.8307
31.500000 96.003 154.3752
32.000000 95.978 153.8289
32.500000 95.955 153.2883
33.000000 95.934 152.7392
33.500000 95.914 152.1802
34.000000 95.893 151.6112
34.500000 95.871 151.0366
35.000000 95.844 150.4756
35.500000 95.816 149.9498
36.000000 95.790 149.4550
36.500000 95.767 148.9633
37.000000 95.745 148.4554
37.500000 95.720 147.9398
38.200001 95.681 147.2399
38.700001 95.652 146.7579
39.500000 95.607 145.9999
40.000000 95.579 145.5364
40.599998 95.548 144.9861
41.200001 95.517 144.4250
41.799999 95.485 143.8535
42.500000 95.446 143.2010
43.099998 95.414 142.6604
43.700001 95.384 142.1198
44.400002 95.347 141.4799
45.000000 95.312 140.9396
45.500000 95.281 140.5131
46.200001 95.239 139.9595
46.799999 95.210 139.4993
47.500000 95.180 138.9294
48.200001 95.147 138.3249
48.700001 95.121 137.8950
49.400002 95.084 137.3018
50.000000 95.051 136.7835
50.799999 94.999 136.1010
51.500000 94.952 135.5635
52.200001 94.911 135.0643
53.000000 94.872 134.4646
53.799999 94.830 133.8305
54.500000 94.790 133.2896
55.200001 94.750 132.7671
56.000000 94.706 132.1743
57.000000 94.650 131.4516
58.000000 94.598 130.7471
59.000000 94.550 130.0079
60.000000 94.496 129.2594
60.799999 94.452 128.6751
61.500000 94.413 128.1672
62.200001 94.372 127.6665
63.000000 94.323 127.1205
64.000000 94.263 126.4917
65.000000 94.210 125.8854
66.000000 94.160 125.2505
67.000000 94.107 124.6058
68.000000 94.054 123.9672
69.000000 93.999 123.3274
70.000000 93.942 122.7042
71.000000 93.887 122.0996
72.000000 93.834 121.4854
73.000000 93.779 120.8608
74.000000 93.723 120.2427
75.000000 93.668 119.6234
76.199997 93.602 118.8893
77.500000 93.533 118.1242
78.800003 93.466 117.3942
80.000000 93.406 116.7708
81.199997 93.344 116.1750
82.500000 93.274 115.5558
83.800003 93.201 114.9548
85.000000 93.143 114.3786
86.199997 93.088 113.7167
87.500000 93.025 112.9987
88.500000 92.983 112.5139
90.000000 92.938 111.7728
91.199997 92.894 111.1421
92.500000 92.834 110.4962
93.800003 92.765 109.8920
95.000000 92.704 109.3746
96.199997 92.651 108.8028
97.500000 92.589 108.1629
98.800003 92.535 107.6018
100.000000 92.499 107.0543
101.500000 92.435 106.3089
103.000000 92.357 105.7379
104.400002 92.308 105.2316
106.000000 92.256 104.4082
107.500000 92.169 103.6464
109.000000 92.089 103.2042
110.599998 92.054 102.7081
112.000000 92.021 102.0514
113.800003 91.945 101.1956
115.000000 91.887 100.6794
117.199997 91.778 99.8340
118.000000 91.738 99.5562
120.599998 91.604 98.8092
122.000000 91.544 98.5230
124.099998 91.490 98.0468
125.000000 91.477 97.7742
126.500000 91.462 97.2105
128.000000 91.444 96.5342
131.500000 91.353 94.9018
132.000000 91.336 94.6996
134.000000 91.269 93.9782
136.000000 91.206 93.3533
138.000000 91.148 92.7732
140.000000 91.093 92.1650
143.000000 91.008 91.2094
145.000000 90.959 90.5910
147.500000 90.904 89.8519
150.000000 90.845 89.1456
152.500000 90.783 88.4723
155.000000 90.725 87.7660
157.500000 90.669 87.0534
160.000000 90.614 86.3835
162.500000 90.560 85.7502
165.000000 90.513 85.1242
167.500000 90.468 84.4580
170.000000 90.419 83.8004
172.500000 90.369 83.1542
175.000000 90.320 82.5066
177.500000 90.269 81.8711
180.000000 90.220 81.2681
182.500000 90.175 80.6696
185.000000 90.128 80.0830
187.500000 90.082 79.5325
190.000000 90.041 78.9988
192.500000 90.002 78.4628
195.000000 89.965 77.9213
197.500000 89.928 77.3708
200.000000 89.895 76.8216
203.000000 89.860 76.2119
206.000000 89.824 75.6569
209.000000 89.784 75.0793
212.000000 89.752 74.4487
214.000000 89.743 74.0259
218.000000 89.738 73.2992
220.000000 89.730 72.9429
224.000000 89.682 72.1649
227.000000 89.642 71.5317
230.000000 89.613 70.9298
233.000000 89.600 70.4058
236.000000 89.593 69.9294
240.000000 89.574 69.2104
243.000000 89.558 68.6413
247.000000 89.541 67.9839
250.000000 89.526 67.4893
254.000000 89.510 66.7927
258.000000 89.501 66.1426
262.000000 89.488 65.5027
265.000000 89.483 65.0151
269.000000 89.478 64.3748
272.000000 89.471 63.9119
276.000000 89.466 63.2944
280.000000 89.471 62.6624
285.000000 89.480 61.9346
290.000000 89.481 61.2073
295.000000 89.482 60.4715
300.000000 89.495 59.7409
304.000000 89.509 59.1410
307.000000 89.521 58.7021
311.000000 89.537 58.1439
315.000000 89.552 57.6056
320.000000 89.572 56.9141
325.000000 89.592 56.2075
330.000000 89.613 55.5357
335.000000 89.636 54.8757
340.000000 89.659 54.1877
345.000000 89.683 53.4782
350.000000 89.706 52.8052
355.000000 89.729 52.1376
360.000000 89.750 51.4626
365.000000 89.776 50.7302
370.000000 89.807 49.9999
375.000000 89.826 49.3813
382.000000 89.850 48.5862
387.000000 89.877 47.9491
395.000000 89.916 46.8707
400.000000 89.944 46.2119
406.000000 89.970 45.4346
412.000000 89.996 44.6962
418.000000 90.027 43.9367
425.000000 90.059 43.0355
431.000000 90.084 42.3036
437.000000 90.110 41.5878
444.000000 90.145 40.7264
450.000000 90.177 40.0202
455.000000 90.206 39.4752
462.000000 90.241 38.6335
468.000000 90.256 37.8570
475.000000 90.271 36.9986
482.000000 90.293 36.1788
487.000000 90.312 35.6028
494.000000 90.337 34.8088
500.000000 90.357 34.1390
508.000000 90.384 33.2454
515.000000 90.410 32.4727
522.000000 90.433 31.7197
530.000000 90.457 30.8741
538.000000 90.480 30.0424
545.000000 90.499 29.3276
552.000000 90.517 28.6197
560.000000 90.538 27.8308
570.000000 90.565 26.8735
580.000000 90.588 25.9589
590.000000 90.605 25.1110
600.000000 90.620 24.2432
608.000000 90.630 23.5670
615.000000 90.638 23.0004
622.000000 90.647 22.4449
630.000000 90.658 21.8209
640.000000 90.670 21.0759
650.000000 90.678 20.3668
660.000000 90.685 19.6896
670.000000 90.696 19.0409
680.000000 90.708 18.3984
690.000000 90.722 17.7715
700.000000 90.732 17.2021
710.000000 90.738 16.6825
720.000000 90.745 16.2021
730.000000 90.759 15.7300
740.000000 90.775 15.2579
750.000000 90.793 14.8090
762.000000 90.816 14.3154
775.000000 90.845 13.8383
788.000000 90.876 13.3555
800.000000 90.905 12.9363
812.000000 90.941 12.5917
825.000000 90.989 12.2219
838.000000 91.038 11.8510
850.000000 91.072 11.5939
862.000000 91.119 11.3616
875.000000 91.180 10.9887
885.000000 91.233 10.7032
900.000000 91.315 10.3177
912.000000 91.381 10.0312
925.000000 91.453 9.7404
938.000000 91.531 9.4680
950.000000 91.607 9.2269
962.000000 91.684 8.9635
975.000000 91.768 8.6481
988.000000 91.854 8.3141
1000.000000 91.935 7.9955
1015.000000 92.041 7.5969
1030.000000 92.148 7.1817
1044.000000 92.246 6.7709
1060.000000 92.358 6.3021
1075.000000 92.463 5.8500
1090.000000 92.574 5.3670
1106.000000 92.703 4.8347
1120.000000 92.820 4.3628
1138.000000 92.969 3.7538
1150.000000 93.069 3.3436
1172.000000 93.251 2.5800
1180.000000 93.316 2.3042
1206.000000 93.523 1.4242
1220.000000 93.636 0.9618
1241.000000 93.806 0.2824
1250.000000 93.880 -0.0042
1265.000000 94.002 -0.4747
1280.000000 94.124 -0.9334
1315.000000 94.409 -1.9479
1320.000000 94.450 -2.0854
1340.000000 94.607 -2.6230
1360.000000 94.750 -3.1435
1380.000000 94.896 -3.6462
1400.000000 95.061 -4.1367
1430.000000 95.326 -4.8531
1450.000000 95.510 -5.3241
1475.000000 95.748 -5.9186
1500.000000 95.996 -6.5315
1525.000000 96.252 -7.1730
1550.000000 96.516 -7.8591
1575.000000 96.787 -8.6044
1600.000000 97.067 -9.4161
1625.000000 97.355 -10.3088
1650.000000 97.650 -11.2955
1675.000000 97.951 -12.3933
1700.000000 98.254 -13.6121
1725.000000 98.555 -14.9589
1750.000000 98.851 -16.4395
1775.000000 99.144 -18.0713
1800.000000 99.430 -19.8544
1825.000000 99.706 -21.7814
1850.000000 99.966 -23.8536
1875.000000 100.207 -26.0586
1900.000000 100.424 -28.3693
1925.000000 100.613 -30.7731
1950.000000 100.772 -33.2478
1975.000000 100.899 -35.7642
2000.000000 100.996 -38.2937
2030.000000 101.070 -41.3076
2060.000000 101.100 -44.2524
2090.000000 101.088 -47.0858
2120.000000 101.039 -49.7656
2140.000000 100.988 -51.4511
2180.000000 100.850 -54.5569
2200.000000 100.766 -55.9706
2240.000000 100.573 -58.5171
2270.000000 100.417 -60.1903
2300.000000 100.255 -61.6800
2330.000000 100.090 -63.0065
2360.000000 99.922 -64.1784
2400.000000 99.699 -65.5171
2430.000000 99.531 -66.3625
2470.000000 99.308 -67.2841
2500.000000 99.150 -67.8466
2540.000000 98.954 -68.4373
2580.000000 98.770 -68.8562
2620.000000 98.597 -69.1341
2650.000000 98.477 -69.2617
2690.000000 98.330 -69.3365
2720.000000 98.229 -69.3278
2760.000000 98.107 -69.2357
2800.000000 97.999 -69.0596
2850.000000 97.887 -68.7245
2900.000000 97.803 -68.2838
2950.000000 97.751 -67.7525
3000.000000 97.731 -67.1614
3040.000000 97.740 -66.6688
3070.000000 97.761 -66.3037
3110.000000 97.808 -65.8541
3150.000000 97.872 -65.4699
3200.000000 97.977 -65.0894
3250.000000 98.099 -64.8273
3300.000000 98.234 -64.6934
3350.000000 98.383 -64.6935
3400.000000 98.545 -64.8417
3450.000000 98.718 -65.1312
3500.000000 98.899 -65.5672
3550.000000 99.088 -66.1633
3600.000000 99.279 -66.9680
3650.000000 99.465 -67.9972
3700.000000 99.638 -69.2563
3750.000000 99.790 -70.7546
3820.000000 99.948 -73.2258
3870.000000 100.007 -75.2048
3950.000000 99.990 -78.5569
4000.000000 99.906 -80.6415
4060.000000 99.740 -82.9979
4120.000000 99.515 -85.0966
4180.000000 99.249 -86.9034
4250.000000 98.907 -88.6675
4310.000000 98.590 -89.9265
4370.000000 98.249 -90.9691
4440.000000 97.824 -91.8915
4500.000000 97.445 -92.4065
4550.000000 97.123 -92.6278
4620.000000 96.673 -92.6261
4680.000000 96.294 -92.3575
4750.000000 95.867 -91.7855
4820.000000 95.463 -91.0167
4870.000000 95.187 -90.3754
4940.000000 94.811 -89.3633
5000.000000 94.495 -88.3853
5080.000000 94.084 -86.8988
5150.000000 93.736 -85.4153
5220.000000 93.403 -83.7625
5300.000000 93.041 -81.6788
5380.000000 92.703 -79.4182
5450.000000 92.427 -77.3091
5520.000000 92.168 -75.0481
5600.000000 91.903 -72.2307
5700.000000 91.642 -68.4898
5800.000000 91.456 -64.6678
5900.000000 91.331 -60.8843
6000.000000 91.256 -57.1231
6080.000000 91.233 -54.1112
6150.000000 91.245 -51.4824
6220.000000 91.287 -48.8770
6300.000000 91.374 -45.9515
6400.000000 91.544 -42.4183
6500.000000 91.784 -39.0920
6600.000000 92.097 -36.0623
6700.000000 92.485 -33.4423
6800.000000 92.954 -31.3809
6900.000000 93.509 -30.0618
7000.000000 94.128 -29.6890
7100.000000 94.761 -30.4749
7200.000000 95.348 -32.6188
7300.000000 95.807 -36.2049
7400.000000 96.046 -41.0052
7500.000000 95.997 -46.3774
7620.000000 95.560 -52.3546
7750.000000 94.726 -56.9273
7880.000000 93.620 -58.9030
8000.000000 92.514 -58.5779
8120.000000 91.448 -56.6179
8250.000000 90.395 -53.1246
8380.000000 89.475 -48.6069
8500.000000 88.747 -43.7678
8620.000000 88.129 -38.4412
8750.000000 87.573 -32.2598
8850.000000 87.229 -27.2977
9000.000000 86.850 -19.6382
9120.000000 86.665 -13.3835
9250.000000 86.587 -6.5169
9380.000000 86.639 0.4445
9500.000000 86.818 7.0231
9620.000000 87.181 13.8880
9750.000000 87.944 21.5125
9880.000000 89.223 27.9771
10000.000000 90.682 30.9571
10150.000000 92.443 29.5749
10300.000000 93.864 23.3025
10440.000000 94.701 13.7976
10600.000000 94.856 0.6205
10750.000000 94.192 -10.6006
10900.000000 92.970 -18.0804
11060.000000 91.457 -21.6550
11200.000000 90.213 -22.1731
11380.000000 88.886 -21.0497
11500.000000 88.175 -19.9552
11720.000000 87.127 -18.4827
11800.000000 86.784 -18.3117
12060.000000 85.584 -19.2322
12200.000000 84.774 -20.2347
12410.000000 83.248 -21.1332
12500.000000 82.488 -20.9489
12650.000000 81.125 -19.5768
12800.000000 79.707 -16.8300
13150.000000 76.481 -5.8097
13200.000000 76.050 -3.7887
13400.000000 74.438 5.1259
13600.000000 73.030 15.0533
13800.000000 71.847 25.6448
14000.000000 70.908 36.6220
14300.000000 69.957 53.2669
14500.000000 69.642 64.1292
14750.000000 69.660 76.8647
15000.000000 70.183 87.4417
15250.000000 71.137 93.9017
15500.000000 72.174 93.7149
15750.000000 72.561 86.4760
16000.000000 71.764 77.4476
16250.000000 69.986 73.2261
16500.000000 67.923 74.8417
16750.000000 66.158 79.2157
17000.000000 64.826 82.7846
17250.000000 63.622 83.0388
17500.000000 61.976 80.6782
17750.000000 59.458 81.2142
18000.000000 56.386 87.7254
18250.000000 53.420 96.4655
18500.000000 50.566 104.4804
18750.000000 47.692 93.0568
19000.000000 44.781 -104.2157
19250.000000 41.650 140.1067
19500.000000 38.100 -151.4785
19750.000000 34.172 21.1553
20000.000000 30.575 57.1250
20300.000000 28.882 125.2930
20600.000000 29.639 -22.1211
20900.000000 30.431 167.6719
21200.000000 31.159 -89.6484
21400.000000 31.968 -3.4688
21800.000000 34.107 21.8281
22000.000000 34.612 133.4609
22400.000000 33.908 157.8359
22700.000000 32.991 -7.6562
23000.000000 32.445 -159.3125
23300.000000 32.093 -109.9375
23600.000000 31.692 -165.6562
24000.000000 31.222 132.0625
