* Measurement data measured by REW V5.20.13
* Source: Headset (DS by VECLAN.COM), MICROPHONE (Master Volume), L, volume: 0.720. Timing signal peak level -13.9 dBFS, measurement signal peak level -13.5 dBFS
* Format: 4M Log Swept Sine, 1 sweep at -12.0 dBFS using an acoustic timing reference
* Dated: Nov 25, 2023 2:13:21 AM
* REW Settings:
*  C-weighting compensation: Off
*  Target level: 75.0 dB
* Note: ; Apple + Abigail Delay -0.0666 ms (-23 mm, -0.9 in) using estimated IR delay relative to Acoustic reference played from HEADPHONE R with no timing offset Clock adjustment: -0.1 ppm
* Measurement: Simgot EW200 S2 R
* Smoothing: 1/24 octave
* Frequency Step: 1/48 octave
* Start Frequency: 1.000 Hz
*
* Freq(Hz) SPL(dB) Phase(degrees)
1.000000 66.372 -100.5969
1.015000 66.781 -98.4789
1.030000 67.178 -96.4356
1.044000 67.536 -94.6035
1.060000 67.927 -92.6078
1.075000 68.274 -90.8412
1.090000 68.598 -89.1846
1.106000 68.920 -87.5443
1.120000 69.193 -86.1952
1.138000 69.537 -84.5659
1.150000 69.762 -83.5421
1.172000 70.165 -81.7855
1.180000 70.309 -81.1831
1.206000 70.766 -79.3480
1.220000 71.006 -78.4314
1.241000 71.358 -77.1403
1.250000 71.506 -76.6150
1.265000 71.748 -75.7733
1.280000 71.986 -74.9696
1.315000 72.522 -73.2169
1.320000 72.597 -72.9780
1.340000 72.891 -72.0442
1.360000 73.177 -71.1372
1.380000 73.456 -70.2460
1.400000 73.727 -69.3597
1.430000 74.122 -68.0155
1.450000 74.376 -67.0936
1.475000 74.684 -65.9005
1.500000 74.975 -64.7170
1.525000 75.247 -63.5614
1.550000 75.504 -62.4368
1.575000 75.747 -61.3467
1.600000 75.976 -60.2945
1.625000 76.195 -59.2835
1.650000 76.404 -58.3171
1.675000 76.606 -57.3987
1.700000 76.802 -56.5316
1.725000 76.993 -55.7192
1.750000 77.182 -54.9649
1.775000 77.371 -54.2721
1.800000 77.559 -53.6441
1.825000 77.751 -53.0844
1.850000 77.943 -52.6028
1.875000 78.130 -52.2125
1.900000 78.312 -51.9053
1.925000 78.489 -51.6726
1.950000 78.662 -51.5056
1.975000 78.831 -51.3958
2.000000 78.997 -51.3341
2.030000 79.193 -51.3116
2.060000 79.386 -51.3310
2.090000 79.576 -51.3772
2.120000 79.765 -51.4350
2.140000 79.891 -51.4727
2.180000 80.143 -51.5255
2.200000 80.270 -51.5320
2.240000 80.523 -51.5551
2.270000 80.711 -51.5983
2.300000 80.897 -51.6625
2.330000 81.081 -51.7465
2.360000 81.264 -51.8492
2.400000 81.505 -52.0135
2.430000 81.684 -52.1557
2.470000 81.918 -52.3686
2.500000 82.091 -52.5444
2.540000 82.318 -52.7980
2.580000 82.541 -53.0728
2.620000 82.759 -53.3786
2.650000 82.920 -53.6284
2.690000 83.132 -53.9865
2.720000 83.288 -54.2722
2.760000 83.493 -54.6733
2.800000 83.694 -55.0951
2.850000 83.940 -55.6466
2.900000 84.180 -56.2196
2.950000 84.414 -56.8122
3.000000 84.643 -57.4508
3.040000 84.821 -57.9916
3.070000 84.952 -58.4102
3.110000 85.123 -58.9797
3.150000 85.291 -59.5560
3.200000 85.497 -60.2748
3.250000 85.698 -60.9792
3.300000 85.895 -61.6553
3.350000 86.087 -62.3038
3.400000 86.274 -62.9358
3.450000 86.456 -63.5583
3.500000 86.634 -64.1778
3.550000 86.807 -64.8010
3.600000 86.976 -65.4346
3.650000 87.142 -66.0852
3.700000 87.304 -66.7601
3.750000 87.462 -67.4592
3.820000 87.677 -68.4615
3.870000 87.825 -69.1820
3.950000 88.056 -70.3174
4.000000 88.197 -71.0022
4.060000 88.361 -71.7864
4.120000 88.520 -72.5399
4.180000 88.674 -73.2710
4.250000 88.848 -74.1050
4.310000 88.994 -74.8116
4.370000 89.137 -75.5179
4.440000 89.300 -76.3484
4.500000 89.435 -77.0618
4.550000 89.545 -77.6539
4.620000 89.696 -78.4740
4.680000 89.823 -79.1639
4.750000 89.970 -79.9475
4.820000 90.114 -80.7027
4.870000 90.215 -81.2263
4.940000 90.355 -81.9429
5.000000 90.472 -82.5470
5.080000 90.627 -83.3463
5.150000 90.759 -84.0474
5.220000 90.889 -84.7462
5.300000 91.035 -85.5385
5.380000 91.178 -86.3229
5.450000 91.301 -87.0020
5.520000 91.422 -87.6736
5.600000 91.557 -88.4314
5.700000 91.722 -89.3662
5.800000 91.882 -90.2899
5.900000 92.040 -91.2048
6.000000 92.194 -92.1063
6.080000 92.315 -92.8210
6.150000 92.418 -93.4448
6.220000 92.520 -94.0695
6.300000 92.633 -94.7863
6.400000 92.772 -95.6829
6.500000 92.906 -96.5758
6.600000 93.035 -97.4604
6.700000 93.158 -98.3386
6.800000 93.277 -99.2106
6.900000 93.391 -100.0715
7.000000 93.501 -100.9175
7.100000 93.606 -101.7521
7.200000 93.707 -102.5732
7.300000 93.804 -103.3769
7.400000 93.899 -104.1602
7.500000 93.990 -104.9248
7.620000 94.096 -105.8215
7.750000 94.207 -106.7715
7.880000 94.314 -107.6971
8.000000 94.409 -108.5326
8.120000 94.502 -109.3529
8.250000 94.600 -110.2226
8.380000 94.695 -111.0750
8.500000 94.781 -111.8485
8.620000 94.863 -112.6080
8.750000 94.950 -113.4171
8.850000 95.016 -114.0307
9.000000 95.111 -114.9353
9.120000 95.186 -115.6486
9.250000 95.267 -116.4131
9.380000 95.346 -117.1676
9.500000 95.416 -117.8589
9.620000 95.482 -118.5476
9.750000 95.549 -119.2891
9.880000 95.608 -120.0242
10.000000 95.654 -120.6985
10.150000 95.700 -121.5334
10.300000 95.738 -122.3477
10.440000 95.764 -123.0881
10.600000 95.788 -123.9140
10.750000 95.810 -124.6671
10.900000 95.831 -125.4023
11.060000 95.854 -126.1794
11.200000 95.875 -126.8532
11.380000 95.901 -127.7045
11.500000 95.917 -128.2615
11.720000 95.946 -129.2619
11.800000 95.957 -129.6183
12.060000 95.993 -130.7536
12.200000 96.014 -131.3565
12.410000 96.045 -132.2477
12.500000 96.059 -132.6233
12.650000 96.080 -133.2414
12.800000 96.100 -133.8492
13.150000 96.145 -135.2265
13.200000 96.151 -135.4190
13.400000 96.177 -136.1786
13.600000 96.202 -136.9210
13.800000 96.228 -137.6454
14.000000 96.253 -138.3556
14.300000 96.289 -139.3947
14.500000 96.310 -140.0691
14.750000 96.337 -140.8918
15.000000 96.362 -141.6931
15.250000 96.390 -142.4780
15.500000 96.417 -143.2416
15.750000 96.443 -143.9821
16.000000 96.467 -144.6972
16.250000 96.489 -145.3936
16.500000 96.511 -146.0748
16.750000 96.533 -146.7452
17.000000 96.554 -147.4074
17.250000 96.575 -148.0606
17.500000 96.593 -148.7034
17.750000 96.608 -149.3317
18.000000 96.621 -149.9445
18.250000 96.633 -150.5406
18.500000 96.644 -151.1195
18.750000 96.657 -151.6862
19.000000 96.672 -152.2456
19.250000 96.688 -152.8107
19.500000 96.704 -153.3823
19.750000 96.717 -153.9601
20.000000 96.728 -154.5331
20.299999 96.737 -155.1980
20.600000 96.743 -155.8263
20.900000 96.751 -156.4160
21.200001 96.763 -156.9832
21.400000 96.773 -157.3659
21.799999 96.796 -158.1650
22.000000 96.805 -158.5850
22.400000 96.813 -159.4449
22.700001 96.808 -160.0612
23.000000 96.798 -160.6057
23.299999 96.789 -161.0660
23.600000 96.789 -161.4655
24.000000 96.808 -161.9800
24.299999 96.832 -162.4207
24.700001 96.864 -163.1245
25.000000 96.878 -163.7139
25.400000 96.875 -164.4929
25.799999 96.854 -165.1558
26.200001 96.833 -165.6659
26.500000 96.825 -165.9838
26.900000 96.827 -166.3960
27.200001 96.834 -166.7386
27.600000 96.842 -167.2532
28.000000 96.841 -167.7968
28.500000 96.829 -168.4449
29.000000 96.817 -169.0346
29.500000 96.808 -169.6061
30.000000 96.798 -170.1935
30.400000 96.786 -170.6667
30.700001 96.775 -171.0141
31.100000 96.761 -171.4646
31.500000 96.748 -171.9079
32.000000 96.734 -172.4636
32.500000 96.717 -173.0159
33.000000 96.699 -173.5472
33.500000 96.682 -174.0540
34.000000 96.667 -174.5515
34.500000 96.655 -175.0507
35.000000 96.643 -175.5460
35.500000 96.630 -176.0270
36.000000 96.617 -176.4901
36.500000 96.602 -176.9360
37.000000 96.586 -177.3683
37.500000 96.569 -177.7890
38.200001 96.547 -178.3680
38.700001 96.530 -178.7884
39.500000 96.495 -179.4632
40.000000 96.469 -179.8553
40.599998 96.439 179.7132
41.200001 96.414 179.2951
41.799999 96.391 178.8724
42.500000 96.366 178.3802
43.099998 96.346 177.9576
43.700001 96.327 177.5308
44.400002 96.302 177.0482
45.000000 96.280 176.6593
45.500000 96.263 176.3425
46.200001 96.236 175.9057
46.799999 96.209 175.5570
47.500000 96.179 175.1835
48.200001 96.149 174.8141
48.700001 96.125 174.5535
49.400002 96.090 174.2181
50.000000 96.064 173.9433
50.799999 96.034 173.5229
51.500000 96.003 173.1049
52.200001 95.965 172.7049
53.000000 95.924 172.2969
53.799999 95.889 171.9055
54.500000 95.860 171.5581
55.200001 95.830 171.2210
56.000000 95.797 170.8761
57.000000 95.762 170.4675
58.000000 95.720 170.0744
59.000000 95.683 169.7266
60.000000 95.646 169.2527
60.799999 95.598 168.8434
61.500000 95.551 168.5754
62.200001 95.511 168.3539
63.000000 95.472 168.0797
64.000000 95.423 167.7329
65.000000 95.380 167.4070
66.000000 95.336 167.0905
67.000000 95.287 166.8300
68.000000 95.232 166.6236
69.000000 95.171 166.5044
70.000000 95.126 166.4592
71.000000 95.104 166.2307
72.000000 95.064 165.7640
73.000000 94.999 165.3232
74.000000 94.935 164.9977
75.000000 94.884 164.7054
76.199997 94.834 164.3585
77.500000 94.784 163.9961
78.800003 94.723 163.6931
80.000000 94.665 163.5410
81.199997 94.616 163.3967
82.500000 94.559 163.1918
83.800003 94.501 162.9774
85.000000 94.449 162.7637
86.199997 94.400 162.5490
87.500000 94.347 162.3293
88.500000 94.307 162.1703
90.000000 94.242 161.9550
91.199997 94.189 161.8019
92.500000 94.131 161.6455
93.800003 94.075 161.5043
95.000000 94.026 161.3651
96.199997 93.977 161.2149
97.500000 93.924 161.0602
98.800003 93.872 160.9399
100.000000 93.827 160.8243
101.500000 93.765 160.6298
103.000000 93.696 160.4660
104.400002 93.633 160.3645
106.000000 93.569 160.2525
107.500000 93.511 160.1306
109.000000 93.453 160.0143
110.599998 93.389 159.9235
112.000000 93.334 159.8598
113.800003 93.263 159.7852
115.000000 93.217 159.7345
117.199997 93.135 159.6381
118.000000 93.108 159.6065
120.599998 93.013 159.4906
122.000000 92.959 159.4754
124.099998 92.886 159.4777
125.000000 92.856 159.4650
126.500000 92.806 159.4372
128.000000 92.754 159.4296
131.500000 92.639 159.4566
132.000000 92.623 159.4581
134.000000 92.559 159.4525
136.000000 92.500 159.4492
138.000000 92.444 159.4542
140.000000 92.385 159.4971
143.000000 92.309 159.5980
145.000000 92.256 159.6165
147.500000 92.188 159.6684
150.000000 92.124 159.7427
152.500000 92.060 159.8238
155.000000 91.996 159.9090
157.500000 91.936 159.9991
160.000000 91.874 160.0731
162.500000 91.809 160.1752
165.000000 91.747 160.3049
167.500000 91.684 160.4284
170.000000 91.618 160.5541
172.500000 91.556 160.6812
175.000000 91.498 160.8163
177.500000 91.436 160.9738
180.000000 91.373 161.1178
182.500000 91.314 161.2218
185.000000 91.257 161.3435
187.500000 91.202 161.5051
190.000000 91.144 161.6754
192.500000 91.088 161.8450
195.000000 91.035 162.0170
197.500000 90.984 162.1987
200.000000 90.938 162.3845
203.000000 90.889 162.5875
206.000000 90.832 162.7860
209.000000 90.771 162.9777
212.000000 90.718 163.1713
214.000000 90.685 163.3301
218.000000 90.616 163.6770
220.000000 90.583 163.8324
224.000000 90.519 164.1340
227.000000 90.472 164.3658
230.000000 90.424 164.5910
233.000000 90.377 164.8331
236.000000 90.332 165.0811
240.000000 90.268 165.3847
243.000000 90.221 165.6350
247.000000 90.165 165.9749
250.000000 90.126 166.2340
254.000000 90.077 166.5844
258.000000 90.025 166.9152
262.000000 89.978 167.2449
265.000000 89.943 167.5023
269.000000 89.895 167.8473
272.000000 89.862 168.0976
276.000000 89.821 168.4465
280.000000 89.779 168.8035
285.000000 89.728 169.2257
290.000000 89.682 169.6588
295.000000 89.638 170.0847
300.000000 89.593 170.5316
304.000000 89.556 170.8978
307.000000 89.530 171.1516
311.000000 89.502 171.4817
315.000000 89.476 171.8174
320.000000 89.443 172.2354
325.000000 89.410 172.6391
330.000000 89.377 173.0547
335.000000 89.347 173.4827
340.000000 89.314 173.9060
345.000000 89.279 174.3344
350.000000 89.246 174.7546
355.000000 89.214 175.1874
360.000000 89.182 175.6382
365.000000 89.156 176.0669
370.000000 89.131 176.4832
375.000000 89.107 176.8957
382.000000 89.073 177.4795
387.000000 89.048 177.9080
395.000000 89.006 178.5744
400.000000 88.982 178.9662
406.000000 88.954 179.4714
412.000000 88.928 179.9872
418.000000 88.902 -179.5186
425.000000 88.875 -178.9393
431.000000 88.852 -178.4388
437.000000 88.828 -177.9573
444.000000 88.802 -177.3994
450.000000 88.781 -176.9141
455.000000 88.764 -176.5092
462.000000 88.742 -175.9442
468.000000 88.726 -175.4568
475.000000 88.708 -174.8959
482.000000 88.691 -174.3403
487.000000 88.681 -173.9364
494.000000 88.669 -173.3747
500.000000 88.658 -172.9005
508.000000 88.644 -172.2661
515.000000 88.632 -171.7088
522.000000 88.623 -171.1469
530.000000 88.616 -170.5049
538.000000 88.609 -169.8776
545.000000 88.602 -169.3273
552.000000 88.597 -168.7688
560.000000 88.593 -168.1322
570.000000 88.592 -167.3588
580.000000 88.590 -166.5832
590.000000 88.588 -165.8014
600.000000 88.588 -165.0187
608.000000 88.586 -164.3979
615.000000 88.586 -163.8463
622.000000 88.588 -163.2831
630.000000 88.591 -162.6473
640.000000 88.594 -161.8795
650.000000 88.599 -161.1065
660.000000 88.605 -160.3183
670.000000 88.608 -159.5316
680.000000 88.617 -158.7559
690.000000 88.629 -157.9821
700.000000 88.642 -157.2089
710.000000 88.659 -156.4326
720.000000 88.676 -155.6528
730.000000 88.692 -154.8771
740.000000 88.710 -154.0885
750.000000 88.731 -153.3012
762.000000 88.758 -152.3682
775.000000 88.786 -151.3594
788.000000 88.817 -150.3630
800.000000 88.844 -149.4591
812.000000 88.868 -148.5468
825.000000 88.888 -147.5604
838.000000 88.896 -146.5626
850.000000 88.878 -145.5391
862.000000 88.823 -144.1900
875.000000 88.780 -141.7404
885.000000 88.921 -139.1196
900.000000 89.492 -136.9022
912.000000 89.822 -137.5341
925.000000 89.928 -138.2946
938.000000 89.952 -138.3015
950.000000 89.978 -137.9190
962.000000 90.016 -137.3865
975.000000 90.066 -136.7291
988.000000 90.124 -136.0265
1000.000000 90.171 -135.3399
1015.000000 90.210 -134.3352
1030.000000 90.284 -132.9005
1044.000000 90.483 -131.4642
1060.000000 90.784 -130.8708
1075.000000 90.957 -130.9857
1090.000000 91.056 -130.9279
1106.000000 91.156 -130.6171
1120.000000 91.253 -130.2519
1138.000000 91.382 -129.7602
1150.000000 91.468 -129.4245
1172.000000 91.626 -128.8044
1180.000000 91.683 -128.5842
1206.000000 91.868 -127.8978
1220.000000 91.971 -127.5483
1241.000000 92.127 -127.0373
1250.000000 92.195 -126.8178
1265.000000 92.307 -126.4584
1280.000000 92.416 -126.0994
1315.000000 92.664 -125.2763
1320.000000 92.698 -125.1630
1340.000000 92.827 -124.7086
1360.000000 92.938 -124.2527
1380.000000 93.052 -123.8103
1400.000000 93.180 -123.3764
1430.000000 93.375 -122.7345
1450.000000 93.510 -122.3275
1475.000000 93.678 -121.8349
1500.000000 93.845 -121.3552
1525.000000 94.010 -120.8922
1550.000000 94.167 -120.4483
1575.000000 94.321 -120.0174
1600.000000 94.473 -119.6094
1625.000000 94.623 -119.2241
1650.000000 94.775 -118.8445
1675.000000 94.931 -118.4801
1700.000000 95.087 -118.1363
1725.000000 95.240 -117.8018
1750.000000 95.393 -117.4868
1775.000000 95.547 -117.1888
1800.000000 95.702 -116.9093
1825.000000 95.858 -116.6599
1850.000000 96.016 -116.4362
1875.000000 96.173 -116.2350
1900.000000 96.331 -116.0651
1925.000000 96.488 -115.9235
1950.000000 96.646 -115.8139
1975.000000 96.809 -115.7325
2000.000000 96.971 -115.6884
2030.000000 97.158 -115.7010
2060.000000 97.343 -115.7550
2090.000000 97.530 -115.8509
2120.000000 97.715 -116.0062
2140.000000 97.837 -116.1444
2180.000000 98.077 -116.4947
2200.000000 98.192 -116.7053
2240.000000 98.415 -117.1866
2270.000000 98.575 -117.6006
2300.000000 98.727 -118.0638
2330.000000 98.872 -118.5772
2360.000000 99.010 -119.1399
2400.000000 99.183 -119.9450
2430.000000 99.301 -120.5812
2470.000000 99.444 -121.4793
2500.000000 99.539 -122.1752
2540.000000 99.649 -123.1353
2580.000000 99.742 -124.1144
2620.000000 99.818 -125.0998
2650.000000 99.865 -125.8381
2690.000000 99.911 -126.7990
2720.000000 99.933 -127.4932
2760.000000 99.947 -128.3840
2800.000000 99.948 -129.2302
2850.000000 99.936 -130.2067
2900.000000 99.904 -131.0715
2950.000000 99.853 -131.8199
3000.000000 99.789 -132.4468
3040.000000 99.733 -132.8943
3070.000000 99.690 -133.1884
3110.000000 99.630 -133.5064
3150.000000 99.567 -133.7463
3200.000000 99.485 -133.9545
3250.000000 99.401 -134.0703
3300.000000 99.317 -134.0927
3350.000000 99.237 -134.0359
3400.000000 99.160 -133.9122
3450.000000 99.090 -133.7163
3500.000000 99.028 -133.4452
3550.000000 98.972 -133.0948
3600.000000 98.920 -132.6486
3650.000000 98.873 -132.0923
3700.000000 98.838 -131.4324
3750.000000 98.823 -130.6856
3820.000000 98.842 -129.5849
3870.000000 98.881 -128.8481
3950.000000 98.964 -127.8250
4000.000000 99.026 -127.2653
4060.000000 99.113 -126.6513
4120.000000 99.216 -126.1048
4180.000000 99.334 -125.6688
4250.000000 99.489 -125.3587
4310.000000 99.624 -125.2935
4370.000000 99.748 -125.4056
4440.000000 99.875 -125.7192
4500.000000 99.972 -126.1179
4550.000000 100.045 -126.5318
4620.000000 100.139 -127.2346
4680.000000 100.208 -127.9592
4750.000000 100.268 -128.9408
4820.000000 100.300 -130.0615
4870.000000 100.304 -130.9370
4940.000000 100.281 -132.2620
5000.000000 100.231 -133.4594
5080.000000 100.121 -135.0683
5150.000000 99.978 -136.4535
5220.000000 99.790 -137.7629
5300.000000 99.523 -139.0876
5380.000000 99.208 -140.1525
5450.000000 98.901 -140.8228
5520.000000 98.572 -141.2193
5600.000000 98.177 -141.2934
5700.000000 97.675 -140.7792
5800.000000 97.190 -139.6367
5900.000000 96.744 -138.0089
6000.000000 96.330 -136.0420
6080.000000 96.001 -134.1172
6150.000000 95.727 -131.8528
6220.000000 95.556 -128.9174
6300.000000 95.590 -125.8199
6400.000000 95.691 -123.8101
6500.000000 95.639 -122.2779
6600.000000 95.560 -120.2574
6700.000000 95.529 -117.9427
6800.000000 95.565 -115.5460
6900.000000 95.687 -113.1754
7000.000000 95.893 -110.9161
7100.000000 96.174 -108.8625
7200.000000 96.528 -107.1186
7300.000000 96.951 -105.8174
7400.000000 97.436 -105.0915
7500.000000 97.974 -105.0887
7620.000000 98.681 -106.2933
7750.000000 99.443 -109.4585
7880.000000 100.001 -114.8673
8000.000000 100.223 -121.6869
8120.000000 100.077 -129.4868
8250.000000 99.466 -137.6780
8380.000000 98.445 -144.2198
8500.000000 97.255 -148.0937
8620.000000 95.953 -149.8081
8750.000000 94.534 -149.5625
8850.000000 93.494 -148.2076
9000.000000 92.067 -144.7986
9120.000000 91.049 -141.2340
9250.000000 90.069 -136.8170
9380.000000 89.208 -131.9935
9500.000000 88.507 -127.2705
9620.000000 87.887 -122.3599
9750.000000 87.302 -116.8748
9880.000000 86.803 -111.2419
10000.000000 86.411 -105.9466
10150.000000 86.008 -99.2338
10300.000000 85.694 -92.4236
10440.000000 85.486 -86.0000
10600.000000 85.351 -78.6272
10750.000000 85.325 -71.7386
10900.000000 85.398 -64.9239
11060.000000 85.585 -57.7475
11200.000000 85.848 -51.5589
11380.000000 86.335 -43.7966
11500.000000 86.763 -38.8055
11720.000000 87.793 -30.2306
11800.000000 88.257 -27.3607
12060.000000 90.183 -19.4061
12200.000000 91.561 -16.5421
12410.000000 94.087 -16.2267
12500.000000 95.240 -18.5686
12650.000000 96.945 -27.3491
12800.000000 97.951 -42.4500
13150.000000 96.308 -79.7952
13200.000000 95.709 -82.9564
13400.000000 92.997 -89.3213
13600.000000 90.324 -88.2848
13800.000000 88.074 -82.5533
14000.000000 86.426 -74.0984
14300.000000 85.100 -59.9741
14500.000000 84.815 -51.0356
14750.000000 84.960 -41.0289
15000.000000 85.606 -32.7708
15250.000000 86.763 -27.2096
15500.000000 88.359 -26.1929
15750.000000 89.939 -32.1909
16000.000000 90.765 -45.4396
16250.000000 90.439 -60.9938
16500.000000 89.227 -73.9729
16750.000000 87.515 -84.1795
17000.000000 85.340 -92.2389
17250.000000 82.384 -93.5430
17500.000000 78.984 -82.3728
17750.000000 77.009 -64.9719
18000.000000 77.122 -53.1228
18250.000000 77.686 -50.1223
18500.000000 77.816 -53.4248
18750.000000 77.251 -59.6790
19000.000000 75.939 -65.3647
19250.000000 74.014 -67.8430
19500.000000 71.730 -66.3951
19750.000000 69.380 -61.6519
20000.000000 67.133 -54.5615
20300.000000 64.713 -44.2331
20600.000000 62.839 -33.5662
20900.000000 61.502 -24.6547
21200.000000 60.444 -19.3460
21400.000000 59.725 -18.5988
21800.000000 57.786 -37.6388
22000.000000 56.328 -107.1186
22400.000000 51.806 32.6437
22700.000000 46.905 71.9209
23000.000000 42.083 -174.5176
23300.000000 39.919 175.6758
23600.000000 40.194 -117.0547
24000.000000 41.446 105.8438
