* Measurement data measured by REW V5.31.3
* Source: Headset (DS by VECLAN.COM), MICROPHONE (Master Volume), L, volume: 0.720. Timing signal peak level -20.0 dBFS, measurement signal peak level -14.1 dBFS
* Format: 2M Log Swept Sine, 1 sweep at -12.0 dBFS using an acoustic timing reference
* Dated: Aug 23, 2024 1:48:49 PM
* REW Settings:
*  C-weighting compensation: Off
*  Target level: 85.0 dB
* Note: ; Delay -0.6376 ms (-219 mm, -8.61 in) using estimated IR delay relative to Acoustic reference played from SPEAKER L with no timing offset Clock adjustment: -14.3 ppm
* Measurement: Simgot EW300 DSP S1 G L
* Smoothing: 1/24 octave
* Frequency Step: 1/48 octave
* Start Frequency: 1.000 Hz
*
* Freq(Hz), SPL(dB), Phase(degrees)
1.000000, 57.141, 152.7483
1.015000, 57.286, 150.2360
1.030000, 57.439, 147.6974
1.044000, 57.591, 145.3022
1.060000, 57.776, 142.5318
1.075000, 57.961, 139.9008
1.090000, 58.159, 137.2376
1.106000, 58.384, 134.3741
1.120000, 58.594, 131.8772
1.138000, 58.881, 128.7133
1.150000, 59.082, 126.6444
1.172000, 59.469, 122.9551
1.180000, 59.615, 121.6502
1.206000, 60.107, 117.5545
1.220000, 60.382, 115.4432
1.241000, 60.805, 112.3990
1.250000, 60.989, 111.1383
1.265000, 61.301, 109.0935
1.280000, 61.615, 107.1158
1.315000, 62.359, 102.7392
1.320000, 62.466, 102.1387
1.340000, 62.892, 99.7920
1.360000, 63.317, 97.5254
1.380000, 63.737, 95.3286
1.400000, 64.150, 93.1919
1.430000, 64.751, 90.0797
1.450000, 65.138, 88.0565
1.475000, 65.605, 85.5904
1.500000, 66.066, 83.2306
1.525000, 66.525, 80.9925
1.550000, 66.982, 78.8701
1.575000, 67.436, 76.8527
1.600000, 67.887, 74.9288
1.625000, 68.334, 73.0869
1.650000, 68.776, 71.3153
1.675000, 69.212, 69.6033
1.700000, 69.643, 67.9406
1.725000, 70.066, 66.3178
1.750000, 70.481, 64.7262
1.775000, 70.889, 63.1580
1.800000, 71.287, 61.6062
1.825000, 71.675, 60.0673
1.850000, 72.054, 58.5490
1.875000, 72.424, 57.0656
1.900000, 72.786, 55.6225
1.925000, 73.139, 54.2189
1.950000, 73.486, 52.8526
1.975000, 73.825, 51.5209
2.000000, 74.157, 50.2207
2.030000, 74.547, 48.6970
2.060000, 74.928, 47.2078
2.090000, 75.302, 45.7468
2.120000, 75.668, 44.3079
2.140000, 75.909, 43.3580
2.180000, 76.382, 41.4736
2.200000, 76.614, 40.5374
2.240000, 77.067, 38.6829
2.270000, 77.397, 37.3141
2.300000, 77.719, 35.9672
2.330000, 78.033, 34.6434
2.360000, 78.339, 33.3428
2.400000, 78.736, 31.6435
2.430000, 79.027, 30.3936
2.470000, 79.406, 28.7565
2.500000, 79.685, 27.5481
2.540000, 80.048, 25.9578
2.580000, 80.404, 24.3846
2.620000, 80.749, 22.8229
2.650000, 81.000, 21.6609
2.690000, 81.326, 20.1286
2.720000, 81.564, 18.9948
2.760000, 81.874, 17.5060
2.800000, 82.175, 16.0457
2.850000, 82.541, 14.2610
2.900000, 82.897, 12.5201
2.950000, 83.243, 10.8138
3.000000, 83.577, 9.1243
3.040000, 83.835, 7.7845
3.070000, 84.023, 6.7893
3.110000, 84.268, 5.4789
3.150000, 84.507, 4.1904
3.200000, 84.798, 2.6151
3.250000, 85.082, 1.0817
3.300000, 85.358, -0.4113
3.350000, 85.626, -1.8779
3.400000, 85.885, -3.3271
3.450000, 86.136, -4.7557
3.500000, 86.379, -6.1586
3.550000, 86.616, -7.5310
3.600000, 86.847, -8.8690
3.650000, 87.075, -10.1710
3.700000, 87.297, -11.4419
3.750000, 87.513, -12.6898
3.820000, 87.806, -14.4026
3.870000, 88.010, -15.6004
3.950000, 88.328, -17.4697
4.000000, 88.524, -18.6070
4.060000, 88.755, -19.9404
4.120000, 88.981, -21.2431
4.180000, 89.203, -22.5199
4.250000, 89.457, -23.9824
4.310000, 89.670, -25.2168
4.370000, 89.882, -26.4360
4.440000, 90.127, -27.8382
4.500000, 90.333, -29.0204
4.550000, 90.504, -29.9941
4.620000, 90.739, -31.3459
4.680000, 90.938, -32.4999
4.750000, 91.167, -33.8466
4.820000, 91.393, -35.1926
4.870000, 91.553, -36.1511
4.940000, 91.774, -37.4893
5.000000, 91.960, -38.6359
5.080000, 92.204, -40.1701
5.150000, 92.412, -41.5224
5.220000, 92.616, -42.8845
5.300000, 92.844, -44.4485
5.380000, 93.065, -46.0154
5.450000, 93.252, -47.3878
5.520000, 93.433, -48.7653
5.600000, 93.633, -50.3524
5.700000, 93.873, -52.3461
5.800000, 94.099, -54.3286
5.900000, 94.312, -56.2950
6.000000, 94.511, -58.2646
6.080000, 94.661, -59.8340
6.150000, 94.785, -61.1893
6.220000, 94.903, -62.5220
6.300000, 95.031, -64.0257
6.400000, 95.178, -65.8873
6.500000, 95.313, -67.7094
6.600000, 95.438, -69.4700
6.700000, 95.553, -71.1774
6.800000, 95.658, -72.8401
6.900000, 95.754, -74.4437
7.000000, 95.845, -75.9772
7.100000, 95.928, -77.4495
7.200000, 96.006, -78.8648
7.300000, 96.081, -80.2184
7.400000, 96.153, -81.5081
7.500000, 96.223, -82.7393
7.620000, 96.305, -84.1485
7.750000, 96.394, -85.5963
7.880000, 96.483, -86.9652
8.000000, 96.567, -88.1733
8.120000, 96.652, -89.3385
8.250000, 96.747, -90.5542
8.380000, 96.844, -91.7349
8.500000, 96.936, -92.8038
8.620000, 97.028, -93.8534
8.750000, 97.129, -94.9761
8.850000, 97.206, -95.8344
9.000000, 97.322, -97.1136
9.120000, 97.414, -98.1317
9.250000, 97.511, -99.2324
9.380000, 97.606, -100.3304
9.500000, 97.690, -101.3396
9.620000, 97.773, -102.3448
9.750000, 97.857, -103.4286
9.880000, 97.929, -104.5019
10.000000, 97.982, -105.4822
10.150000, 98.032, -106.6914
10.300000, 98.070, -107.8745
10.440000, 98.096, -108.9540
10.600000, 98.119, -110.1538
10.750000, 98.140, -111.2415
10.900000, 98.160, -112.2946
11.060000, 98.179, -113.3793
11.200000, 98.194, -114.2977
11.380000, 98.213, -115.4448
11.500000, 98.226, -116.1914
11.720000, 98.252, -117.5355
11.800000, 98.262, -118.0201
12.060000, 98.298, -119.5866
12.200000, 98.318, -120.4305
12.410000, 98.346, -121.6951
12.500000, 98.355, -122.2349
12.650000, 98.368, -123.1298
12.800000, 98.375, -124.0107
13.150000, 98.377, -125.9761
13.200000, 98.376, -126.2430
13.400000, 98.371, -127.2703
13.600000, 98.367, -128.2328
13.800000, 98.367, -129.1345
14.000000, 98.372, -129.9935
14.300000, 98.393, -131.2451
14.500000, 98.414, -132.0894
14.750000, 98.444, -133.1844
15.000000, 98.473, -134.3323
15.250000, 98.498, -135.5191
15.500000, 98.511, -136.7074
15.750000, 98.510, -137.8553
16.000000, 98.498, -138.9218
16.250000, 98.482, -139.8851
16.500000, 98.467, -140.7460
16.750000, 98.462, -141.5261
17.000000, 98.469, -142.2626
17.250000, 98.486, -142.9914
17.500000, 98.511, -143.7398
17.750000, 98.536, -144.5178
18.000000, 98.559, -145.3196
18.250000, 98.577, -146.1296
18.500000, 98.589, -146.9293
18.750000, 98.598, -147.7060
19.000000, 98.606, -148.4541
19.250000, 98.613, -149.1770
19.500000, 98.621, -149.8820
19.750000, 98.628, -150.5757
20.000000, 98.634, -151.2604
20.299999, 98.636, -152.0646
20.600000, 98.635, -152.8369
20.900000, 98.631, -153.5644
21.200001, 98.627, -154.2441
21.400000, 98.626, -154.6758
21.799999, 98.632, -155.5181
22.000000, 98.639, -155.9443
22.400000, 98.655, -156.8356
22.700001, 98.665, -157.5417
23.000000, 98.670, -158.2648
23.299999, 98.667, -158.9798
23.600000, 98.658, -159.6611
24.000000, 98.644, -160.4934
24.299999, 98.637, -161.0675
24.700001, 98.637, -161.8069
25.000000, 98.640, -162.3734
25.400000, 98.644, -163.1641
25.799999, 98.637, -163.9704
26.200001, 98.618, -164.7344
26.500000, 98.600, -165.2544
26.900000, 98.579, -165.8860
27.200001, 98.567, -166.3438
27.600000, 98.554, -166.9778
28.000000, 98.531, -167.6396
28.500000, 98.480, -168.4022
29.000000, 98.420, -168.9515
29.500000, 98.387, -169.3196
30.000000, 98.396, -169.7535
30.400000, 98.414, -170.2945
30.700001, 98.419, -170.8135
31.100000, 98.402, -171.5696
31.500000, 98.359, -172.2746
32.000000, 98.294, -172.9619
32.500000, 98.244, -173.4686
33.000000, 98.218, -173.9355
33.500000, 98.204, -174.4537
34.000000, 98.194, -175.0216
34.500000, 98.183, -175.6115
35.000000, 98.168, -176.2077
35.500000, 98.143, -176.7832
36.000000, 98.110, -177.2943
36.500000, 98.076, -177.7226
37.000000, 98.046, -178.1015
37.500000, 98.019, -178.4811
38.200001, 97.975, -179.0247
38.700001, 97.936, -179.3822
39.500000, 97.879, -179.9016
40.000000, 97.847, 179.7571
40.599998, 97.806, 179.3129
41.200001, 97.762, 178.8650
41.799999, 97.717, 178.4305
42.500000, 97.669, 177.9166
43.099998, 97.627, 177.4709
43.700001, 97.581, 177.0554
44.400002, 97.531, 176.6290
45.000000, 97.492, 176.2872
45.500000, 97.460, 176.0037
46.200001, 97.413, 175.6212
46.799999, 97.371, 175.3241
47.500000, 97.326, 174.9988
48.200001, 97.282, 174.6653
48.700001, 97.248, 174.4238
49.400002, 97.200, 174.0956
50.000000, 97.158, 173.8196
50.799999, 97.098, 173.4560
51.500000, 97.041, 173.1801
52.200001, 96.988, 172.9600
53.000000, 96.933, 172.7159
53.799999, 96.875, 172.4498
54.500000, 96.819, 172.2297
55.200001, 96.759, 172.0311
56.000000, 96.688, 171.8224
57.000000, 96.596, 171.6124
58.000000, 96.511, 171.4629
59.000000, 96.441, 171.2852
60.000000, 96.371, 171.0253
60.799999, 96.306, 170.8388
61.500000, 96.250, 170.7317
62.200001, 96.197, 170.6459
63.000000, 96.133, 170.5579
64.000000, 96.050, 170.5209
65.000000, 95.974, 170.5150
66.000000, 95.893, 170.4677
67.000000, 95.806, 170.4595
68.000000, 95.724, 170.4949
69.000000, 95.652, 170.5192
70.000000, 95.587, 170.4724
71.000000, 95.515, 170.4001
72.000000, 95.442, 170.3725
73.000000, 95.367, 170.3359
74.000000, 95.280, 170.3448
75.000000, 95.194, 170.4718
76.199997, 95.103, 170.6089
77.500000, 94.995, 170.7322
78.800003, 94.890, 170.9081
80.000000, 94.803, 171.0624
81.199997, 94.723, 171.1606
82.500000, 94.627, 171.2538
83.800003, 94.536, 171.5235
85.000000, 94.471, 171.8047
86.199997, 94.407, 172.0601
87.500000, 94.327, 172.3395
88.500000, 94.258, 172.6387
90.000000, 94.168, 173.1050
91.199997, 94.089, 173.3597
92.500000, 93.989, 173.6988
93.800003, 93.903, 174.1005
95.000000, 93.833, 174.3893
96.199997, 93.756, 174.6508
97.500000, 93.674, 175.0242
98.800003, 93.609, 175.4076
100.000000, 93.554, 175.7044
101.500000, 93.475, 176.0372
103.000000, 93.381, 176.4899
104.400002, 93.303, 176.9933
106.000000, 93.211, 177.4591
107.500000, 93.111, 177.8817
109.000000, 93.004, 178.4318
110.599998, 92.944, 179.2051
112.000000, 92.916, 179.4926
113.800003, 92.829, 179.7576
115.000000, 92.760, -179.9426
117.199997, 92.653, -179.2679
118.000000, 92.620, -179.0181
120.599998, 92.517, -178.1871
122.000000, 92.463, -177.6709
124.099998, 92.365, -177.0096
125.000000, 92.316, -176.7335
126.500000, 92.236, -176.2703
128.000000, 92.168, -175.8582
131.500000, 92.033, -174.8536
132.000000, 92.016, -174.6987
134.000000, 91.949, -174.0830
136.000000, 91.885, -173.4783
138.000000, 91.821, -172.9309
140.000000, 91.749, -172.2721
143.000000, 91.656, -171.2327
145.000000, 91.583, -170.6269
147.500000, 91.494, -169.7944
150.000000, 91.407, -168.9030
152.500000, 91.323, -168.0374
155.000000, 91.240, -167.2897
157.500000, 91.167, -166.5160
160.000000, 91.083, -165.7430
162.500000, 90.988, -164.7917
165.000000, 90.917, -163.8484
167.500000, 90.831, -162.9789
170.000000, 90.738, -162.0864
172.500000, 90.668, -161.3605
175.000000, 90.620, -160.7318
177.500000, 90.563, -159.9610
180.000000, 90.486, -158.9789
182.500000, 90.426, -158.1127
185.000000, 90.387, -157.4528
187.500000, 90.347, -156.7675
190.000000, 90.291, -156.0375
192.500000, 90.221, -155.3243
195.000000, 90.159, -154.5573
197.500000, 90.106, -153.7442
200.000000, 90.047, -152.9631
203.000000, 89.967, -152.1175
206.000000, 89.894, -151.2642
209.000000, 89.830, -150.3918
212.000000, 89.771, -149.5629
214.000000, 89.731, -149.0064
218.000000, 89.652, -147.7473
220.000000, 89.610, -147.1313
224.000000, 89.520, -146.0168
227.000000, 89.468, -145.2267
230.000000, 89.427, -144.4370
233.000000, 89.383, -143.6505
236.000000, 89.332, -142.8799
240.000000, 89.265, -141.8885
243.000000, 89.226, -141.1379
247.000000, 89.180, -140.1257
250.000000, 89.141, -139.3029
254.000000, 89.082, -138.2665
258.000000, 89.018, -137.3488
262.000000, 88.960, -136.4470
265.000000, 88.922, -135.7495
269.000000, 88.881, -134.8245
272.000000, 88.853, -134.1847
276.000000, 88.813, -133.2752
280.000000, 88.774, -132.2512
285.000000, 88.726, -131.1776
290.000000, 88.689, -130.1804
295.000000, 88.653, -129.2091
300.000000, 88.603, -128.2497
304.000000, 88.572, -127.4753
307.000000, 88.553, -126.9524
311.000000, 88.523, -126.2913
315.000000, 88.494, -125.5325
320.000000, 88.463, -124.6592
325.000000, 88.424, -123.8510
330.000000, 88.400, -122.9979
335.000000, 88.370, -122.2576
340.000000, 88.342, -121.5717
345.000000, 88.320, -120.8840
350.000000, 88.294, -120.2134
355.000000, 88.268, -119.6086
360.000000, 88.245, -119.0038
365.000000, 88.223, -118.4054
370.000000, 88.202, -117.8713
375.000000, 88.179, -117.3936
382.000000, 88.150, -116.7722
387.000000, 88.132, -116.3635
395.000000, 88.108, -115.7624
400.000000, 88.088, -115.3941
406.000000, 88.061, -114.9764
412.000000, 88.039, -114.6017
418.000000, 88.018, -114.2479
425.000000, 87.986, -113.7855
431.000000, 87.962, -113.4420
437.000000, 87.939, -113.1007
444.000000, 87.915, -112.7371
450.000000, 87.899, -112.4880
455.000000, 87.885, -112.3035
462.000000, 87.865, -112.0358
468.000000, 87.848, -111.7966
475.000000, 87.828, -111.5279
482.000000, 87.804, -111.2798
487.000000, 87.787, -111.1295
494.000000, 87.773, -110.9492
500.000000, 87.766, -110.7837
508.000000, 87.758, -110.5992
515.000000, 87.747, -110.4628
522.000000, 87.735, -110.3344
530.000000, 87.725, -110.2335
538.000000, 87.714, -110.1594
545.000000, 87.702, -110.0828
552.000000, 87.690, -110.0200
560.000000, 87.678, -109.9850
570.000000, 87.663, -109.9493
580.000000, 87.655, -109.9266
590.000000, 87.655, -109.9287
600.000000, 87.660, -109.9741
608.000000, 87.657, -110.0278
615.000000, 87.651, -110.0768
622.000000, 87.641, -110.1174
630.000000, 87.629, -110.1783
640.000000, 87.618, -110.2977
650.000000, 87.612, -110.4581
660.000000, 87.609, -110.6533
670.000000, 87.609, -110.8520
680.000000, 87.611, -111.0688
690.000000, 87.616, -111.3180
700.000000, 87.625, -111.6063
710.000000, 87.635, -111.9129
720.000000, 87.645, -112.2422
730.000000, 87.651, -112.5842
740.000000, 87.656, -112.9385
750.000000, 87.665, -113.3177
762.000000, 87.684, -113.8254
775.000000, 87.709, -114.4409
788.000000, 87.734, -115.0817
800.000000, 87.751, -115.6805
812.000000, 87.771, -116.2822
825.000000, 87.804, -116.9482
838.000000, 87.845, -117.6342
850.000000, 87.897, -118.3137
862.000000, 87.953, -119.0544
875.000000, 88.015, -119.9302
885.000000, 88.057, -120.5981
900.000000, 88.115, -121.6099
912.000000, 88.161, -122.4738
925.000000, 88.215, -123.4520
938.000000, 88.278, -124.5002
950.000000, 88.340, -125.5315
962.000000, 88.405, -126.6077
975.000000, 88.477, -127.8121
988.000000, 88.550, -129.0450
1000.000000, 88.619, -130.2454
1015.000000, 88.707, -131.8912
1030.000000, 88.794, -133.5839
1044.000000, 88.872, -135.2188
1060.000000, 88.960, -137.1545
1075.000000, 89.042, -139.0262
1090.000000, 89.131, -140.9692
1106.000000, 89.239, -143.1299
1120.000000, 89.337, -145.0896
1138.000000, 89.460, -147.6732
1150.000000, 89.538, -149.4283
1172.000000, 89.670, -152.7253
1180.000000, 89.715, -153.9480
1206.000000, 89.866, -157.9777
1220.000000, 89.953, -160.1558
1241.000000, 90.079, -163.4108
1250.000000, 90.130, -164.7985
1265.000000, 90.209, -167.1019
1280.000000, 90.287, -169.4072
1315.000000, 90.465, -174.8124
1320.000000, 90.490, -175.5793
1340.000000, 90.579, -178.6317
1360.000000, 90.648, 178.3386
1380.000000, 90.716, 175.2988
1400.000000, 90.792, 172.2949
1430.000000, 90.902, 167.8668
1450.000000, 90.976, 164.9227
1475.000000, 91.069, 161.2801
1500.000000, 91.157, 157.6953
1525.000000, 91.234, 154.1713
1550.000000, 91.300, 150.7134
1575.000000, 91.362, 147.3290
1600.000000, 91.430, 144.0172
1625.000000, 91.509, 140.7908
1650.000000, 91.601, 137.6346
1675.000000, 91.705, 134.5046
1700.000000, 91.814, 131.3199
1725.000000, 91.918, 128.0637
1750.000000, 92.016, 124.7702
1775.000000, 92.109, 121.4856
1800.000000, 92.197, 118.2587
1825.000000, 92.277, 115.0906
1850.000000, 92.353, 111.9852
1875.000000, 92.426, 108.9306
1900.000000, 92.500, 105.9198
1925.000000, 92.575, 102.9528
1950.000000, 92.650, 100.0270
1975.000000, 92.724, 97.1523
2000.000000, 92.798, 94.3264
2030.000000, 92.886, 90.9597
2060.000000, 92.979, 87.6449
2090.000000, 93.075, 84.3929
2120.000000, 93.170, 81.2101
2140.000000, 93.233, 79.1168
2180.000000, 93.357, 74.9957
2200.000000, 93.416, 72.9754
2240.000000, 93.528, 69.0153
2270.000000, 93.612, 66.1235
2300.000000, 93.701, 63.3057
2330.000000, 93.796, 60.5990
2360.000000, 93.899, 58.0469
2400.000000, 94.046, 54.8254
2430.000000, 94.156, 52.4655
2470.000000, 94.300, 49.3024
2500.000000, 94.406, 46.9075
2540.000000, 94.544, 43.7248
2580.000000, 94.675, 40.6250
2620.000000, 94.794, 37.6758
2650.000000, 94.876, 35.5800
2690.000000, 94.987, 32.9106
2720.000000, 95.076, 30.9437
2760.000000, 95.201, 28.2834
2800.000000, 95.331, 25.5568
2850.000000, 95.483, 22.1007
2900.000000, 95.608, 18.7321
2950.000000, 95.712, 15.5942
3000.000000, 95.816, 12.7648
3040.000000, 95.912, 10.7039
3070.000000, 95.999, 9.2424
3110.000000, 96.133, 7.3249
3150.000000, 96.281, 5.3413
3200.000000, 96.461, 2.6732
3250.000000, 96.613, -0.1638
3300.000000, 96.728, -3.0262
3350.000000, 96.811, -5.7893
3400.000000, 96.864, -8.3755
3450.000000, 96.884, -10.7463
3500.000000, 96.869, -12.8871
3550.000000, 96.823, -14.7759
3600.000000, 96.761, -16.4088
3650.000000, 96.699, -17.7715
3700.000000, 96.641, -18.8628
3750.000000, 96.590, -19.7081
3820.000000, 96.520, -20.5755
3870.000000, 96.464, -21.0413
3950.000000, 96.351, -21.5486
4000.000000, 96.260, -21.6839
4060.000000, 96.129, -21.6132
4120.000000, 95.980, -21.2699
4180.000000, 95.823, -20.6477
4250.000000, 95.632, -19.5663
4310.000000, 95.457, -18.3494
4370.000000, 95.263, -16.8674
4440.000000, 95.005, -14.7902
4500.000000, 94.758, -12.6877
4550.000000, 94.538, -10.7072
4620.000000, 94.219, -7.5665
4680.000000, 93.944, -4.5234
4750.000000, 93.624, -0.5552
4820.000000, 93.306, 3.8777
4870.000000, 93.080, 7.3205
4940.000000, 92.765, 12.5247
5000.000000, 92.499, 17.3315
5080.000000, 92.155, 24.2264
5150.000000, 91.864, 30.7174
5220.000000, 91.586, 37.5932
5300.000000, 91.294, 45.8702
5380.000000, 91.034, 54.5413
5450.000000, 90.829, 62.4306
5520.000000, 90.638, 70.5925
5600.000000, 90.435, 80.2305
5700.000000, 90.195, 92.7590
5800.000000, 89.965, 105.8495
5900.000000, 89.746, 119.5197
6000.000000, 89.553, 133.6351
6080.000000, 89.422, 145.0758
6150.000000, 89.330, 155.1776
6220.000000, 89.258, 165.3911
6300.000000, 89.193, 177.2076
6400.000000, 89.133, -167.8112
6500.000000, 89.101, -152.6120
6600.000000, 89.104, -137.2192
6700.000000, 89.150, -121.6617
6800.000000, 89.243, -105.9562
6900.000000, 89.400, -90.1440
7000.000000, 89.622, -74.2766
7100.000000, 89.897, -58.3912
7200.000000, 90.223, -42.5319
7300.000000, 90.609, -26.7706
7400.000000, 91.059, -11.2225
7500.000000, 91.569, 3.9798
7620.000000, 92.277, 21.4330
7750.000000, 93.127, 38.7144
7880.000000, 93.849, 53.5042
8000.000000, 94.191, 64.8143
8120.000000, 94.017, 75.0084
8250.000000, 93.180, 87.2242
8380.000000, 91.870, 102.8599
8500.000000, 90.528, 120.9226
8620.000000, 89.274, 141.8470
8750.000000, 88.119, 166.5006
8850.000000, 87.361, -173.7425
9000.000000, 86.399, -143.1218
9120.000000, 85.775, -117.9008
9250.000000, 85.244, -90.2303
9380.000000, 84.834, -62.6573
9500.000000, 84.523, -37.3926
9620.000000, 84.248, -12.0441
9750.000000, 84.008, 15.8848
9880.000000, 83.867, 44.2452
10000.000000, 83.821, 70.6081
10150.000000, 83.859, 103.7483
10300.000000, 83.996, 137.1058
10440.000000, 84.218, 168.4761
10600.000000, 84.611, -155.3439
10750.000000, 85.156, -121.1112
10900.000000, 85.940, -86.7103
11060.000000, 87.127, -50.5134
11200.000000, 88.483, -20.5103
11380.000000, 90.477, 13.3653
11500.000000, 91.727, 32.1936
11720.000000, 93.235, 60.1798
11800.000000, 93.421, 69.2371
12060.000000, 92.654, 100.4393
12200.000000, 91.602, 120.7844
12410.000000, 89.686, 157.2479
12500.000000, 88.855, 174.8067
12650.000000, 87.553, -153.9803
12800.000000, 86.395, -120.9941
13150.000000, 84.227, -40.4738
13200.000000, 83.962, -28.7241
13400.000000, 82.985, 18.9963
13600.000000, 82.165, 67.8677
13800.000000, 81.525, 117.5792
14000.000000, 81.062, 167.8589
14300.000000, 80.681, -115.8668
14500.000000, 80.653, -64.7172
14750.000000, 80.871, -1.4084
