* Measurement data measured by REW V5.20.13
* Source: Headset (DS by VECLAN.COM), MICROPHONE (Master Volume), L, volume: 0.720. Timing signal peak level -14.9 dBFS, measurement signal peak level -13.8 dBFS
* Format: 4M Log Swept Sine, 1 sweep at -12.0 dBFS using an acoustic timing reference
* Dated: Nov 25, 2023 2:26:22 AM
* REW Settings:
*  C-weighting compensation: Off
*  Target level: 75.0 dB
* Note: ; Apple + Abigail Delay -0.0655 ms (-22 mm, -0.88 in) using estimated IR delay relative to Acoustic reference played from HEADPHONE L with no timing offset Clock adjustment: -0.3 ppm
* Measurement: Simgot EW200 S2 W1 L
* Smoothing: 1/24 octave
* Frequency Step: 1/48 octave
* Start Frequency: 1.000 Hz
*
* Freq(Hz) SPL(dB) Phase(degrees)
1.000000 66.582 -11.4699
1.015000 67.038 -12.2684
1.030000 67.478 -13.0530
1.044000 67.871 -13.7703
1.060000 68.298 -14.5696
1.075000 68.672 -15.2963
1.090000 69.018 -15.9985
1.106000 69.355 -16.7201
1.120000 69.637 -17.3426
1.138000 69.986 -18.1350
1.150000 70.211 -18.6582
1.172000 70.606 -19.6065
1.180000 70.745 -19.9477
1.206000 71.180 -21.0435
1.220000 71.404 -21.6248
1.241000 71.727 -22.4851
1.250000 71.861 -22.8494
1.265000 72.079 -23.4507
1.280000 72.290 -24.0444
1.315000 72.760 -25.3997
1.320000 72.825 -25.5898
1.340000 73.078 -26.3412
1.360000 73.324 -27.0780
1.380000 73.563 -27.7998
1.400000 73.795 -28.5064
1.430000 74.135 -29.5369
1.450000 74.357 -30.2039
1.475000 74.630 -31.0141
1.500000 74.884 -31.7949
1.525000 75.121 -32.5470
1.550000 75.340 -33.2720
1.575000 75.544 -33.9716
1.600000 75.735 -34.6475
1.625000 75.915 -35.3014
1.650000 76.086 -35.9349
1.675000 76.249 -36.5497
1.700000 76.407 -37.1475
1.725000 76.561 -37.7300
1.750000 76.713 -38.2987
1.775000 76.865 -38.8555
1.800000 77.020 -39.4020
1.825000 77.178 -39.9398
1.850000 77.339 -40.4654
1.875000 77.494 -40.9683
1.900000 77.646 -41.4501
1.925000 77.793 -41.9128
1.950000 77.936 -42.3584
1.975000 78.077 -42.7891
2.000000 78.214 -43.2067
2.030000 78.378 -43.6937
2.060000 78.539 -44.1686
2.090000 78.699 -44.6349
2.120000 78.859 -45.0961
2.140000 78.966 -45.4025
2.180000 79.183 -46.0175
2.200000 79.293 -46.3282
2.240000 79.514 -46.9412
2.270000 79.681 -47.3898
2.300000 79.847 -47.8299
2.330000 80.012 -48.2625
2.360000 80.178 -48.6887
2.400000 80.397 -49.2487
2.430000 80.560 -49.6639
2.470000 80.775 -50.2128
2.500000 80.935 -50.6225
2.540000 81.145 -51.1678
2.580000 81.351 -51.7137
2.620000 81.555 -52.2553
2.650000 81.706 -52.6579
2.690000 81.905 -53.1905
2.720000 82.053 -53.5868
2.760000 82.249 -54.1114
2.800000 82.441 -54.6320
2.850000 82.679 -55.2776
2.900000 82.912 -55.9182
2.950000 83.142 -56.5542
3.000000 83.368 -57.1831
3.040000 83.546 -57.6813
3.070000 83.677 -58.0525
3.110000 83.851 -58.5445
3.150000 84.022 -59.0337
3.200000 84.233 -59.6423
3.250000 84.441 -60.2486
3.300000 84.646 -60.8537
3.350000 84.848 -61.4559
3.400000 85.047 -62.0540
3.450000 85.243 -62.6490
3.500000 85.436 -63.2417
3.550000 85.626 -63.8329
3.600000 85.813 -64.4234
3.650000 85.998 -65.0141
3.700000 86.180 -65.6046
3.750000 86.360 -66.1926
3.820000 86.607 -67.0135
3.870000 86.780 -67.5996
3.950000 87.051 -68.5399
4.000000 87.218 -69.1307
4.060000 87.414 -69.8444
4.120000 87.606 -70.5624
4.180000 87.794 -71.2833
4.250000 88.008 -72.1269
4.310000 88.188 -72.8509
4.370000 88.365 -73.5746
4.440000 88.566 -74.4176
4.500000 88.735 -75.1399
4.550000 88.872 -75.7420
4.620000 89.061 -76.5857
4.680000 89.219 -77.3101
4.750000 89.399 -78.1575
4.820000 89.575 -79.0082
4.870000 89.698 -79.6178
4.940000 89.866 -80.4731
5.000000 90.007 -81.2067
5.080000 90.188 -82.1837
5.150000 90.341 -83.0365
5.220000 90.488 -83.8923
5.300000 90.651 -84.8712
5.380000 90.806 -85.8448
5.450000 90.937 -86.6869
5.520000 91.063 -87.5164
5.600000 91.200 -88.4566
5.700000 91.361 -89.6169
5.800000 91.514 -90.7500
5.900000 91.660 -91.8464
6.000000 91.797 -92.9107
6.080000 91.901 -93.7395
6.150000 91.989 -94.4473
6.220000 92.074 -95.1380
6.300000 92.168 -95.9066
6.400000 92.280 -96.8371
6.500000 92.387 -97.7336
6.600000 92.491 -98.5957
6.700000 92.591 -99.4222
6.800000 92.686 -100.2142
6.900000 92.780 -100.9739
7.000000 92.873 -101.7026
7.100000 92.964 -102.3943
7.200000 93.055 -103.0569
7.300000 93.145 -103.7012
7.400000 93.237 -104.3300
7.500000 93.329 -104.9357
7.620000 93.440 -105.6487
7.750000 93.561 -106.4230
7.880000 93.683 -107.1904
8.000000 93.796 -107.9012
8.120000 93.906 -108.6253
8.250000 94.025 -109.4208
8.380000 94.140 -110.2253
8.500000 94.243 -110.9761
8.620000 94.342 -111.7362
8.750000 94.446 -112.5621
8.850000 94.522 -113.1949
9.000000 94.631 -114.1451
9.120000 94.714 -114.8999
9.250000 94.801 -115.7075
9.380000 94.884 -116.5072
9.500000 94.956 -117.2357
9.620000 95.023 -117.9541
9.750000 95.090 -118.7217
9.880000 95.148 -119.4752
10.000000 95.192 -120.1585
10.150000 95.237 -120.9951
10.300000 95.273 -121.8021
10.440000 95.297 -122.5265
10.600000 95.320 -123.3273
10.750000 95.343 -124.0526
10.900000 95.366 -124.7561
11.060000 95.392 -125.5005
11.200000 95.417 -126.1455
11.380000 95.449 -126.9665
11.500000 95.470 -127.5083
11.720000 95.510 -128.4941
11.800000 95.525 -128.8511
12.060000 95.574 -130.0071
12.200000 95.601 -130.6340
12.410000 95.640 -131.5753
12.500000 95.654 -131.9743
12.650000 95.677 -132.6365
12.800000 95.698 -133.2868
13.150000 95.735 -134.7388
13.200000 95.741 -134.9370
13.400000 95.759 -135.7057
13.600000 95.779 -136.4355
13.800000 95.800 -137.1234
14.000000 95.824 -137.7868
14.300000 95.863 -138.7469
14.500000 95.892 -139.3812
14.750000 95.929 -140.1808
15.000000 95.967 -140.9932
15.250000 96.003 -141.8199
15.500000 96.035 -142.6378
15.750000 96.062 -143.4331
16.000000 96.083 -144.1846
16.250000 96.101 -144.8944
16.500000 96.119 -145.5680
16.750000 96.139 -146.2172
17.000000 96.161 -146.8588
17.250000 96.182 -147.4965
17.500000 96.202 -148.1335
17.750000 96.217 -148.7575
18.000000 96.229 -149.3603
18.250000 96.238 -149.9324
18.500000 96.249 -150.4701
18.750000 96.265 -150.9872
19.000000 96.286 -151.4970
19.250000 96.313 -152.0346
19.500000 96.341 -152.6118
19.750000 96.367 -153.2359
20.000000 96.386 -153.8951
20.299999 96.398 -154.6947
20.600000 96.397 -155.4644
20.900000 96.388 -156.1696
21.200001 96.377 -156.7996
21.400000 96.372 -157.1889
21.799999 96.365 -157.9255
22.000000 96.363 -158.2854
22.400000 96.358 -158.9955
22.700001 96.353 -159.4974
23.000000 96.348 -159.9461
23.299999 96.350 -160.3409
23.600000 96.362 -160.7097
24.000000 96.396 -161.2344
24.299999 96.428 -161.7089
24.700001 96.467 -162.4697
25.000000 96.481 -163.0948
25.400000 96.478 -163.8990
25.799999 96.457 -164.5606
26.200001 96.438 -165.0523
26.500000 96.434 -165.3529
26.900000 96.443 -165.7464
27.200001 96.456 -166.0832
27.600000 96.473 -166.6053
28.000000 96.479 -167.1763
28.500000 96.474 -167.8777
29.000000 96.461 -168.5186
29.500000 96.448 -169.1183
30.000000 96.435 -169.7095
30.400000 96.421 -170.1786
30.700001 96.409 -170.5234
31.100000 96.394 -170.9725
31.500000 96.380 -171.4150
32.000000 96.365 -171.9671
32.500000 96.349 -172.5143
33.000000 96.333 -173.0448
33.500000 96.319 -173.5612
34.000000 96.307 -174.0843
34.500000 96.295 -174.6229
35.000000 96.278 -175.1522
35.500000 96.257 -175.6319
36.000000 96.238 -176.0479
36.500000 96.225 -176.4297
37.000000 96.218 -176.8315
37.500000 96.211 -177.2802
38.200001 96.191 -177.9468
38.700001 96.168 -178.4025
39.500000 96.128 -179.0457
40.000000 96.106 -179.4000
40.599998 96.086 -179.8094
41.200001 96.071 179.7613
41.799999 96.053 179.3146
42.500000 96.029 178.8121
43.099998 96.008 178.4067
43.700001 95.985 178.0106
44.400002 95.955 177.5652
45.000000 95.926 177.2119
45.500000 95.902 176.9322
46.200001 95.870 176.5428
46.799999 95.844 176.2007
47.500000 95.816 175.7794
48.200001 95.790 175.3145
48.700001 95.768 174.9638
49.400002 95.730 174.5071
50.000000 95.699 174.1980
50.799999 95.674 173.8493
51.500000 95.661 173.4948
52.200001 95.637 173.1290
53.000000 95.604 172.7897
53.799999 95.569 172.4390
54.500000 95.523 172.1103
55.200001 95.470 171.8137
56.000000 95.408 171.3398
57.000000 95.256 170.7367
58.000000 95.117 170.9700
59.000000 95.148 171.0235
60.000000 95.176 170.2333
60.799999 95.163 169.6190
61.500000 95.155 169.1562
62.200001 95.141 168.7256
63.000000 95.116 168.3522
64.000000 95.088 167.9990
65.000000 95.050 167.6982
66.000000 95.009 167.4777
67.000000 94.970 167.2339
68.000000 94.922 166.9318
69.000000 94.869 166.6524
70.000000 94.826 166.3732
71.000000 94.782 166.0083
72.000000 94.727 165.6683
73.000000 94.672 165.3895
74.000000 94.614 165.1472
75.000000 94.560 164.9456
76.199997 94.507 164.6536
77.500000 94.444 164.2740
78.800003 94.377 164.0211
80.000000 94.334 163.8547
81.199997 94.292 163.6544
82.500000 94.237 163.4460
83.800003 94.173 163.2424
85.000000 94.111 163.0721
86.199997 94.054 162.8837
87.500000 93.995 162.6501
88.500000 93.953 162.4816
90.000000 93.894 162.2371
91.199997 93.848 162.0524
92.500000 93.799 161.8774
93.800003 93.746 161.7216
95.000000 93.694 161.6085
96.199997 93.644 161.5112
97.500000 93.591 161.3781
98.800003 93.532 161.2283
100.000000 93.474 161.1108
101.500000 93.407 160.9879
103.000000 93.351 160.8466
104.400002 93.295 160.6931
106.000000 93.226 160.5801
107.500000 93.166 160.5130
109.000000 93.108 160.4353
110.599998 93.046 160.3522
112.000000 92.994 160.2671
113.800003 92.925 160.1776
115.000000 92.882 160.1203
117.199997 92.800 159.9604
118.000000 92.766 159.9088
120.599998 92.664 159.8929
122.000000 92.625 159.8893
124.099998 92.561 159.8391
125.000000 92.531 159.8363
126.500000 92.484 159.8431
128.000000 92.438 159.8448
131.500000 92.323 159.8667
132.000000 92.306 159.8734
134.000000 92.240 159.8979
136.000000 92.181 159.9030
138.000000 92.126 159.9250
140.000000 92.080 159.9812
143.000000 92.006 159.9925
145.000000 91.944 160.0414
147.500000 91.870 160.1221
150.000000 91.804 160.2015
152.500000 91.741 160.2411
155.000000 91.672 160.2968
157.500000 91.608 160.4213
160.000000 91.547 160.5489
162.500000 91.485 160.6460
165.000000 91.425 160.7442
167.500000 91.367 160.8650
170.000000 91.302 161.0247
172.500000 91.236 161.1755
175.000000 91.176 161.3132
177.500000 91.120 161.4756
180.000000 91.066 161.6281
182.500000 91.007 161.7299
185.000000 90.948 161.8277
187.500000 90.895 161.9706
190.000000 90.840 162.1674
192.500000 90.782 162.3854
195.000000 90.723 162.5732
197.500000 90.672 162.7314
200.000000 90.631 162.8844
203.000000 90.586 163.0981
206.000000 90.530 163.3232
209.000000 90.467 163.5171
212.000000 90.416 163.7354
214.000000 90.386 163.9075
218.000000 90.326 164.2547
220.000000 90.295 164.4105
224.000000 90.230 164.7089
227.000000 90.182 164.9396
230.000000 90.133 165.1784
233.000000 90.086 165.4297
236.000000 90.044 165.6617
240.000000 89.987 165.9445
243.000000 89.943 166.2112
247.000000 89.891 166.5638
250.000000 89.854 166.8114
254.000000 89.801 167.1696
258.000000 89.751 167.5343
262.000000 89.703 167.8672
265.000000 89.669 168.0966
269.000000 89.630 168.4245
272.000000 89.601 168.6876
276.000000 89.557 169.0266
280.000000 89.515 169.3748
285.000000 89.469 169.8102
290.000000 89.430 170.2125
295.000000 89.395 170.6077
300.000000 89.353 171.0581
304.000000 89.311 171.4379
307.000000 89.283 171.6983
311.000000 89.256 172.0226
315.000000 89.234 172.3420
320.000000 89.208 172.7444
325.000000 89.176 173.1438
330.000000 89.143 173.5536
335.000000 89.111 173.9726
340.000000 89.078 174.4031
345.000000 89.046 174.8273
350.000000 89.017 175.2277
355.000000 88.987 175.6476
360.000000 88.956 176.0879
365.000000 88.932 176.5096
370.000000 88.908 176.9214
375.000000 88.883 177.3346
382.000000 88.852 177.9135
387.000000 88.831 178.3203
395.000000 88.796 178.9639
400.000000 88.772 179.3633
406.000000 88.746 179.8729
412.000000 88.722 -179.6244
418.000000 88.700 -179.1387
425.000000 88.674 -178.5743
431.000000 88.650 -178.0953
437.000000 88.629 -177.6238
444.000000 88.609 -177.0742
450.000000 88.590 -176.6072
455.000000 88.572 -176.2111
462.000000 88.548 -175.6442
468.000000 88.530 -175.1577
475.000000 88.511 -174.6008
482.000000 88.498 -174.0631
487.000000 88.493 -173.6890
494.000000 88.486 -173.1772
500.000000 88.480 -172.7248
508.000000 88.468 -172.0756
515.000000 88.455 -171.4850
522.000000 88.453 -170.9329
530.000000 88.460 -170.3765
538.000000 88.458 -169.7595
545.000000 88.444 -169.1633
552.000000 88.434 -168.6075
560.000000 88.434 -168.0217
570.000000 88.439 -167.2838
580.000000 88.440 -166.5296
590.000000 88.439 -165.7544
600.000000 88.438 -164.9887
608.000000 88.441 -164.3855
615.000000 88.450 -163.8529
622.000000 88.462 -163.3113
630.000000 88.475 -162.6881
640.000000 88.489 -161.9289
650.000000 88.498 -161.1649
660.000000 88.507 -160.3801
670.000000 88.515 -159.6231
680.000000 88.525 -158.8572
690.000000 88.537 -158.1106
700.000000 88.552 -157.3635
710.000000 88.573 -156.5735
720.000000 88.593 -155.7831
730.000000 88.619 -155.0258
740.000000 88.655 -154.2866
750.000000 88.695 -153.5365
762.000000 88.740 -152.6259
775.000000 88.785 -151.6527
788.000000 88.831 -150.6853
800.000000 88.883 -149.8225
812.000000 88.944 -148.9814
825.000000 89.019 -148.0983
838.000000 89.099 -147.2975
850.000000 89.174 -146.6876
862.000000 89.233 -146.2938
875.000000 89.231 -145.9864
885.000000 89.179 -145.4145
900.000000 89.154 -143.7663
912.000000 89.226 -142.3867
925.000000 89.338 -141.2094
938.000000 89.451 -140.2540
950.000000 89.550 -139.4735
962.000000 89.645 -138.7380
975.000000 89.747 -137.9576
988.000000 89.854 -137.2078
1000.000000 89.952 -136.5576
1015.000000 90.063 -135.8298
1030.000000 90.171 -135.1534
1044.000000 90.275 -134.5334
1060.000000 90.399 -133.8523
1075.000000 90.515 -133.2346
1090.000000 90.632 -132.6554
1106.000000 90.766 -132.0842
1120.000000 90.883 -131.6013
1138.000000 91.030 -131.0221
1150.000000 91.127 -130.6490
1172.000000 91.303 -129.9814
1180.000000 91.367 -129.7440
1206.000000 91.570 -129.0229
1220.000000 91.681 -128.6618
1241.000000 91.846 -128.1326
1250.000000 91.916 -127.9025
1265.000000 92.031 -127.5225
1280.000000 92.145 -127.1486
1315.000000 92.413 -126.3212
1320.000000 92.451 -126.2103
1340.000000 92.598 -125.7731
1360.000000 92.726 -125.3415
1380.000000 92.849 -124.9246
1400.000000 92.983 -124.5261
1430.000000 93.192 -123.9613
1450.000000 93.335 -123.6118
1475.000000 93.513 -123.1847
1500.000000 93.689 -122.7885
1525.000000 93.859 -122.4277
1550.000000 94.017 -122.0831
1575.000000 94.171 -121.7511
1600.000000 94.327 -121.4405
1625.000000 94.479 -121.1371
1650.000000 94.632 -120.8247
1675.000000 94.786 -120.5232
1700.000000 94.937 -120.2408
1725.000000 95.084 -119.9650
1750.000000 95.235 -119.7116
1775.000000 95.390 -119.4785
1800.000000 95.546 -119.2648
1825.000000 95.704 -119.0861
1850.000000 95.861 -118.9345
1875.000000 96.015 -118.8007
1900.000000 96.169 -118.6924
1925.000000 96.322 -118.6136
1950.000000 96.476 -118.5639
1975.000000 96.634 -118.5378
2000.000000 96.790 -118.5458
2030.000000 96.964 -118.6064
2060.000000 97.130 -118.6872
2090.000000 97.293 -118.7856
2120.000000 97.454 -118.9066
2140.000000 97.560 -118.9939
2180.000000 97.768 -119.1447
2200.000000 97.871 -119.1955
2240.000000 98.089 -119.2523
2270.000000 98.273 -119.3162
2300.000000 98.472 -119.4947
2330.000000 98.683 -119.8703
2360.000000 98.892 -120.4744
2400.000000 99.145 -121.5629
2430.000000 99.306 -122.5072
2470.000000 99.478 -123.8329
2500.000000 99.578 -124.8204
2540.000000 99.682 -126.1166
2580.000000 99.766 -127.3770
2620.000000 99.835 -128.5940
2650.000000 99.876 -129.4757
2690.000000 99.918 -130.5925
2720.000000 99.935 -131.3814
2760.000000 99.939 -132.3755
2800.000000 99.928 -133.3120
2850.000000 99.903 -134.4083
2900.000000 99.867 -135.4089
2950.000000 99.819 -136.3043
3000.000000 99.759 -137.0909
3040.000000 99.700 -137.6681
3070.000000 99.650 -138.0577
3110.000000 99.580 -138.4991
3150.000000 99.510 -138.8539
3200.000000 99.426 -139.1959
3250.000000 99.349 -139.4526
3300.000000 99.276 -139.6388
3350.000000 99.204 -139.7720
3400.000000 99.134 -139.8711
3450.000000 99.066 -139.9457
3500.000000 98.997 -139.9923
3550.000000 98.925 -139.9865
3600.000000 98.847 -139.8778
3650.000000 98.768 -139.6283
3700.000000 98.698 -139.2265
3750.000000 98.644 -138.6858
3820.000000 98.608 -137.8183
3870.000000 98.613 -137.2304
3950.000000 98.655 -136.4436
4000.000000 98.695 -136.0730
4060.000000 98.752 -135.7506
4120.000000 98.810 -135.5353
4180.000000 98.872 -135.4221
4250.000000 98.945 -135.4053
4310.000000 99.004 -135.4947
4370.000000 99.056 -135.7009
4440.000000 99.109 -136.1159
4500.000000 99.142 -136.6192
4550.000000 99.152 -137.1244
4620.000000 99.139 -137.9347
4680.000000 99.110 -138.7068
4750.000000 99.053 -139.6623
4820.000000 98.964 -140.6431
4870.000000 98.881 -141.3416
4940.000000 98.739 -142.3065
5000.000000 98.593 -143.0905
5080.000000 98.358 -143.9962
5150.000000 98.123 -144.6505
5220.000000 97.868 -145.1516
5300.000000 97.560 -145.4937
5380.000000 97.241 -145.5705
5450.000000 96.960 -145.4232
5520.000000 96.678 -145.0851
5600.000000 96.358 -144.4798
5700.000000 95.964 -143.4222
5800.000000 95.579 -142.0433
5900.000000 95.212 -140.2276
6000.000000 94.901 -137.8709
6080.000000 94.729 -135.8818
6150.000000 94.613 -134.3028
6220.000000 94.503 -132.8274
6300.000000 94.375 -131.1226
6400.000000 94.236 -128.8749
6500.000000 94.132 -126.5207
6600.000000 94.067 -124.0939
6700.000000 94.045 -121.6165
6800.000000 94.071 -119.1077
6900.000000 94.170 -116.5979
7000.000000 94.355 -114.1523
7100.000000 94.620 -111.8686
7200.000000 94.964 -109.8700
7300.000000 95.381 -108.3054
7400.000000 95.859 -107.3155
7500.000000 96.387 -107.0437
7620.000000 97.076 -107.9126
7750.000000 97.815 -110.6679
7880.000000 98.347 -115.5505
8000.000000 98.542 -121.7636
8120.000000 98.365 -128.7952
8250.000000 97.729 -135.8634
8380.000000 96.728 -140.9826
8500.000000 95.623 -143.5010
8620.000000 94.468 -144.0707
8750.000000 93.259 -142.9674
8850.000000 92.395 -141.2372
9000.000000 91.219 -137.6478
9120.000000 90.385 -134.1523
9250.000000 89.589 -129.9150
9380.000000 88.895 -125.3216
9500.000000 88.334 -120.8408
9620.000000 87.847 -116.1930
9750.000000 87.400 -111.0033
9880.000000 87.036 -105.6781
10000.000000 86.771 -100.6940
10150.000000 86.531 -94.4119
10300.000000 86.380 -88.0735
10440.000000 86.316 -82.1129
10600.000000 86.350 -75.2692
10750.000000 86.483 -68.8292
10900.000000 86.722 -62.3632
11060.000000 87.132 -55.4310
11200.000000 87.676 -49.3689
11380.000000 88.718 -42.0462
11500.000000 89.631 -38.0147
11720.000000 91.675 -33.4015
11800.000000 92.538 -32.7601
12060.000000 95.707 -36.9904
12200.000000 97.277 -45.9103
12410.000000 98.380 -69.3331
12500.000000 98.190 -80.7973
12650.000000 97.020 -97.0418
12800.000000 95.114 -107.1809
13150.000000 90.034 -111.6782
13200.000000 89.354 -110.8639
13400.000000 86.868 -104.9660
13600.000000 84.889 -95.8224
13800.000000 83.559 -85.2166
14000.000000 82.831 -74.7821
14300.000000 82.481 -60.9614
14500.000000 82.566 -53.1197
14750.000000 82.952 -44.9510
15000.000000 83.597 -38.9053
15250.000000 84.439 -35.5610
15500.000000 85.360 -35.5102
15750.000000 86.127 -38.8689
16000.000000 86.511 -44.8006
16250.000000 86.463 -51.9452
16500.000000 86.031 -59.6896
16750.000000 85.144 -68.3447
17000.000000 83.423 -74.5536
17250.000000 81.080 -71.0843
17500.000000 79.836 -62.9269
17750.000000 79.706 -61.3691
18000.000000 79.221 -65.4093
18250.000000 78.066 -69.9682
18500.000000 76.395 -72.5712
18750.000000 74.389 -72.4053
19000.000000 72.220 -69.3582
19250.000000 70.013 -63.7400
19500.000000 67.836 -55.9531
19750.000000 65.755 -46.2887
20000.000000 63.794 -34.9376
20300.000000 61.680 -19.4376
20600.000000 60.060 -2.3738
20900.000000 59.148 15.4826
21200.000000 59.163 31.9348
21400.000000 59.634 40.1912
21800.000000 60.770 43.3905
22000.000000 60.955 27.7305
22400.000000 59.629 37.3659
22700.000000 56.381 -25.9070
23000.000000 50.762 -152.8848
23300.000000 44.339 14.3516
23600.000000 40.885 -103.5039
24000.000000 40.201 -140.0195
