* Measurement data measured by REW V5.20.13
* Source: Headset (DS by VECLAN.COM), MICROPHONE (Master Volume), L, volume: 0.710. Timing signal peak level -15.7 dBFS, measurement signal peak level -15.4 dBFS
* Format: 2M Log Swept Sine, 1 sweep at -12.0 dBFS using an acoustic timing reference
* Dated: Nov 12, 2023 5:13:23 PM
* REW Settings:
*  C-weighting compensation: Off
*  Target level: 75.0 dB
* Note: ; Delay 0.0065 ms (2.2 mm, 0.09 in) using estimated IR delay relative to Acoustic reference played from HEADPHONE L with no timing offset
* Measurement: Simgot EM6L Clarion L
* Smoothing: 1/24 octave
* Frequency Step: 1/48 octave
* Start Frequency: 1.000 Hz
*
* Freq(Hz) SPL(dB) Phase(degrees)
1.000000 63.570 -3.6501
1.015000 64.269 -5.6968
1.030000 64.940 -7.6892
1.044000 65.534 -9.4917
1.060000 66.168 -11.4747
1.075000 66.714 -13.2496
1.090000 67.206 -14.9338
1.106000 67.669 -16.6301
1.120000 68.049 -18.0805
1.138000 68.513 -19.9134
1.150000 68.808 -21.1146
1.172000 69.320 -23.2722
1.180000 69.498 -24.0420
1.206000 70.045 -26.4869
1.220000 70.322 -27.7663
1.241000 70.716 -29.6344
1.250000 70.878 -30.4158
1.265000 71.138 -31.6918
1.280000 71.389 -32.9340
1.315000 71.938 -35.6961
1.320000 72.013 -36.0746
1.340000 72.305 -37.5469
1.360000 72.587 -38.9510
1.380000 72.861 -40.2847
1.400000 73.130 -41.5458
1.430000 73.527 -43.2967
1.450000 73.790 -44.3668
1.475000 74.120 -45.5854
1.500000 74.429 -46.6222
1.525000 74.714 -47.4829
1.550000 74.979 -48.1873
1.575000 75.224 -48.7553
1.600000 75.453 -49.2068
1.625000 75.667 -49.5617
1.650000 75.870 -49.8398
1.675000 76.063 -50.0609
1.700000 76.250 -50.2450
1.725000 76.432 -50.4120
1.750000 76.611 -50.5816
1.775000 76.791 -50.7738
1.800000 76.973 -51.0085
1.825000 77.160 -51.3055
1.850000 77.351 -51.6555
1.875000 77.535 -51.9988
1.900000 77.714 -52.3325
1.925000 77.888 -52.6565
1.950000 78.057 -52.9706
1.975000 78.222 -53.2746
2.000000 78.385 -53.5686
2.030000 78.576 -53.9077
2.060000 78.765 -54.2317
2.090000 78.951 -54.5405
2.120000 79.138 -54.8338
2.140000 79.262 -55.0206
2.180000 79.512 -55.3728
2.200000 79.639 -55.5381
2.240000 79.892 -55.8307
2.270000 80.081 -56.0169
2.300000 80.269 -56.1798
2.330000 80.455 -56.3244
2.360000 80.641 -56.4552
2.400000 80.886 -56.6164
2.430000 81.068 -56.7337
2.470000 81.309 -56.8942
2.500000 81.488 -57.0238
2.540000 81.724 -57.2180
2.580000 81.956 -57.4433
2.620000 82.187 -57.6767
2.650000 82.357 -57.8539
2.690000 82.583 -58.0947
2.720000 82.750 -58.2799
2.760000 82.971 -58.5348
2.800000 83.189 -58.8007
2.850000 83.458 -59.1518
2.900000 83.723 -59.5275
2.950000 83.983 -59.9324
3.000000 84.239 -60.3690
3.040000 84.441 -60.7380
3.070000 84.591 -61.0244
3.110000 84.789 -61.4167
3.150000 84.983 -61.8183
3.200000 85.222 -62.3289
3.250000 85.455 -62.8440
3.300000 85.683 -63.3577
3.350000 85.906 -63.8704
3.400000 86.124 -64.3870
3.450000 86.337 -64.9099
3.500000 86.545 -65.4418
3.550000 86.748 -65.9853
3.600000 86.945 -66.5429
3.650000 87.138 -67.1173
3.700000 87.326 -67.7140
3.750000 87.508 -68.3376
3.820000 87.754 -69.2409
3.870000 87.924 -69.8969
3.950000 88.187 -70.9428
4.000000 88.346 -71.5818
4.060000 88.531 -72.3237
4.120000 88.709 -73.0512
4.180000 88.880 -73.7690
4.250000 89.073 -74.5971
4.310000 89.232 -75.3018
4.370000 89.388 -76.0041
4.440000 89.563 -76.8245
4.500000 89.708 -77.5299
4.550000 89.824 -78.1161
4.620000 89.983 -78.9287
4.680000 90.115 -79.6125
4.750000 90.266 -80.3890
4.820000 90.413 -81.1379
4.870000 90.516 -81.6581
4.940000 90.656 -82.3705
5.000000 90.773 -82.9701
5.080000 90.927 -83.7602
5.150000 91.059 -84.4480
5.220000 91.189 -85.1265
5.300000 91.335 -85.8903
5.380000 91.478 -86.6462
5.450000 91.601 -87.3049
5.520000 91.722 -87.9635
5.600000 91.859 -88.7108
5.700000 92.027 -89.6391
5.800000 92.190 -90.5678
5.900000 92.347 -91.5037
6.000000 92.501 -92.4464
6.080000 92.620 -93.2025
6.150000 92.721 -93.8637
6.220000 92.818 -94.5231
6.300000 92.925 -95.2788
6.400000 93.052 -96.2279
6.500000 93.174 -97.1665
6.600000 93.288 -98.0785
6.700000 93.396 -98.9684
6.800000 93.496 -99.8382
6.900000 93.592 -100.6753
7.000000 93.684 -101.4689
7.100000 93.771 -102.2249
7.200000 93.855 -102.9430
7.300000 93.938 -103.6201
7.400000 94.023 -104.2501
7.500000 94.106 -104.8326
7.620000 94.209 -105.4894
7.750000 94.328 -106.1695
7.880000 94.453 -106.7983
8.000000 94.575 -107.3684
8.120000 94.703 -107.9610
8.250000 94.851 -108.6062
8.380000 95.003 -109.2873
8.500000 95.144 -109.9757
8.620000 95.289 -110.7094
8.750000 95.444 -111.5589
8.850000 95.557 -112.2567
9.000000 95.724 -113.3781
9.120000 95.849 -114.3153
9.250000 95.974 -115.3593
9.380000 96.089 -116.4418
9.500000 96.184 -117.4415
9.620000 96.265 -118.4293
9.750000 96.340 -119.4972
9.880000 96.399 -120.5277
10.000000 96.439 -121.4354
10.150000 96.470 -122.5198
10.300000 96.490 -123.5216
10.440000 96.496 -124.3759
10.600000 96.498 -125.2773
10.750000 96.504 -126.0532
10.900000 96.511 -126.7687
11.060000 96.524 -127.5094
11.200000 96.541 -128.1328
11.380000 96.565 -128.9238
11.500000 96.583 -129.4499
11.720000 96.618 -130.4105
11.800000 96.630 -130.7617
12.060000 96.670 -131.9020
12.200000 96.690 -132.5103
12.410000 96.716 -133.4087
12.500000 96.725 -133.7781
12.650000 96.738 -134.3769
12.800000 96.748 -134.9476
13.150000 96.768 -136.1506
13.200000 96.772 -136.3089
13.400000 96.786 -136.9059
13.600000 96.805 -137.4577
13.800000 96.830 -137.9656
14.000000 96.862 -138.4535
14.300000 96.921 -139.1656
14.500000 96.969 -139.6512
14.750000 97.036 -140.3079
15.000000 97.110 -141.0397
15.250000 97.185 -141.8836
15.500000 97.249 -142.8212
15.750000 97.295 -143.8276
16.000000 97.314 -144.8430
16.250000 97.309 -145.7750
16.500000 97.284 -146.5704
16.750000 97.251 -147.1561
17.000000 97.230 -147.5395
17.250000 97.232 -147.7760
17.500000 97.269 -147.9461
17.750000 97.339 -148.2183
18.000000 97.429 -148.6668
18.250000 97.527 -149.3719
18.500000 97.606 -150.3201
18.750000 97.655 -151.4240
19.000000 97.664 -152.5993
19.250000 97.635 -153.6705
19.500000 97.580 -154.5535
19.750000 97.512 -155.1877
20.000000 97.456 -155.5699
20.299999 97.424 -155.8379
20.600000 97.440 -156.0704
20.900000 97.495 -156.4542
21.200001 97.563 -157.1046
21.400000 97.599 -157.6684
21.799999 97.638 -158.9603
22.000000 97.637 -159.6023
22.400000 97.611 -160.7159
22.700001 97.589 -161.3728
23.000000 97.581 -161.9379
23.299999 97.588 -162.5117
23.600000 97.599 -163.1473
24.000000 97.602 -164.0800
24.299999 97.586 -164.7498
24.700001 97.546 -165.4550
25.000000 97.520 -165.8017
25.400000 97.512 -166.1001
25.799999 97.542 -166.4182
26.200001 97.588 -166.9178
26.500000 97.615 -167.4068
26.900000 97.631 -168.1129
27.200001 97.630 -168.6113
27.600000 97.625 -169.2125
28.000000 97.623 -169.8179
28.500000 97.609 -170.6898
29.000000 97.555 -171.5671
29.500000 97.470 -172.1609
30.000000 97.414 -172.4191
30.400000 97.415 -172.6158
30.700001 97.435 -172.8983
31.100000 97.462 -173.5065
31.500000 97.465 -174.2699
32.000000 97.439 -175.1756
32.500000 97.416 -175.9435
33.000000 97.411 -176.8064
33.500000 97.383 -177.9058
34.000000 97.289 -178.9343
34.500000 97.154 -179.3813
35.000000 97.068 -179.1562
35.500000 97.100 -178.7943
36.000000 97.211 -178.9405
36.500000 97.305 -179.7263
37.000000 97.319 179.2723
37.500000 97.273 178.5387
38.200001 97.227 178.1073
38.700001 97.251 177.8160
39.500000 97.297 176.6618
40.000000 97.262 175.7087
40.599998 97.150 174.8617
41.200001 97.036 174.5771
41.799999 96.981 174.5390
42.500000 96.974 174.2618
43.099998 96.959 173.8165
43.700001 96.934 173.3875
44.400002 96.910 172.8647
45.000000 96.880 172.2961
45.500000 96.834 171.8520
46.200001 96.769 171.4532
46.799999 96.752 171.1317
47.500000 96.744 170.3839
48.200001 96.672 169.4614
48.700001 96.588 169.0479
49.400002 96.498 168.9142
50.000000 96.482 168.8471
50.799999 96.488 168.4339
51.500000 96.470 168.0113
52.200001 96.461 167.7062
53.000000 96.471 167.1812
53.799999 96.432 166.3809
54.500000 96.332 165.8890
55.200001 96.229 165.8320
56.000000 96.170 165.9892
57.000000 96.165 165.8375
58.000000 96.150 165.2089
59.000000 96.090 164.4783
60.000000 96.007 163.9727
60.799999 95.950 163.8043
61.500000 95.925 163.8108
62.200001 95.936 163.8340
63.000000 95.976 163.6334
64.000000 95.988 163.0329
65.000000 95.939 162.5156
66.000000 95.870 162.1730
67.000000 95.785 161.9099
68.000000 95.691 161.8022
69.000000 95.613 161.7466
70.000000 95.544 161.5961
71.000000 95.475 161.3541
72.000000 95.401 160.9838
73.000000 95.306 160.5553
74.000000 95.209 160.2532
75.000000 95.143 159.9294
76.199997 95.071 159.3763
77.500000 95.012 158.9123
78.800003 94.985 158.3447
80.000000 94.938 157.9458
81.199997 94.902 157.7478
82.500000 94.847 157.5174
83.800003 94.766 157.4005
85.000000 94.695 157.3301
86.199997 94.644 157.0820
87.500000 94.576 156.5565
88.500000 94.511 156.2095
90.000000 94.450 155.9170
91.199997 94.422 155.5562
92.500000 94.349 155.2621
93.800003 94.281 155.2711
95.000000 94.235 155.2523
96.199997 94.187 155.1570
97.500000 94.128 155.0009
98.800003 94.061 154.8842
100.000000 93.996 154.8788
101.500000 93.924 154.9778
103.000000 93.855 155.0195
104.400002 93.782 154.9771
106.000000 93.699 154.8402
107.500000 93.632 154.6250
109.000000 93.579 154.3862
110.599998 93.528 154.1404
112.000000 93.476 153.9891
113.800003 93.401 153.9064
115.000000 93.352 153.8572
117.199997 93.265 153.7187
118.000000 93.238 153.6327
120.599998 93.122 153.4280
122.000000 93.072 153.5712
124.099998 93.033 153.6207
125.000000 93.008 153.5746
126.500000 92.957 153.5043
128.000000 92.900 153.4091
131.500000 92.759 153.4552
132.000000 92.747 153.4641
134.000000 92.701 153.3792
136.000000 92.640 153.3127
138.000000 92.576 153.4074
140.000000 92.520 153.5206
143.000000 92.447 153.5008
145.000000 92.412 153.3641
147.500000 92.380 153.1973
150.000000 92.329 153.1535
152.500000 92.268 153.2268
155.000000 92.210 153.2480
157.500000 92.155 153.3007
160.000000 92.093 153.2357
162.500000 92.008 152.9969
165.000000 91.932 152.9444
167.500000 91.895 153.0740
170.000000 91.848 153.1734
172.500000 91.773 153.1855
175.000000 91.681 153.3039
177.500000 91.604 153.6207
180.000000 91.563 153.9147
182.500000 91.570 154.2470
185.000000 91.584 154.8483
187.500000 91.515 155.4617
190.000000 91.336 155.4147
192.500000 91.164 154.6371
195.000000 91.099 153.7577
197.500000 91.095 153.6765
200.000000 91.143 154.2016
203.000000 91.185 153.9045
206.000000 91.083 153.4318
209.000000 91.018 153.5578
212.000000 90.939 153.4539
214.000000 90.862 153.6194
218.000000 90.811 154.2515
220.000000 90.802 154.3680
224.000000 90.741 154.5706
227.000000 90.694 154.8326
230.000000 90.666 155.0312
233.000000 90.647 155.0947
236.000000 90.623 155.0567
240.000000 90.564 155.0526
243.000000 90.509 155.1927
247.000000 90.439 155.4329
250.000000 90.387 155.4827
254.000000 90.320 155.3935
258.000000 90.284 155.2320
262.000000 90.287 155.4423
265.000000 90.267 156.0333
269.000000 90.150 156.6807
272.000000 90.075 156.7043
276.000000 90.056 156.6203
280.000000 90.028 156.7855
285.000000 89.976 156.9877
290.000000 89.928 157.1682
295.000000 89.898 157.2089
300.000000 89.856 157.5643
304.000000 89.797 157.7304
307.000000 89.771 157.7888
311.000000 89.739 158.0021
315.000000 89.704 158.2252
320.000000 89.665 158.3871
325.000000 89.605 158.5468
330.000000 89.559 158.6992
335.000000 89.537 158.9167
340.000000 89.503 159.0825
345.000000 89.462 159.2631
350.000000 89.419 159.4955
355.000000 89.383 159.7602
360.000000 89.352 159.9649
365.000000 89.320 160.1374
370.000000 89.278 160.3050
375.000000 89.244 160.4202
382.000000 89.227 160.6897
387.000000 89.192 161.0023
395.000000 89.130 161.2766
400.000000 89.104 161.4186
406.000000 89.067 161.6305
412.000000 89.037 161.8560
418.000000 89.000 162.0809
425.000000 88.976 162.4849
431.000000 88.944 162.7084
437.000000 88.874 162.9831
444.000000 88.857 163.4468
450.000000 88.884 163.4253
455.000000 88.862 163.2668
462.000000 88.758 163.4234
468.000000 88.696 163.9893
475.000000 88.685 164.4195
482.000000 88.668 164.6169
487.000000 88.651 164.7516
494.000000 88.636 165.0696
500.000000 88.617 165.3743
508.000000 88.596 165.6614
515.000000 88.579 165.9246
522.000000 88.549 166.2146
530.000000 88.529 166.4389
538.000000 88.505 166.7413
545.000000 88.501 167.2954
552.000000 88.540 168.1722
560.000000 88.516 169.3227
570.000000 88.297 169.3080
580.000000 88.261 168.2911
590.000000 88.403 167.7350
600.000000 88.482 167.8295
608.000000 88.449 168.1999
615.000000 88.419 168.8305
622.000000 88.389 169.4347
630.000000 88.336 169.8741
640.000000 88.282 170.2032
650.000000 88.253 170.4843
660.000000 88.220 170.7058
670.000000 88.189 170.9739
680.000000 88.152 171.3762
690.000000 88.117 171.8237
700.000000 88.084 172.2998
710.000000 88.054 172.8553
720.000000 88.027 173.4254
730.000000 88.011 173.9869
740.000000 88.003 174.5521
750.000000 87.989 175.2139
762.000000 87.996 176.0475
775.000000 88.015 176.7736
788.000000 88.029 177.3651
800.000000 88.053 177.9589
812.000000 88.083 178.5784
825.000000 88.116 179.2273
838.000000 88.152 179.8839
850.000000 88.190 -179.5455
862.000000 88.233 -179.0348
875.000000 88.286 -178.4805
885.000000 88.327 -178.0366
900.000000 88.389 -177.4027
912.000000 88.444 -176.9527
925.000000 88.509 -176.4818
938.000000 88.575 -176.0433
950.000000 88.632 -175.6397
962.000000 88.689 -175.2414
975.000000 88.754 -174.8534
988.000000 88.821 -174.5079
1000.000000 88.884 -174.2106
1015.000000 88.967 -173.8614
1030.000000 89.045 -173.5500
1044.000000 89.116 -173.3178
1060.000000 89.208 -173.1216
1075.000000 89.298 -172.9066
1090.000000 89.388 -172.7078
1106.000000 89.492 -172.5871
1120.000000 89.579 -172.5204
1138.000000 89.688 -172.4398
1150.000000 89.763 -172.4045
1172.000000 89.897 -172.3664
1180.000000 89.945 -172.3659
1206.000000 90.094 -172.4051
1220.000000 90.170 -172.4273
1241.000000 90.287 -172.4632
1250.000000 90.337 -172.4823
1265.000000 90.417 -172.5164
1280.000000 90.493 -172.5613
1315.000000 90.675 -172.6926
1320.000000 90.701 -172.7005
1340.000000 90.792 -172.7030
1360.000000 90.866 -172.7476
1380.000000 90.939 -172.8375
1400.000000 91.019 -172.8716
1430.000000 91.142 -172.8999
1450.000000 91.226 -172.9352
1475.000000 91.336 -172.9501
1500.000000 91.450 -172.9672
1525.000000 91.557 -172.9788
1550.000000 91.654 -172.9808
1575.000000 91.748 -172.9858
1600.000000 91.848 -172.9504
1625.000000 91.953 -172.9279
1650.000000 92.064 -172.9735
1675.000000 92.178 -173.0239
1700.000000 92.286 -173.0692
1725.000000 92.396 -173.1103
1750.000000 92.509 -173.1586
1775.000000 92.621 -173.2011
1800.000000 92.737 -173.2766
1825.000000 92.856 -173.3622
1850.000000 92.978 -173.4643
1875.000000 93.102 -173.5997
1900.000000 93.225 -173.7283
1925.000000 93.351 -173.8771
1950.000000 93.483 -174.0648
1975.000000 93.615 -174.2613
2000.000000 93.745 -174.4545
2030.000000 93.904 -174.7173
2060.000000 94.068 -175.0311
2090.000000 94.233 -175.3691
2120.000000 94.399 -175.7405
2140.000000 94.509 -176.0081
2180.000000 94.732 -176.5854
2200.000000 94.842 -176.9057
2240.000000 95.059 -177.5957
2270.000000 95.219 -178.1566
2300.000000 95.380 -178.7607
2330.000000 95.545 -179.4115
2360.000000 95.709 179.8889
2400.000000 95.924 178.8956
2430.000000 96.083 178.0994
2470.000000 96.288 176.9743
2500.000000 96.438 176.0804
2540.000000 96.634 174.8126
2580.000000 96.819 173.4893
2620.000000 96.996 172.0911
2650.000000 97.121 171.0035
2690.000000 97.273 169.5140
2720.000000 97.375 168.3739
2760.000000 97.503 166.8170
2800.000000 97.622 165.2198
2850.000000 97.749 163.2110
2900.000000 97.849 161.1831
2950.000000 97.923 159.1530
3000.000000 97.971 157.1393
3040.000000 97.992 155.5653
3070.000000 98.000 154.4021
3110.000000 98.001 152.8907
3150.000000 97.990 151.4349
3200.000000 97.960 149.6965
3250.000000 97.916 148.0715
3300.000000 97.867 146.5446
3350.000000 97.805 145.1506
3400.000000 97.736 143.8772
3450.000000 97.672 142.7005
3500.000000 97.616 141.6161
3550.000000 97.559 140.6196
3600.000000 97.501 139.7177
3650.000000 97.444 138.8983
3700.000000 97.393 138.1604
3750.000000 97.345 137.4915
3820.000000 97.282 136.6603
3870.000000 97.242 136.1263
3950.000000 97.188 135.3716
4000.000000 97.159 134.9582
4060.000000 97.134 134.4850
4120.000000 97.118 134.0237
4180.000000 97.109 133.5483
4250.000000 97.099 132.9777
4310.000000 97.090 132.4505
4370.000000 97.071 131.9018
4440.000000 97.026 131.2563
4500.000000 96.968 130.7297
4550.000000 96.911 130.3286
4620.000000 96.826 129.8462
4680.000000 96.747 129.5453
4750.000000 96.650 129.3507
4820.000000 96.554 129.3269
4870.000000 96.489 129.4106
4940.000000 96.411 129.6406
5000.000000 96.355 129.9266
5080.000000 96.300 130.3967
5150.000000 96.274 130.8438
5220.000000 96.265 131.3104
5300.000000 96.270 131.8536
5380.000000 96.286 132.4131
5450.000000 96.313 132.9016
5520.000000 96.354 133.3816
5600.000000 96.412 133.9201
5700.000000 96.502 134.5458
5800.000000 96.609 135.0858
5900.000000 96.732 135.5135
6000.000000 96.864 135.8354
6080.000000 96.974 136.0175
6150.000000 97.075 136.1167
6220.000000 97.183 136.1386
6300.000000 97.307 136.0441
6400.000000 97.442 135.8162
6500.000000 97.582 135.6606
6600.000000 97.758 135.2048
6700.000000 97.900 134.2203
6800.000000 97.977 133.1493
6900.000000 98.060 132.1081
7000.000000 98.151 130.8727
7100.000000 98.203 129.5008
7200.000000 98.203 128.1259
7300.000000 98.153 126.8220
7400.000000 98.063 125.6127
7500.000000 97.935 124.5474
7620.000000 97.751 123.5318
7750.000000 97.536 122.8124
7880.000000 97.249 122.5317
8000.000000 96.953 122.5798
8120.000000 96.657 122.6504
8250.000000 96.314 122.6878
8380.000000 95.941 122.9014
8500.000000 95.573 123.2415
8620.000000 95.173 123.7115
8750.000000 94.698 124.4237
8850.000000 94.300 125.1754
9000.000000 93.660 126.7343
9120.000000 93.125 128.4072
9250.000000 92.538 130.6794
9380.000000 91.959 133.4299
9500.000000 91.443 136.3756
9620.000000 90.954 139.6791
9750.000000 90.465 143.6172
9880.000000 90.032 147.8715
10000.000000 89.682 152.0317
10150.000000 89.311 157.4639
10300.000000 89.016 163.0479
10440.000000 88.805 168.3368
10600.000000 88.637 174.4247
10750.000000 88.553 -179.8913
10900.000000 88.539 -174.2863
11060.000000 88.607 -168.4548
11200.000000 88.739 -163.6006
11380.000000 88.986 -157.8738
11500.000000 89.185 -154.4256
11720.000000 89.598 -148.9829
11800.000000 89.755 -147.3111
12060.000000 90.235 -143.0619
12200.000000 90.439 -141.4840
12410.000000 90.622 -139.8320
12500.000000 90.644 -139.2850
12650.000000 90.602 -138.4253
12800.000000 90.467 -137.4605
13150.000000 89.931 -133.9904
13200.000000 89.847 -133.3190
13400.000000 89.518 -130.2033
13600.000000 89.231 -126.5681
13800.000000 89.015 -122.6898
14000.000000 88.888 -118.8990
14300.000000 88.824 -113.9028
14500.000000 88.814 -111.1727
14750.000000 88.779 -108.4795
15000.000000 88.673 -106.5093
15250.000000 88.479 -104.9535
15500.000000 88.257 -103.6190
15750.000000 88.050 -102.6386
16000.000000 87.816 -102.4498
16250.000000 87.461 -103.5569
16500.000000 86.831 -106.0254
16750.000000 85.759 -108.9439
17000.000000 84.145 -110.3449
17250.000000 82.058 -107.9229
17500.000000 79.798 -100.3406
17750.000000 77.908 -89.5057
18000.000000 76.546 -79.2574
18250.000000 75.268 -69.7722
18500.000000 73.944 -58.9680
18750.000000 72.838 -46.0307
19000.000000 72.139 -31.1437
19250.000000 71.748 -14.7356
19500.000000 71.502 2.5556
19750.000000 71.415 20.0540
20000.000000 71.554 37.1692
20300.000000 72.195 56.5445
20600.000000 73.469 73.9727
20900.000000 75.219 87.9994
21200.000000 77.078 96.9409
21400.000000 78.108 99.3941
21800.000000 78.692 82.8806
22000.000000 77.742 12.9583
22400.000000 72.871 11.0812
22700.000000 67.177 110.7432
23000.000000 60.343 46.8105
23300.000000 53.569 97.1523
23600.000000 51.222 -47.4688
24000.000000 52.443 -156.3828
