* Measurement data measured by REW V5.20.13
* Source: Headset (DS by VECLAN.COM), MICROPHONE (Master Volume), L, volume: 0.710. Timing signal peak level -15.5 dBFS, measurement signal peak level -12.0 dBFS
* Format: 2M Log Swept Sine, 1 sweep at -12.0 dBFS using an acoustic timing reference
* Dated: Nov 12, 2023 4:55:17 PM
* REW Settings:
*  C-weighting compensation: Off
*  Target level: 75.0 dB
* Note: ; Delay -0.0665 ms (-23 mm, -0.9 in) using estimated IR delay relative to Acoustic reference played from HEADPHONE R with no timing offset
* Measurement: CP145 Gold R
* Smoothing: 1/24 octave
* Frequency Step: 1/48 octave
* Start Frequency: 1.000 Hz
*
* Freq(Hz) SPL(dB) Phase(degrees)
1.000000 64.372 26.9656
1.015000 64.335 26.7107
1.030000 64.300 26.3821
1.044000 64.270 26.0054
1.060000 64.237 25.4880
1.075000 64.208 24.9147
1.090000 64.183 24.2521
1.106000 64.158 23.4360
1.120000 64.136 22.5922
1.138000 64.104 21.3325
1.150000 64.082 20.3921
1.172000 64.041 18.4798
1.180000 64.025 17.7296
1.206000 63.975 15.1160
1.220000 63.949 13.6122
1.241000 63.911 11.2541
1.250000 63.895 10.2124
1.265000 63.871 8.4434
1.280000 63.849 6.6430
1.315000 63.809 2.3815
1.320000 63.804 1.7717
1.340000 63.791 -0.6534
1.360000 63.786 -3.0367
1.380000 63.789 -5.3524
1.400000 63.802 -7.5743
1.430000 63.841 -10.6743
1.450000 63.882 -12.5480
1.475000 63.952 -14.6491
1.500000 64.040 -16.6471
1.525000 64.145 -18.5836
1.550000 64.266 -20.4558
1.575000 64.401 -22.2613
1.600000 64.548 -23.9971
1.625000 64.707 -25.6608
1.650000 64.876 -27.2495
1.675000 65.054 -28.7607
1.700000 65.238 -30.1916
1.725000 65.429 -31.5396
1.750000 65.623 -32.8019
1.775000 65.820 -33.9759
1.800000 66.019 -35.0589
1.825000 66.218 -36.0483
1.850000 66.418 -36.9298
1.875000 66.628 -37.6808
1.900000 66.845 -38.3116
1.925000 67.070 -38.8337
1.950000 67.301 -39.2589
1.975000 67.537 -39.5987
2.000000 67.778 -39.8648
2.030000 68.071 -40.1031
2.060000 68.367 -40.2720
2.090000 68.665 -40.3917
2.120000 68.963 -40.4821
2.140000 69.160 -40.5361
2.180000 69.551 -40.6557
2.200000 69.743 -40.7326
2.240000 70.129 -40.8118
2.270000 70.421 -40.7822
2.300000 70.716 -40.6915
2.330000 71.011 -40.5529
2.360000 71.307 -40.3800
2.400000 71.701 -40.1193
2.430000 71.995 -39.9186
2.470000 72.384 -39.6697
2.500000 72.672 -39.5144
2.540000 73.049 -39.3749
2.580000 73.419 -39.3328
2.620000 73.784 -39.3321
2.650000 74.056 -39.3487
2.690000 74.416 -39.3943
2.720000 74.683 -39.4468
2.760000 75.034 -39.5419
2.800000 75.380 -39.6666
2.850000 75.804 -39.8658
2.900000 76.217 -40.1148
2.950000 76.617 -40.4175
3.000000 77.008 -40.7872
3.040000 77.313 -41.1269
3.070000 77.538 -41.4033
3.110000 77.832 -41.7961
3.150000 78.120 -42.2112
3.200000 78.471 -42.7523
3.250000 78.810 -43.3076
3.300000 79.140 -43.8655
3.350000 79.458 -44.4360
3.400000 79.764 -45.0296
3.450000 80.061 -45.6442
3.500000 80.347 -46.2775
3.550000 80.623 -46.9270
3.600000 80.891 -47.5907
3.650000 81.150 -48.2660
3.700000 81.400 -48.9594
3.750000 81.639 -49.6847
3.820000 81.958 -50.7346
3.870000 82.175 -51.4942
3.950000 82.507 -52.6965
4.000000 82.706 -53.4226
4.060000 82.937 -54.2557
4.120000 83.155 -55.0667
4.180000 83.362 -55.8599
4.250000 83.592 -56.7638
4.310000 83.781 -57.5209
4.370000 83.964 -58.2623
4.440000 84.171 -59.1100
4.500000 84.339 -59.8245
4.550000 84.473 -60.4088
4.620000 84.654 -61.2048
4.680000 84.806 -61.8622
4.750000 84.980 -62.5945
4.820000 85.152 -63.2816
4.870000 85.270 -63.7450
4.940000 85.433 -64.3642
5.000000 85.569 -64.8758
5.080000 85.751 -65.5440
5.150000 85.910 -66.1263
5.220000 86.069 -66.6896
5.300000 86.250 -67.3133
5.380000 86.429 -67.9309
5.450000 86.585 -68.4792
5.520000 86.742 -69.0436
5.600000 86.922 -69.6907
5.700000 87.147 -70.5096
5.800000 87.369 -71.3613
5.900000 87.585 -72.2669
6.000000 87.799 -73.2189
6.080000 87.967 -74.0105
6.150000 88.110 -74.7243
6.220000 88.246 -75.4574
6.300000 88.397 -76.3257
6.400000 88.577 -77.4566
6.500000 88.746 -78.6141
6.600000 88.902 -79.7727
6.700000 89.045 -80.9453
6.800000 89.174 -82.1307
6.900000 89.292 -83.2987
7.000000 89.398 -84.4251
7.100000 89.489 -85.5334
7.200000 89.569 -86.6078
7.300000 89.641 -87.6208
7.400000 89.705 -88.5588
7.500000 89.758 -89.4376
7.620000 89.816 -90.4032
7.750000 89.877 -91.3232
7.880000 89.932 -92.1094
8.000000 89.984 -92.7381
8.120000 90.045 -93.2872
8.250000 90.116 -93.7734
8.380000 90.196 -94.1956
8.500000 90.280 -94.5616
8.620000 90.374 -94.8833
8.750000 90.485 -95.2236
8.850000 90.576 -95.5037
9.000000 90.722 -95.9306
9.120000 90.845 -96.2938
9.250000 90.981 -96.7239
9.380000 91.123 -97.1847
9.500000 91.253 -97.6365
9.620000 91.380 -98.1144
9.750000 91.517 -98.6615
9.880000 91.648 -99.2345
10.000000 91.760 -99.7841
10.150000 91.893 -100.5018
10.300000 92.019 -101.2555
10.440000 92.130 -101.9872
10.600000 92.250 -102.8732
10.750000 92.362 -103.7643
10.900000 92.469 -104.7101
11.060000 92.573 -105.7902
11.200000 92.657 -106.8010
11.380000 92.746 -108.1392
11.500000 92.793 -109.0583
11.720000 92.852 -110.7357
11.800000 92.864 -111.3242
12.060000 92.874 -113.1503
12.200000 92.864 -114.0147
12.410000 92.834 -115.1530
12.500000 92.819 -115.5613
12.650000 92.791 -116.1353
12.800000 92.767 -116.5997
13.150000 92.748 -117.2918
13.200000 92.752 -117.3703
13.400000 92.782 -117.6228
13.600000 92.835 -117.8854
13.800000 92.910 -118.1972
14.000000 92.993 -118.5924
14.300000 93.125 -119.3415
14.500000 93.206 -119.9118
14.750000 93.303 -120.6363
15.000000 93.397 -121.3445
15.250000 93.497 -122.0108
15.500000 93.608 -122.6781
15.750000 93.732 -123.3816
16.000000 93.863 -124.1934
16.250000 93.990 -125.1506
16.500000 94.103 -126.2475
16.750000 94.192 -127.4567
17.000000 94.248 -128.6760
17.250000 94.274 -129.8375
17.500000 94.271 -130.8558
17.750000 94.252 -131.6603
18.000000 94.228 -132.2464
18.250000 94.210 -132.6116
18.500000 94.212 -132.8200
18.750000 94.237 -132.9370
19.000000 94.290 -133.0249
19.250000 94.366 -133.1796
19.500000 94.457 -133.4435
19.750000 94.556 -133.8493
20.000000 94.649 -134.4117
20.299999 94.740 -135.2469
20.600000 94.799 -136.1793
20.900000 94.821 -137.0953
21.200001 94.813 -137.8686
21.400000 94.799 -138.2555
21.799999 94.778 -138.7300
22.000000 94.782 -138.8560
22.400000 94.837 -139.0476
22.700001 94.915 -139.2953
23.000000 95.010 -139.7423
23.299999 95.105 -140.3991
23.600000 95.187 -141.2234
24.000000 95.265 -142.4751
24.299999 95.299 -143.4380
24.700001 95.315 -144.6581
25.000000 95.312 -145.4684
25.400000 95.299 -146.3506
25.799999 95.298 -147.0048
26.200001 95.331 -147.5606
26.500000 95.377 -148.0536
26.900000 95.442 -148.9494
27.200001 95.466 -149.7830
27.600000 95.434 -150.8923
28.000000 95.336 -151.5861
28.500000 95.214 -151.4597
29.000000 95.236 -150.6478
29.500000 95.423 -150.2285
30.000000 95.633 -150.8764
30.400000 95.722 -151.9099
30.700001 95.731 -152.6857
31.100000 95.697 -153.4169
31.500000 95.659 -153.7500
32.000000 95.662 -153.8979
32.500000 95.720 -154.1899
33.000000 95.782 -154.8054
33.500000 95.814 -155.6081
34.000000 95.815 -156.3902
34.500000 95.803 -157.0259
35.000000 95.800 -157.5053
35.500000 95.822 -157.9476
36.000000 95.864 -158.5315
36.500000 95.894 -159.3196
37.000000 95.888 -160.1584
37.500000 95.850 -160.8188
38.200001 95.804 -161.3259
38.700001 95.803 -161.5766
39.500000 95.831 -162.1457
40.000000 95.843 -162.5818
40.599998 95.851 -163.1003
41.200001 95.858 -163.6062
41.799999 95.864 -164.1326
42.500000 95.858 -164.7606
43.099998 95.840 -165.2087
43.700001 95.826 -165.4845
44.400002 95.846 -165.6978
45.000000 95.890 -166.0172
45.500000 95.924 -166.4472
46.200001 95.940 -167.1476
46.799999 95.930 -167.6562
47.500000 95.918 -168.0914
48.200001 95.920 -168.4659
48.700001 95.929 -168.7650
49.400002 95.940 -169.2731
50.000000 95.936 -169.7533
50.799999 95.910 -170.3060
51.500000 95.887 -170.6587
52.200001 95.875 -170.9783
53.000000 95.862 -171.3488
53.799999 95.853 -171.6757
54.500000 95.855 -171.9796
55.200001 95.858 -172.3627
56.000000 95.854 -172.8526
57.000000 95.839 -173.4967
58.000000 95.805 -174.1156
59.000000 95.774 -174.5522
60.000000 95.769 -174.9936
60.799999 95.758 -175.4264
61.500000 95.736 -175.7402
62.200001 95.719 -175.9383
63.000000 95.720 -176.1625
64.000000 95.721 -176.6573
65.000000 95.685 -177.1208
66.000000 95.663 -177.4162
67.000000 95.651 -177.8480
68.000000 95.619 -178.2499
69.000000 95.599 -178.5414
70.000000 95.585 -178.9210
71.000000 95.559 -179.2704
72.000000 95.544 -179.6085
73.000000 95.524 179.9470
74.000000 95.491 179.5316
75.000000 95.462 179.1667
76.199997 95.422 178.7752
77.500000 95.392 178.6257
78.800003 95.395 178.4564
80.000000 95.383 178.1938
81.199997 95.351 177.9052
82.500000 95.303 177.4977
83.800003 95.231 177.0197
85.000000 95.183 176.6484
86.199997 95.160 176.1090
87.500000 95.110 175.4980
88.500000 95.052 175.3011
90.000000 95.001 175.5312
91.199997 95.016 175.7417
92.500000 95.040 175.5091
93.800003 95.004 175.0027
95.000000 94.948 174.6153
96.199997 94.902 174.2422
97.500000 94.866 173.8394
98.800003 94.841 173.4806
100.000000 94.822 173.2337
101.500000 94.803 173.0150
103.000000 94.771 172.7759
104.400002 94.723 172.6197
106.000000 94.677 172.4521
107.500000 94.635 172.1749
109.000000 94.584 171.8818
110.599998 94.527 171.6624
112.000000 94.483 171.5368
113.800003 94.431 171.3279
115.000000 94.394 171.1384
117.199997 94.337 170.7144
118.000000 94.318 170.5396
120.599998 94.253 170.2297
122.000000 94.230 170.2271
124.099998 94.174 170.0934
125.000000 94.133 170.0028
126.500000 94.055 169.8846
128.000000 93.990 169.8505
131.500000 93.954 169.9158
132.000000 93.955 169.9153
134.000000 93.948 169.7758
136.000000 93.896 169.4731
138.000000 93.831 169.2157
140.000000 93.777 169.0225
143.000000 93.725 169.3257
145.000000 93.748 169.4391
147.500000 93.750 168.8888
150.000000 93.680 168.3062
152.500000 93.594 168.2710
155.000000 93.521 168.5074
157.500000 93.431 168.6488
160.000000 93.351 168.6963
162.500000 93.288 168.5586
165.000000 93.228 168.4736
167.500000 93.177 168.3896
170.000000 93.125 168.3324
172.500000 93.076 168.3683
175.000000 93.032 168.5329
177.500000 92.992 168.6842
180.000000 92.936 168.7161
182.500000 92.868 168.6855
185.000000 92.811 168.6558
187.500000 92.765 168.6469
190.000000 92.722 168.7279
192.500000 92.680 168.8158
195.000000 92.634 168.9001
197.500000 92.582 168.9798
200.000000 92.524 169.0798
203.000000 92.467 169.1616
206.000000 92.408 169.1306
209.000000 92.324 169.2098
212.000000 92.279 169.5615
214.000000 92.281 169.7821
218.000000 92.254 170.0081
220.000000 92.208 170.0457
224.000000 92.108 170.1184
227.000000 92.054 170.2831
230.000000 92.011 170.4699
233.000000 91.974 170.5928
236.000000 91.931 170.7563
240.000000 91.863 171.0729
243.000000 91.812 171.2465
247.000000 91.752 171.4019
250.000000 91.706 171.4991
254.000000 91.645 171.7109
258.000000 91.588 172.0319
262.000000 91.534 172.3423
265.000000 91.507 172.5160
269.000000 91.470 172.8119
272.000000 91.434 173.1272
276.000000 91.392 173.5152
280.000000 91.332 173.7661
285.000000 91.243 174.0776
290.000000 91.195 174.5135
295.000000 91.209 174.6649
300.000000 91.158 174.8986
304.000000 91.078 175.4379
307.000000 91.042 175.9309
311.000000 91.041 176.3764
315.000000 91.061 176.5037
320.000000 91.044 176.5906
325.000000 90.979 176.8278
330.000000 90.898 177.1705
335.000000 90.839 177.5860
340.000000 90.814 177.9889
345.000000 90.809 178.5226
350.000000 90.781 179.2686
355.000000 90.724 179.9897
360.000000 90.679 -179.6224
365.000000 90.668 -179.3081
370.000000 90.633 -178.8782
375.000000 90.573 -178.5989
382.000000 90.517 -178.1933
387.000000 90.485 -177.8298
395.000000 90.447 -177.1029
400.000000 90.427 -176.6316
406.000000 90.390 -176.3269
412.000000 90.334 -175.8579
418.000000 90.279 -175.3027
425.000000 90.248 -174.6815
431.000000 90.232 -174.1830
437.000000 90.201 -173.6913
444.000000 90.159 -173.0978
450.000000 90.143 -172.5303
455.000000 90.133 -171.8591
462.000000 90.112 -171.0333
468.000000 90.102 -170.6209
475.000000 90.073 -170.1640
482.000000 90.047 -169.6266
487.000000 90.036 -169.1330
494.000000 90.018 -168.3739
500.000000 90.007 -167.7863
508.000000 89.989 -166.9603
515.000000 89.965 -166.3206
522.000000 89.944 -165.7698
530.000000 89.939 -165.1259
538.000000 89.951 -164.4460
545.000000 89.975 -163.7533
552.000000 89.989 -162.9248
560.000000 89.962 -162.1106
570.000000 89.942 -161.4492
580.000000 89.927 -160.8250
590.000000 89.925 -159.7855
600.000000 89.935 -158.8494
608.000000 89.944 -158.2255
615.000000 89.945 -157.6029
622.000000 89.935 -156.8637
630.000000 89.927 -156.0827
640.000000 89.935 -155.2773
650.000000 89.954 -154.4020
660.000000 89.963 -153.4748
670.000000 89.972 -152.5859
680.000000 89.986 -151.7508
690.000000 90.012 -150.8645
700.000000 90.042 -149.9340
710.000000 90.067 -149.0749
720.000000 90.088 -148.2736
730.000000 90.119 -147.4472
740.000000 90.152 -146.5495
750.000000 90.178 -145.6114
762.000000 90.222 -144.5206
775.000000 90.269 -143.4229
788.000000 90.329 -142.3166
800.000000 90.381 -141.3147
812.000000 90.432 -140.2570
825.000000 90.486 -139.1207
838.000000 90.551 -138.1070
850.000000 90.617 -137.1504
862.000000 90.682 -136.1250
875.000000 90.753 -135.0423
885.000000 90.802 -134.2663
900.000000 90.876 -133.1288
912.000000 90.934 -132.1833
925.000000 90.990 -131.0543
938.000000 91.042 -129.6820
950.000000 91.133 -128.1194
962.000000 91.328 -126.6704
975.000000 91.579 -125.8946
988.000000 91.744 -125.6648
1000.000000 91.842 -125.3642
1015.000000 91.954 -124.7693
1030.000000 92.051 -124.0449
1044.000000 92.140 -123.3108
1060.000000 92.262 -122.4725
1075.000000 92.386 -121.6980
1090.000000 92.508 -121.0209
1106.000000 92.648 -120.3758
1120.000000 92.778 -119.7804
1138.000000 92.961 -118.9836
1150.000000 93.077 -118.5109
1172.000000 93.272 -117.7115
1180.000000 93.339 -117.4766
1206.000000 93.557 -116.8388
1220.000000 93.675 -116.3651
1241.000000 93.843 -115.5723
1250.000000 93.918 -115.2408
1265.000000 94.048 -114.7233
1280.000000 94.178 -114.2563
1315.000000 94.471 -113.1021
1320.000000 94.514 -112.9547
1340.000000 94.680 -112.3958
1360.000000 94.815 -111.8172
1380.000000 94.957 -111.2608
1400.000000 95.123 -110.6924
1430.000000 95.378 -109.8808
1450.000000 95.551 -109.3610
1475.000000 95.764 -108.7041
1500.000000 95.980 -108.1047
1525.000000 96.196 -107.5686
1550.000000 96.403 -107.0420
1575.000000 96.607 -106.6216
1600.000000 96.814 -106.1850
1625.000000 97.022 -105.7651
1650.000000 97.230 -105.4203
1675.000000 97.439 -105.1182
1700.000000 97.646 -104.8566
1725.000000 97.854 -104.6248
1750.000000 98.077 -104.5031
1775.000000 98.308 -104.4550
1800.000000 98.524 -104.4439
1825.000000 98.726 -104.4586
1850.000000 98.923 -104.5197
1875.000000 99.119 -104.6604
1900.000000 99.313 -104.8589
1925.000000 99.505 -105.1249
1950.000000 99.696 -105.4519
1975.000000 99.883 -105.8425
2000.000000 100.063 -106.2782
2030.000000 100.269 -106.7982
2060.000000 100.468 -107.3544
2090.000000 100.669 -107.9950
2120.000000 100.881 -108.7576
2140.000000 101.021 -109.3660
2180.000000 101.278 -110.8325
2200.000000 101.387 -111.7184
2240.000000 101.556 -113.7157
2270.000000 101.637 -115.2972
2300.000000 101.677 -116.8648
2330.000000 101.684 -118.3685
2360.000000 101.665 -119.7798
2400.000000 101.595 -121.4640
2430.000000 101.511 -122.5589
2470.000000 101.374 -123.8036
2500.000000 101.263 -124.5929
2540.000000 101.103 -125.4212
2580.000000 100.934 -126.0097
2620.000000 100.770 -126.4312
2650.000000 100.652 -126.6566
2690.000000 100.493 -126.8308
2720.000000 100.370 -126.8751
2760.000000 100.204 -126.8246
2800.000000 100.042 -126.6490
2850.000000 99.853 -126.2792
2900.000000 99.671 -125.7451
2950.000000 99.497 -125.0725
3000.000000 99.339 -124.3046
3040.000000 99.215 -123.5974
3070.000000 99.127 -123.0252
3110.000000 99.020 -122.2111
3150.000000 98.926 -121.3328
3200.000000 98.827 -120.1720
3250.000000 98.747 -118.9516
3300.000000 98.687 -117.7354
3350.000000 98.645 -116.5724
3400.000000 98.617 -115.4730
3450.000000 98.601 -114.4363
3500.000000 98.593 -113.4386
3550.000000 98.589 -112.4784
3600.000000 98.584 -111.5519
3650.000000 98.578 -110.6566
3700.000000 98.572 -109.7894
3750.000000 98.564 -108.9285
3820.000000 98.544 -107.6526
3870.000000 98.524 -106.6524
3950.000000 98.509 -104.9035
4000.000000 98.521 -103.7672
4060.000000 98.559 -102.4296
4120.000000 98.612 -101.1489
4180.000000 98.683 -99.9684
4250.000000 98.782 -98.7281
4310.000000 98.874 -97.7939
4370.000000 98.967 -97.0196
4440.000000 99.078 -96.3800
4500.000000 99.166 -96.0701
4550.000000 99.223 -95.9486
4620.000000 99.280 -95.9650
4680.000000 99.305 -96.0970
4750.000000 99.301 -96.3323
4820.000000 99.258 -96.6225
4870.000000 99.201 -96.8338
4940.000000 99.093 -97.1264
5000.000000 98.974 -97.3234
5080.000000 98.778 -97.4299
5150.000000 98.579 -97.3369
5220.000000 98.355 -97.0288
5300.000000 98.086 -96.4436
5380.000000 97.810 -95.6208
5450.000000 97.572 -94.7251
5520.000000 97.344 -93.6883
5600.000000 97.091 -92.3209
5700.000000 96.787 -90.3736
5800.000000 96.501 -88.2005
5900.000000 96.238 -85.8735
6000.000000 95.999 -83.4528
6080.000000 95.821 -81.4789
6150.000000 95.670 -79.6851
6220.000000 95.529 -77.7796
6300.000000 95.398 -75.4988
6400.000000 95.251 -72.7286
6500.000000 95.101 -69.8011
6600.000000 94.994 -66.6819
6700.000000 94.919 -63.4994
6800.000000 94.890 -60.1455
6900.000000 94.952 -56.7303
7000.000000 95.113 -53.3942
7100.000000 95.346 -50.2309
7200.000000 95.652 -47.3682
7300.000000 96.018 -44.9102
7400.000000 96.437 -42.9840
7500.000000 96.902 -41.7286
7620.000000 97.498 -41.2846
7750.000000 98.123 -42.3574
7880.000000 98.552 -45.0854
8000.000000 98.703 -48.7886
8120.000000 98.576 -52.9970
8250.000000 98.133 -57.2817
8380.000000 97.427 -60.5154
8500.000000 96.611 -62.1948
8620.000000 95.705 -62.5496
8750.000000 94.682 -61.5471
8850.000000 93.902 -59.9300
9000.000000 92.785 -56.3643
9120.000000 91.956 -52.7176
9250.000000 91.132 -48.1434
9380.000000 90.392 -43.0687
9500.000000 89.783 -38.0351
9620.000000 89.248 -32.7400
9750.000000 88.759 -26.7817
9880.000000 88.359 -20.6448
10000.000000 88.064 -14.8715
10150.000000 87.790 -7.5637
10300.000000 87.617 -0.1939
10440.000000 87.552 6.6790
10600.000000 87.593 14.4689
10750.000000 87.754 21.6315
10900.000000 88.046 28.5693
11060.000000 88.517 35.5952
11200.000000 89.075 41.2710
11380.000000 90.013 47.5905
11500.000000 90.790 50.8854
11720.000000 92.496 53.7857
11800.000000 93.162 53.3752
12060.000000 94.966 44.4225
12200.000000 95.319 35.1028
12410.000000 94.647 20.2866
12500.000000 93.956 15.3974
12650.000000 92.451 10.4284
12800.000000 90.740 9.3081
13150.000000 86.980 17.1268
13200.000000 86.523 18.9992
13400.000000 84.935 27.4824
13600.000000 83.684 36.9027
13800.000000 82.700 46.9510
14000.000000 81.961 57.8860
14300.000000 81.585 75.0712
14500.000000 81.783 84.7844
14750.000000 82.119 94.7474
15000.000000 82.551 104.0536
15250.000000 83.300 112.7281
15500.000000 84.526 119.5752
15750.000000 86.193 122.6565
16000.000000 87.917 119.1888
16250.000000 88.985 107.4862
16500.000000 88.799 91.1613
16750.000000 87.338 77.2872
17000.000000 85.010 69.8951
17250.000000 82.456 67.4358
17500.000000 79.914 66.4996
17750.000000 76.947 69.4995
18000.000000 73.328 84.8259
18250.000000 70.752 109.4020
18500.000000 70.657 126.1195
18750.000000 70.869 133.4452
19000.000000 70.629 138.9604
19250.000000 70.041 145.9552
19500.000000 69.152 154.4206
19750.000000 68.029 163.8227
20000.000000 66.733 174.0599
20300.000000 65.084 -172.3250
20600.000000 63.593 -157.1473
20900.000000 62.394 -143.3094
21200.000000 61.544 -158.4748
21400.000000 61.115 105.6601
21800.000000 59.869 -155.4917
22000.000000 58.473 34.5872
22400.000000 53.429 143.2070
22700.000000 49.062 -50.6914
23000.000000 49.005 164.7383
23300.000000 53.226 -73.3281
23600.000000 57.221 -88.1328
24000.000000 59.974 -176.0156
