* Measurement data measured by REW V5.20.13
* Source: Headset (DS by VECLAN.COM), MICROPHONE (Master Volume), L, volume: 0.720. Timing signal peak level -14.0 dBFS, measurement signal peak level -12.8 dBFS
* Format: 2M Log Swept Sine, 1 sweep at -12.0 dBFS using an acoustic timing reference
* Dated: Feb 16, 2024 1:02:17 AM
* REW Settings:
*  C-weighting compensation: Off
*  Target level: 75.0 dB
* Note: ; Delay -0.0690 ms (-24 mm, -0.93 in) using estimated IR delay relative to Acoustic reference played from HEADPHONE R with no timing offset
* Measurement: Simgot EA500LM Black R
* Smoothing: 1/24 octave
* Frequency Step: 1/48 octave
* Start Frequency: 1.000 Hz
*
* Freq(Hz) SPL(dB) Phase(degrees)
1.000000 73.379 -48.8266
1.015000 74.014 -49.0021
1.030000 74.622 -49.1742
1.044000 75.160 -49.3312
1.060000 75.736 -49.5057
1.075000 76.231 -49.6639
1.090000 76.678 -49.8162
1.106000 77.100 -49.9718
1.120000 77.445 -50.1037
1.138000 77.862 -50.2685
1.150000 78.125 -50.3756
1.172000 78.578 -50.5667
1.180000 78.734 -50.6346
1.206000 79.209 -50.8506
1.220000 79.447 -50.9642
1.241000 79.783 -51.1318
1.250000 79.919 -51.2027
1.265000 80.138 -51.3200
1.280000 80.348 -51.4363
1.315000 80.803 -51.7061
1.320000 80.864 -51.7446
1.340000 81.105 -51.8989
1.360000 81.338 -52.0543
1.380000 81.564 -52.2115
1.400000 81.787 -52.3712
1.430000 82.121 -52.6170
1.450000 82.347 -52.7861
1.475000 82.633 -53.0035
1.500000 82.904 -53.2186
1.525000 83.155 -53.4304
1.550000 83.389 -53.6404
1.575000 83.607 -53.8501
1.600000 83.811 -54.0608
1.625000 84.004 -54.2743
1.650000 84.187 -54.4918
1.675000 84.363 -54.7149
1.700000 84.534 -54.9450
1.725000 84.701 -55.1837
1.750000 84.867 -55.4324
1.775000 85.034 -55.6926
1.800000 85.203 -55.9658
1.825000 85.378 -56.2534
1.850000 85.556 -56.5559
1.875000 85.730 -56.8711
1.900000 85.902 -57.1981
1.925000 86.070 -57.5360
1.950000 86.235 -57.8839
1.975000 86.398 -58.2409
2.000000 86.558 -58.6063
2.030000 86.747 -59.0546
2.060000 86.934 -59.5121
2.090000 87.119 -59.9773
2.120000 87.302 -60.4488
2.140000 87.424 -60.7659
2.180000 87.666 -61.4046
2.200000 87.786 -61.7254
2.240000 88.027 -62.3771
2.270000 88.205 -62.8762
2.300000 88.382 -63.3835
2.330000 88.558 -63.8983
2.360000 88.731 -64.4198
2.400000 88.959 -65.1244
2.430000 89.127 -65.6590
2.470000 89.347 -66.3783
2.500000 89.509 -66.9220
2.540000 89.719 -67.6510
2.580000 89.923 -68.3843
2.620000 90.122 -69.1287
2.650000 90.268 -69.6945
2.690000 90.458 -70.4568
2.720000 90.597 -71.0333
2.760000 90.778 -71.8065
2.800000 90.955 -72.5829
2.850000 91.170 -73.5542
2.900000 91.379 -74.5223
2.950000 91.582 -75.4845
3.000000 91.778 -76.4508
3.040000 91.930 -77.2270
3.070000 92.040 -77.8099
3.110000 92.185 -78.5865
3.150000 92.325 -79.3611
3.200000 92.495 -80.3235
3.250000 92.660 -81.2766
3.300000 92.819 -82.2168
3.350000 92.973 -83.1483
3.400000 93.120 -84.0745
3.450000 93.261 -84.9937
3.500000 93.397 -85.9041
3.550000 93.529 -86.8039
3.600000 93.655 -87.6914
3.650000 93.778 -88.5650
3.700000 93.897 -89.4250
3.750000 94.010 -90.2754
3.820000 94.161 -91.4473
3.870000 94.263 -92.2690
3.950000 94.421 -93.5529
4.000000 94.515 -94.3336
4.060000 94.626 -95.2465
4.120000 94.732 -96.1347
4.180000 94.832 -96.9998
4.250000 94.945 -97.9815
4.310000 95.038 -98.8008
4.370000 95.129 -99.6008
4.440000 95.233 -100.5098
4.500000 95.319 -101.2645
4.550000 95.388 -101.8777
4.620000 95.483 -102.7146
4.680000 95.562 -103.4143
4.750000 95.654 -104.2133
4.820000 95.745 -104.9912
4.870000 95.809 -105.5305
4.940000 95.897 -106.2672
5.000000 95.972 -106.8855
5.080000 96.071 -107.6978
5.150000 96.157 -108.4025
5.220000 96.242 -109.0939
5.300000 96.339 -109.8689
5.380000 96.435 -110.6343
5.450000 96.518 -111.3015
5.520000 96.599 -111.9705
5.600000 96.692 -112.7310
5.700000 96.806 -113.6763
5.800000 96.917 -114.6212
5.900000 97.025 -115.5711
6.000000 97.129 -116.5256
6.080000 97.210 -117.2901
6.150000 97.278 -117.9585
6.220000 97.344 -118.6252
6.300000 97.415 -119.3874
6.400000 97.500 -120.3416
6.500000 97.581 -121.2891
6.600000 97.656 -122.2207
6.700000 97.725 -123.1398
6.800000 97.789 -124.0469
6.900000 97.848 -124.9336
7.000000 97.903 -125.7930
7.100000 97.954 -126.6299
7.200000 98.000 -127.4426
7.300000 98.044 -128.2270
7.400000 98.085 -128.9802
7.500000 98.124 -129.7042
7.620000 98.168 -130.5370
7.750000 98.215 -131.3966
7.880000 98.260 -132.2078
8.000000 98.301 -132.9239
8.120000 98.344 -133.6172
8.250000 98.392 -134.3354
8.380000 98.440 -135.0331
8.500000 98.486 -135.6694
8.620000 98.532 -136.2921
8.750000 98.583 -136.9608
8.850000 98.621 -137.4767
9.000000 98.679 -138.2479
9.120000 98.725 -138.8642
9.250000 98.773 -139.5334
9.380000 98.821 -140.2035
9.500000 98.861 -140.8198
9.620000 98.896 -141.4339
9.750000 98.930 -142.0972
9.880000 98.956 -142.7505
10.000000 98.969 -143.3439
10.150000 98.975 -144.0724
10.300000 98.973 -144.7708
10.440000 98.961 -145.3938
10.600000 98.943 -146.0769
10.750000 98.927 -146.6881
10.900000 98.910 -147.2744
11.060000 98.895 -147.8884
11.200000 98.883 -148.4146
11.380000 98.870 -149.0793
11.500000 98.861 -149.5154
11.720000 98.845 -150.3038
11.800000 98.840 -150.5883
12.060000 98.825 -151.5041
12.200000 98.818 -151.9953
12.410000 98.806 -152.7250
12.500000 98.800 -153.0298
12.650000 98.788 -153.5298
12.800000 98.775 -154.0141
13.150000 98.741 -155.0709
13.200000 98.736 -155.2137
13.400000 98.719 -155.7625
13.600000 98.704 -156.2836
13.800000 98.693 -156.7776
14.000000 98.685 -157.2619
14.300000 98.680 -157.9791
14.500000 98.678 -158.4614
14.750000 98.678 -159.0730
15.000000 98.680 -159.6963
15.250000 98.683 -160.3325
15.500000 98.685 -160.9694
15.750000 98.686 -161.6001
16.000000 98.682 -162.2148
16.250000 98.677 -162.8129
16.500000 98.669 -163.3927
16.750000 98.662 -163.9517
17.000000 98.654 -164.4887
17.250000 98.648 -165.0044
17.500000 98.643 -165.4999
17.750000 98.639 -165.9804
18.000000 98.635 -166.4512
18.250000 98.633 -166.9183
18.500000 98.630 -167.3863
18.750000 98.626 -167.8520
19.000000 98.621 -168.3120
19.250000 98.613 -168.7532
19.500000 98.605 -169.1649
19.750000 98.596 -169.5398
20.000000 98.589 -169.8759
20.299999 98.589 -170.2507
20.600000 98.597 -170.6271
20.900000 98.613 -171.0450
21.200001 98.631 -171.5372
21.400000 98.640 -171.9075
21.799999 98.641 -172.7111
22.000000 98.632 -173.1155
22.400000 98.596 -173.8571
22.700001 98.561 -174.3120
23.000000 98.527 -174.6715
23.299999 98.501 -174.9683
23.600000 98.486 -175.2448
24.000000 98.479 -175.6446
24.299999 98.477 -175.9931
24.700001 98.472 -176.5125
25.000000 98.462 -176.9145
25.400000 98.441 -177.4283
25.799999 98.418 -177.8958
26.200001 98.396 -178.3250
26.500000 98.382 -178.6356
26.900000 98.366 -179.0488
27.200001 98.355 -179.3633
27.600000 98.340 -179.7882
28.000000 98.323 179.7879
28.500000 98.300 179.2730
29.000000 98.278 178.7778
29.500000 98.259 178.2825
30.000000 98.238 177.7630
30.400000 98.216 177.3358
30.700001 98.195 177.0236
31.100000 98.165 176.6411
31.500000 98.135 176.3058
32.000000 98.104 175.9313
32.500000 98.083 175.5544
33.000000 98.065 175.1371
33.500000 98.046 174.6801
34.000000 98.022 174.2010
34.500000 97.991 173.7277
35.000000 97.950 173.3097
35.500000 97.908 173.0034
36.000000 97.878 172.7996
36.500000 97.870 172.5963
37.000000 97.875 172.2693
37.500000 97.873 171.7963
38.200001 97.836 171.0756
38.700001 97.792 170.6526
39.500000 97.726 170.1342
40.000000 97.690 169.8401
40.599998 97.649 169.4930
41.200001 97.611 169.1534
41.799999 97.574 168.8106
42.500000 97.530 168.4181
43.099998 97.494 168.1110
43.700001 97.464 167.8088
44.400002 97.432 167.4200
45.000000 97.400 167.0692
45.500000 97.370 166.7904
46.200001 97.329 166.4244
46.799999 97.294 166.1199
47.500000 97.254 165.7763
48.200001 97.215 165.4485
48.700001 97.187 165.2181
49.400002 97.148 164.8961
50.000000 97.114 164.6228
50.799999 97.067 164.2686
51.500000 97.025 163.9770
52.200001 96.984 163.7008
53.000000 96.940 163.3787
53.799999 96.896 163.0353
54.500000 96.854 162.7247
55.200001 96.807 162.4318
56.000000 96.752 162.1777
57.000000 96.702 161.9314
58.000000 96.660 161.5677
59.000000 96.601 161.2111
60.000000 96.546 160.9319
60.799999 96.503 160.6646
61.500000 96.460 160.4250
62.200001 96.416 160.2026
63.000000 96.365 159.9438
64.000000 96.300 159.6244
65.000000 96.236 159.3323
66.000000 96.175 159.0378
67.000000 96.108 158.7669
68.000000 96.038 158.5986
69.000000 95.980 158.5275
70.000000 95.937 158.4101
71.000000 95.895 158.2101
72.000000 95.852 157.9510
73.000000 95.802 157.6183
74.000000 95.738 157.2931
75.000000 95.672 157.0769
76.199997 95.609 156.8398
77.500000 95.525 156.5947
78.800003 95.448 156.6025
80.000000 95.406 156.5604
81.199997 95.364 156.3933
82.500000 95.307 156.1086
83.800003 95.231 155.8472
85.000000 95.163 155.6966
86.199997 95.100 155.5639
87.500000 95.034 155.4246
88.500000 94.984 155.3050
90.000000 94.906 155.1222
91.199997 94.846 154.9855
92.500000 94.788 154.8346
93.800003 94.728 154.6623
95.000000 94.664 154.5711
96.199997 94.605 154.5592
97.500000 94.547 154.4812
98.800003 94.472 154.3544
100.000000 94.403 154.2798
101.500000 94.330 154.0900
103.000000 94.249 153.8626
104.400002 94.176 153.7568
106.000000 94.100 153.7643
107.500000 94.040 153.8813
109.000000 93.984 153.9556
110.599998 93.909 154.0183
112.000000 93.836 154.1034
113.800003 93.756 154.2527
115.000000 93.723 154.2990
117.199997 93.681 154.0246
118.000000 93.657 153.8646
120.599998 93.545 153.6219
122.000000 93.486 153.7485
124.099998 93.397 154.0383
125.000000 93.362 154.1730
126.500000 93.311 154.2690
128.000000 93.258 154.1841
131.500000 93.141 154.0114
132.000000 93.128 154.0159
134.000000 93.072 154.1317
136.000000 93.000 154.2988
138.000000 92.914 154.4642
140.000000 92.830 154.5221
143.000000 92.722 154.5393
145.000000 92.659 154.5945
147.500000 92.585 154.7194
150.000000 92.510 154.8458
152.500000 92.430 154.9753
155.000000 92.347 155.1182
157.500000 92.268 155.2512
160.000000 92.198 155.3700
162.500000 92.134 155.5134
165.000000 92.066 155.6837
167.500000 91.993 155.8916
170.000000 91.922 156.0715
172.500000 91.846 156.2147
175.000000 91.769 156.4084
177.500000 91.700 156.6798
180.000000 91.634 157.0199
182.500000 91.564 157.3303
185.000000 91.488 157.5668
187.500000 91.425 157.8650
190.000000 91.387 158.2261
192.500000 91.351 158.5519
195.000000 91.301 158.8375
197.500000 91.254 159.1288
200.000000 91.208 159.3248
203.000000 91.139 159.4245
206.000000 91.080 159.4877
209.000000 91.039 159.6367
212.000000 90.984 159.9160
214.000000 90.938 160.1211
218.000000 90.852 160.4766
220.000000 90.813 160.6475
224.000000 90.733 160.9963
227.000000 90.674 161.2762
230.000000 90.621 161.5719
233.000000 90.565 161.8707
236.000000 90.504 162.1656
240.000000 90.432 162.5579
243.000000 90.391 162.8785
247.000000 90.333 163.3236
250.000000 90.281 163.6419
254.000000 90.215 164.0201
258.000000 90.154 164.3703
262.000000 90.095 164.7593
265.000000 90.055 165.0763
269.000000 90.000 165.4951
272.000000 89.964 165.8063
276.000000 89.929 166.2271
280.000000 89.891 166.6510
285.000000 89.824 167.1314
290.000000 89.764 167.6002
295.000000 89.715 168.0910
300.000000 89.664 168.5887
304.000000 89.625 168.9917
307.000000 89.598 169.3017
311.000000 89.562 169.7237
315.000000 89.524 170.1465
320.000000 89.478 170.6717
325.000000 89.437 171.1783
330.000000 89.399 171.6695
335.000000 89.360 172.1672
340.000000 89.321 172.7004
345.000000 89.282 173.2378
350.000000 89.244 173.7548
355.000000 89.208 174.2561
360.000000 89.172 174.7523
365.000000 89.136 175.2559
370.000000 89.103 175.7472
375.000000 89.072 176.2564
382.000000 89.032 176.9630
387.000000 89.005 177.4523
395.000000 88.957 178.2560
400.000000 88.926 178.7609
406.000000 88.891 179.3488
412.000000 88.858 179.9394
418.000000 88.827 -179.4498
425.000000 88.795 -178.7482
431.000000 88.768 -178.1600
437.000000 88.741 -177.5831
444.000000 88.711 -176.9139
450.000000 88.687 -176.3328
455.000000 88.668 -175.8492
462.000000 88.643 -175.1884
468.000000 88.622 -174.6196
475.000000 88.598 -173.9393
482.000000 88.576 -173.2625
487.000000 88.563 -172.7838
494.000000 88.547 -172.1178
500.000000 88.533 -171.5483
508.000000 88.514 -170.7850
515.000000 88.500 -170.1240
522.000000 88.487 -169.4740
530.000000 88.474 -168.7245
538.000000 88.465 -167.9635
545.000000 88.457 -167.3058
552.000000 88.451 -166.6524
560.000000 88.445 -165.8995
570.000000 88.438 -164.9616
580.000000 88.434 -164.0349
590.000000 88.433 -163.0991
600.000000 88.429 -162.1657
608.000000 88.427 -161.4245
615.000000 88.425 -160.7744
622.000000 88.424 -160.1227
630.000000 88.423 -159.3781
640.000000 88.425 -158.4452
650.000000 88.429 -157.5141
660.000000 88.435 -156.5884
670.000000 88.444 -155.6635
680.000000 88.454 -154.7418
690.000000 88.469 -153.8215
700.000000 88.485 -152.9001
710.000000 88.504 -151.9794
720.000000 88.524 -151.0611
730.000000 88.547 -150.1408
740.000000 88.571 -149.2258
750.000000 88.598 -148.3166
762.000000 88.633 -147.2220
775.000000 88.673 -146.0410
788.000000 88.715 -144.8752
800.000000 88.758 -143.8054
812.000000 88.804 -142.7327
825.000000 88.857 -141.5875
838.000000 88.915 -140.4651
850.000000 88.972 -139.4345
862.000000 89.032 -138.4129
875.000000 89.099 -137.3228
885.000000 89.154 -136.4998
900.000000 89.241 -135.2965
912.000000 89.314 -134.3503
925.000000 89.397 -133.3438
938.000000 89.482 -132.3730
950.000000 89.564 -131.5025
962.000000 89.645 -130.6517
975.000000 89.732 -129.7559
988.000000 89.820 -128.8876
1000.000000 89.902 -128.1042
1015.000000 90.005 -127.1538
1030.000000 90.109 -126.2414
1044.000000 90.208 -125.4202
1060.000000 90.321 -124.5125
1075.000000 90.427 -123.6963
1090.000000 90.538 -122.9039
1106.000000 90.669 -122.0949
1120.000000 90.786 -121.4281
1138.000000 90.936 -120.5800
1150.000000 91.034 -120.0272
1172.000000 91.212 -119.0729
1180.000000 91.275 -118.7341
1206.000000 91.476 -117.6600
1220.000000 91.585 -117.1032
1241.000000 91.751 -116.2969
1250.000000 91.821 -115.9558
1265.000000 91.936 -115.3903
1280.000000 92.049 -114.8314
1315.000000 92.307 -113.5507
1320.000000 92.343 -113.3687
1340.000000 92.480 -112.6471
1360.000000 92.598 -111.9329
1380.000000 92.715 -111.2212
1400.000000 92.845 -110.5152
1430.000000 93.049 -109.4725
1450.000000 93.184 -108.7794
1475.000000 93.354 -107.9251
1500.000000 93.523 -107.0812
1525.000000 93.692 -106.2488
1550.000000 93.859 -105.4293
1575.000000 94.025 -104.6172
1600.000000 94.192 -103.8197
1625.000000 94.361 -103.0382
1650.000000 94.531 -102.2696
1675.000000 94.704 -101.5205
1700.000000 94.879 -100.7914
1725.000000 95.055 -100.0785
1750.000000 95.233 -99.3876
1775.000000 95.414 -98.7259
1800.000000 95.597 -98.0898
1825.000000 95.782 -97.4806
1850.000000 95.969 -96.9047
1875.000000 96.159 -96.3641
1900.000000 96.351 -95.8558
1925.000000 96.545 -95.3854
1950.000000 96.740 -94.9570
1975.000000 96.937 -94.5685
2000.000000 97.136 -94.2198
2030.000000 97.375 -93.8619
2060.000000 97.616 -93.5735
2090.000000 97.858 -93.3562
2120.000000 98.100 -93.2186
2140.000000 98.261 -93.1701
2180.000000 98.583 -93.1789
2200.000000 98.741 -93.2430
2240.000000 99.052 -93.4902
2270.000000 99.278 -93.7711
2300.000000 99.496 -94.1346
2330.000000 99.707 -94.5843
2360.000000 99.910 -95.1164
2400.000000 100.163 -95.9321
2430.000000 100.340 -96.6207
2470.000000 100.556 -97.6336
2500.000000 100.705 -98.4594
2540.000000 100.883 -99.6476
2580.000000 101.034 -100.9347
2620.000000 101.155 -102.2882
2650.000000 101.223 -103.3240
2690.000000 101.285 -104.7012
2720.000000 101.311 -105.7096
2760.000000 101.318 -106.9994
2800.000000 101.296 -108.2083
2850.000000 101.235 -109.5788
2900.000000 101.140 -110.7682
2950.000000 101.019 -111.7533
3000.000000 100.877 -112.5174
3040.000000 100.753 -112.9699
3070.000000 100.657 -113.2197
3110.000000 100.528 -113.4387
3150.000000 100.399 -113.5409
3200.000000 100.241 -113.5332
3250.000000 100.084 -113.3900
3300.000000 99.928 -113.1165
3350.000000 99.776 -112.7174
3400.000000 99.630 -112.1932
3450.000000 99.495 -111.5505
3500.000000 99.373 -110.8047
3550.000000 99.263 -109.9699
3600.000000 99.162 -109.0542
3650.000000 99.072 -108.0713
3700.000000 98.993 -107.0306
3750.000000 98.924 -105.9408
3820.000000 98.847 -104.3500
3870.000000 98.803 -103.1809
3950.000000 98.750 -101.2641
4000.000000 98.731 -100.0526
4060.000000 98.723 -98.6015
4120.000000 98.730 -97.1566
4180.000000 98.752 -95.7334
4250.000000 98.795 -94.1115
4310.000000 98.840 -92.7553
4370.000000 98.892 -91.4457
4440.000000 98.965 -89.9953
4500.000000 99.040 -88.8259
4550.000000 99.112 -87.9099
4620.000000 99.227 -86.7423
4680.000000 99.337 -85.8769
4750.000000 99.474 -85.0637
4820.000000 99.613 -84.4748
4870.000000 99.707 -84.1869
4940.000000 99.828 -83.9544
5000.000000 99.919 -83.9027
5080.000000 100.019 -84.0252
5150.000000 100.081 -84.2894
5220.000000 100.114 -84.6821
5300.000000 100.111 -85.2499
5380.000000 100.057 -85.8627
5450.000000 99.968 -86.3553
5520.000000 99.845 -86.7407
5600.000000 99.672 -86.9982
5700.000000 99.417 -87.0158
5800.000000 99.136 -86.7064
5900.000000 98.832 -86.0566
6000.000000 98.514 -85.0322
6080.000000 98.262 -83.9191
6150.000000 98.050 -82.7269
6220.000000 97.853 -81.3495
6300.000000 97.654 -79.5928
6400.000000 97.452 -77.2130
6500.000000 97.300 -74.7348
6600.000000 97.195 -72.2559
6700.000000 97.128 -69.8188
6800.000000 97.096 -67.4134
6900.000000 97.119 -65.0198
7000.000000 97.205 -62.6380
7100.000000 97.348 -60.3122
7200.000000 97.550 -58.1379
7300.000000 97.813 -56.2470
7400.000000 98.130 -54.7706
7500.000000 98.497 -53.8429
7620.000000 98.998 -53.6626
7750.000000 99.554 -54.9124
7880.000000 99.954 -57.8903
8000.000000 100.103 -62.0777
8120.000000 99.978 -67.1409
8250.000000 99.496 -72.6653
8380.000000 98.684 -77.2017
8500.000000 97.719 -79.9295
8620.000000 96.634 -81.1017
8750.000000 95.402 -80.7269
8850.000000 94.459 -79.4351
9000.000000 93.105 -76.1934
9120.000000 92.095 -72.7156
9250.000000 91.078 -68.2644
9380.000000 90.145 -63.2612
9500.000000 89.361 -58.2652
9620.000000 88.650 -52.9789
9750.000000 87.958 -46.9921
9880.000000 87.347 -40.7936
10000.000000 86.846 -34.9245
10150.000000 86.296 -27.4295
10300.000000 85.828 -19.7987
10440.000000 85.464 -12.5910
10600.000000 85.130 -4.2919
10750.000000 84.893 3.5194
10900.000000 84.733 11.3303
11060.000000 84.648 19.6294
11200.000000 84.645 26.8355
11380.000000 84.737 35.9815
11500.000000 84.858 41.9760
11720.000000 85.209 52.6894
11800.000000 85.379 56.4789
12060.000000 86.086 68.3051
12200.000000 86.566 74.2966
12410.000000 87.423 82.6345
12500.000000 87.846 85.9112
12650.000000 88.632 90.8659
12800.000000 89.524 95.0165
13150.000000 91.948 99.9072
13200.000000 92.308 99.8436
13400.000000 93.639 97.1086
13600.000000 94.555 90.3863
13800.000000 94.792 81.3318
14000.000000 94.306 73.1609
14300.000000 92.720 67.3680
14500.000000 91.538 67.8067
14750.000000 90.249 71.4422
15000.000000 89.280 77.0073
15250.000000 88.668 83.5384
15500.000000 88.499 90.1794
15750.000000 88.806 95.4944
16000.000000 89.368 97.5661
16250.000000 89.767 95.4400
16500.000000 89.630 90.4739
16750.000000 88.844 85.6793
17000.000000 87.574 83.3509
17250.000000 86.090 83.9427
17500.000000 84.611 86.7842
17750.000000 83.234 90.9483
18000.000000 81.948 95.5915
18250.000000 80.624 100.4767
18500.000000 79.077 107.2446
18750.000000 77.469 118.3844
19000.000000 76.492 131.8022
19250.000000 76.178 142.7302
19500.000000 75.907 150.3074
19750.000000 75.388 156.0352
20000.000000 74.512 161.2531
20300.000000 73.019 168.1847
20600.000000 71.254 176.8077
20900.000000 69.364 -172.7851
21200.000000 67.460 -161.4779
21400.000000 66.194 -154.4563
21800.000000 63.264 -156.6324
22000.000000 61.091 145.8939
22400.000000 54.111 38.6918
22700.000000 46.718 -113.8218
23000.000000 38.583 -80.8311
23300.000000 33.069 157.8496
23600.000000 31.812 -15.1641
24000.000000 31.540 -93.3750
