* Measurement data measured by REW V5.20.13
* Source: Headset (DS by VECLAN.COM), MICROPHONE (Master Volume), L, volume: 0.720. Timing signal peak level -15.9 dBFS, measurement signal peak level -15.0 dBFS
* Format: 2M Log Swept Sine, 1 sweep at -12.0 dBFS using an acoustic timing reference
* Dated: Feb 16, 2024 1:17:07 AM
* REW Settings:
*  C-weighting compensation: Off
*  Target level: 75.0 dB
* Note: ; Delay -0.0677 ms (-23 mm, -0.91 in) using estimated IR delay relative to Acoustic reference played from HEADPHONE R with no timing offset
* Measurement: Simgot EA500LM Gold R
* Smoothing: 1/24 octave
* Frequency Step: 1/48 octave
* Start Frequency: 1.000 Hz
*
* Freq(Hz) SPL(dB) Phase(degrees)
1.000000 77.251 -43.8881
1.015000 77.469 -43.8658
1.030000 77.686 -43.8616
1.044000 77.887 -43.8748
1.060000 78.114 -43.9109
1.075000 78.326 -43.9658
1.090000 78.535 -44.0421
1.106000 78.755 -44.1496
1.120000 78.950 -44.2756
1.138000 79.202 -44.4808
1.150000 79.371 -44.6425
1.172000 79.683 -44.9857
1.180000 79.797 -45.1242
1.206000 80.166 -45.6179
1.220000 80.365 -45.9078
1.241000 80.662 -46.3685
1.250000 80.789 -46.5739
1.265000 80.999 -46.9245
1.280000 81.207 -47.2833
1.315000 81.685 -48.1372
1.320000 81.752 -48.2597
1.340000 82.016 -48.7466
1.360000 82.274 -49.2243
1.380000 82.525 -49.6864
1.400000 82.768 -50.1265
1.430000 83.116 -50.7316
1.450000 83.335 -51.0891
1.475000 83.594 -51.4761
1.500000 83.837 -51.8171
1.525000 84.065 -52.1230
1.550000 84.281 -52.3993
1.575000 84.484 -52.6515
1.600000 84.677 -52.8853
1.625000 84.860 -53.1060
1.650000 85.036 -53.3194
1.675000 85.204 -53.5309
1.700000 85.367 -53.7461
1.725000 85.526 -53.9706
1.750000 85.682 -54.2098
1.775000 85.837 -54.4693
1.800000 85.991 -54.7547
1.825000 86.146 -55.0716
1.850000 86.300 -55.4204
1.875000 86.449 -55.7910
1.900000 86.591 -56.1805
1.925000 86.728 -56.5863
1.950000 86.860 -57.0061
1.975000 86.989 -57.4375
2.000000 87.115 -57.8780
2.030000 87.262 -58.4151
2.060000 87.408 -58.9575
2.090000 87.552 -59.5012
2.120000 87.696 -60.0417
2.140000 87.793 -60.3983
2.180000 87.990 -61.0968
2.200000 88.091 -61.4362
2.240000 88.294 -62.1058
2.270000 88.448 -62.6044
2.300000 88.602 -63.1010
2.330000 88.755 -63.5960
2.360000 88.908 -64.0904
2.400000 89.110 -64.7496
2.430000 89.260 -65.2450
2.470000 89.456 -65.9084
2.500000 89.600 -66.4089
2.540000 89.788 -67.0815
2.580000 89.970 -67.7615
2.620000 90.146 -68.4461
2.650000 90.276 -68.9621
2.690000 90.445 -69.6533
2.720000 90.569 -70.1740
2.760000 90.732 -70.8711
2.800000 90.891 -71.5713
2.850000 91.086 -72.4506
2.900000 91.276 -73.3340
2.950000 91.463 -74.2223
3.000000 91.646 -75.1242
3.040000 91.788 -75.8536
3.070000 91.893 -76.4033
3.110000 92.031 -77.1373
3.150000 92.165 -77.8697
3.200000 92.329 -78.7785
3.250000 92.489 -79.6742
3.300000 92.645 -80.5510
3.350000 92.796 -81.4086
3.400000 92.942 -82.2518
3.450000 93.085 -83.0839
3.500000 93.222 -83.9081
3.550000 93.356 -84.7278
3.600000 93.487 -85.5460
3.650000 93.614 -86.3662
3.700000 93.737 -87.1918
3.750000 93.856 -88.0229
3.820000 94.017 -89.1871
3.870000 94.127 -90.0131
3.950000 94.297 -91.3129
4.000000 94.400 -92.1046
4.060000 94.521 -93.0274
4.120000 94.637 -93.9246
4.180000 94.750 -94.8010
4.250000 94.876 -95.8031
4.310000 94.980 -96.6495
4.370000 95.081 -97.4889
4.440000 95.196 -98.4635
4.500000 95.291 -99.2919
4.550000 95.367 -99.9754
4.620000 95.470 -100.9192
4.680000 95.557 -101.7136
4.750000 95.655 -102.6202
4.820000 95.751 -103.5024
4.870000 95.817 -104.1185
4.940000 95.908 -104.9640
5.000000 95.983 -105.6754
5.080000 96.082 -106.6093
5.150000 96.165 -107.4161
5.220000 96.247 -108.2101
5.300000 96.337 -109.1012
5.380000 96.425 -109.9762
5.450000 96.500 -110.7297
5.520000 96.573 -111.4728
5.600000 96.655 -112.3069
5.700000 96.754 -113.3284
5.800000 96.850 -114.3304
5.900000 96.943 -115.3162
6.000000 97.033 -116.2834
6.080000 97.102 -117.0443
6.150000 97.161 -117.7021
6.220000 97.219 -118.3533
6.300000 97.282 -119.0900
6.400000 97.359 -119.9984
6.500000 97.433 -120.8910
6.600000 97.504 -121.7660
6.700000 97.572 -122.6231
6.800000 97.637 -123.4631
6.900000 97.700 -124.2864
7.000000 97.760 -125.0934
7.100000 97.818 -125.8842
7.200000 97.873 -126.6583
7.300000 97.926 -127.4150
7.400000 97.978 -128.1534
7.500000 98.027 -128.8738
7.620000 98.084 -129.7162
7.750000 98.143 -130.6036
7.880000 98.200 -131.4634
8.000000 98.251 -132.2349
8.120000 98.301 -132.9872
8.250000 98.353 -133.7785
8.380000 98.403 -134.5492
8.500000 98.448 -135.2450
8.620000 98.492 -135.9243
8.750000 98.538 -136.6441
8.850000 98.573 -137.1881
9.000000 98.623 -137.9866
9.120000 98.662 -138.6118
9.250000 98.704 -139.2762
9.380000 98.745 -139.9265
9.500000 98.780 -140.5168
9.620000 98.812 -141.0987
9.750000 98.844 -141.7189
9.880000 98.869 -142.3282
10.000000 98.883 -142.8822
10.150000 98.892 -143.5618
10.300000 98.893 -144.2203
10.440000 98.886 -144.8143
10.600000 98.873 -145.4736
10.750000 98.863 -146.0736
10.900000 98.851 -146.6575
11.060000 98.840 -147.2740
11.200000 98.832 -147.8077
11.380000 98.820 -148.4812
11.500000 98.812 -148.9213
11.720000 98.797 -149.7109
11.800000 98.792 -149.9922
12.060000 98.778 -150.8870
12.200000 98.771 -151.3613
12.410000 98.763 -152.0608
12.500000 98.759 -152.3545
12.650000 98.752 -152.8362
12.800000 98.745 -153.3085
13.150000 98.727 -154.3736
13.200000 98.724 -154.5222
13.400000 98.716 -155.1076
13.600000 98.708 -155.6801
13.800000 98.702 -156.2395
14.000000 98.696 -156.7907
14.300000 98.687 -157.6026
14.500000 98.681 -158.1324
14.750000 98.673 -158.7811
15.000000 98.667 -159.4151
15.250000 98.664 -160.0409
15.500000 98.663 -160.6562
15.750000 98.662 -161.2599
16.000000 98.659 -161.8511
16.250000 98.655 -162.4309
16.500000 98.650 -162.9980
16.750000 98.644 -163.5485
17.000000 98.639 -164.0797
17.250000 98.635 -164.5920
17.500000 98.633 -165.0872
17.750000 98.631 -165.5724
18.000000 98.629 -166.0530
18.250000 98.628 -166.5353
18.500000 98.626 -167.0214
18.750000 98.622 -167.5073
19.000000 98.616 -167.9887
19.250000 98.607 -168.4538
19.500000 98.597 -168.8943
19.750000 98.585 -169.3046
20.000000 98.574 -169.6830
20.299999 98.565 -170.1093
20.600000 98.561 -170.5239
20.900000 98.561 -170.9488
21.200001 98.563 -171.4013
21.400000 98.563 -171.7190
21.799999 98.558 -172.3779
22.000000 98.553 -172.7087
22.400000 98.536 -173.3483
22.700001 98.521 -173.7969
23.000000 98.507 -174.2198
23.299999 98.495 -174.6295
23.600000 98.486 -175.0370
24.000000 98.475 -175.5866
24.299999 98.465 -176.0013
24.700001 98.451 -176.5446
25.000000 98.439 -176.9356
25.400000 98.423 -177.4307
25.799999 98.408 -177.9038
26.200001 98.394 -178.3673
26.500000 98.383 -178.7118
26.900000 98.369 -179.1642
27.200001 98.357 -179.4947
27.600000 98.342 -179.9221
28.000000 98.326 179.6601
28.500000 98.306 179.1391
29.000000 98.284 178.6152
29.500000 98.257 178.1007
30.000000 98.226 177.6102
30.400000 98.201 177.2346
30.700001 98.182 176.9581
31.100000 98.158 176.5900
31.500000 98.134 176.2208
32.000000 98.103 175.7651
32.500000 98.072 175.3242
33.000000 98.044 174.8934
33.500000 98.019 174.4603
34.000000 97.994 174.0268
34.500000 97.969 173.6129
35.000000 97.948 173.2289
35.500000 97.933 172.8476
36.000000 97.922 172.4205
36.500000 97.906 171.9326
37.000000 97.874 171.4362
37.500000 97.828 171.0129
38.200001 97.764 170.6077
38.700001 97.731 170.3886
39.500000 97.695 169.9650
40.000000 97.671 169.6412
40.599998 97.635 169.2518
41.200001 97.598 168.8947
41.799999 97.564 168.5462
42.500000 97.526 168.1187
43.099998 97.491 167.7496
43.700001 97.456 167.4007
44.400002 97.417 167.0135
45.000000 97.385 166.6829
45.500000 97.357 166.4094
46.200001 97.318 166.0427
46.799999 97.284 165.7456
47.500000 97.247 165.4058
48.200001 97.209 165.0661
48.700001 97.182 164.8251
49.400002 97.143 164.4915
50.000000 97.109 164.2075
50.799999 97.062 163.8340
51.500000 97.021 163.5183
52.200001 96.980 163.2148
53.000000 96.934 162.8745
53.799999 96.889 162.5339
54.500000 96.849 162.2441
55.200001 96.810 161.9693
56.000000 96.766 161.6647
57.000000 96.708 161.2894
58.000000 96.641 160.9755
59.000000 96.579 160.7759
60.000000 96.533 160.5590
60.799999 96.493 160.3042
61.500000 96.451 160.0801
62.200001 96.408 159.8740
63.000000 96.362 159.6138
64.000000 96.300 159.2602
65.000000 96.237 158.9326
66.000000 96.178 158.6171
67.000000 96.123 158.3355
68.000000 96.074 158.0758
69.000000 96.028 157.8273
70.000000 95.986 157.5456
71.000000 95.930 157.2133
72.000000 95.857 156.9434
73.000000 95.784 156.7827
74.000000 95.724 156.6592
75.000000 95.676 156.4633
76.199997 95.617 156.0939
77.500000 95.525 155.6342
78.800003 95.415 155.4664
80.000000 95.348 155.4576
81.199997 95.295 155.3687
82.500000 95.239 155.2383
83.800003 95.181 155.0603
85.000000 95.122 154.8799
86.199997 95.061 154.7231
87.500000 94.998 154.5724
88.500000 94.950 154.4688
90.000000 94.880 154.3112
91.199997 94.821 154.1819
92.500000 94.757 154.0624
93.800003 94.694 153.9407
95.000000 94.635 153.8193
96.199997 94.575 153.7034
97.500000 94.508 153.5958
98.800003 94.442 153.4979
100.000000 94.383 153.4093
101.500000 94.310 153.3097
103.000000 94.241 153.2147
104.400002 94.176 153.1444
106.000000 94.105 153.0899
107.500000 94.038 153.0392
109.000000 93.970 152.9875
110.599998 93.897 152.9471
112.000000 93.838 152.9184
113.800003 93.763 152.8776
115.000000 93.711 152.8493
117.199997 93.603 152.7842
118.000000 93.562 152.7724
120.599998 93.448 152.7358
122.000000 93.396 152.7118
124.099998 93.319 152.7180
125.000000 93.284 152.7487
126.500000 93.225 152.8327
128.000000 93.170 152.8873
131.500000 93.047 152.8810
132.000000 93.032 152.8756
134.000000 92.968 152.8314
136.000000 92.888 152.8464
138.000000 92.801 152.9358
140.000000 92.714 153.0293
143.000000 92.614 153.0956
145.000000 92.551 153.1163
147.500000 92.473 153.3321
150.000000 92.404 153.6848
152.500000 92.350 153.8065
155.000000 92.288 153.7009
157.500000 92.207 153.8183
160.000000 92.130 154.1760
162.500000 92.042 154.4395
165.000000 91.967 154.5640
167.500000 91.913 154.6566
170.000000 91.855 154.8237
172.500000 91.776 154.9957
175.000000 91.693 155.1514
177.500000 91.623 155.3338
180.000000 91.559 155.5661
182.500000 91.490 155.8250
185.000000 91.418 156.1254
187.500000 91.343 156.4734
190.000000 91.269 156.8263
192.500000 91.210 157.0993
195.000000 91.179 157.2446
197.500000 91.159 157.3363
200.000000 91.133 157.4975
203.000000 91.078 157.7333
206.000000 90.995 157.9644
209.000000 90.921 158.3067
212.000000 90.875 158.6299
214.000000 90.839 158.7623
218.000000 90.765 158.8376
220.000000 90.731 158.8657
224.000000 90.667 159.1358
227.000000 90.602 159.4072
230.000000 90.536 159.7144
233.000000 90.482 160.0154
236.000000 90.428 160.3395
240.000000 90.361 160.8056
243.000000 90.315 161.0559
247.000000 90.248 161.2990
250.000000 90.198 161.5381
254.000000 90.131 161.9550
258.000000 90.067 162.3701
262.000000 90.011 162.7608
265.000000 89.973 163.0580
269.000000 89.917 163.4364
272.000000 89.872 163.7157
276.000000 89.818 164.1061
280.000000 89.767 164.5017
285.000000 89.711 164.9548
290.000000 89.653 165.4496
295.000000 89.598 165.9333
300.000000 89.547 166.3963
304.000000 89.508 166.7831
307.000000 89.479 167.0808
311.000000 89.440 167.4821
315.000000 89.404 167.8704
320.000000 89.360 168.3458
325.000000 89.316 168.8320
330.000000 89.275 169.3123
335.000000 89.236 169.7888
340.000000 89.197 170.2713
345.000000 89.157 170.7529
350.000000 89.118 171.2297
355.000000 89.079 171.7044
360.000000 89.041 172.1833
365.000000 89.004 172.6657
370.000000 88.969 173.1474
375.000000 88.934 173.6296
382.000000 88.887 174.3047
387.000000 88.855 174.7655
395.000000 88.804 175.5140
400.000000 88.773 175.9910
406.000000 88.740 176.5555
412.000000 88.707 177.0991
418.000000 88.675 177.6489
425.000000 88.638 178.3240
431.000000 88.608 178.8982
437.000000 88.580 179.4549
444.000000 88.547 -179.9079
450.000000 88.521 -179.3665
455.000000 88.500 -178.9216
462.000000 88.470 -178.2955
468.000000 88.446 -177.7463
475.000000 88.420 -177.1046
482.000000 88.396 -176.4719
487.000000 88.381 -176.0222
494.000000 88.363 -175.3921
500.000000 88.348 -174.8560
508.000000 88.329 -174.1449
515.000000 88.313 -173.5210
522.000000 88.297 -172.8953
530.000000 88.280 -172.1845
538.000000 88.265 -171.4707
545.000000 88.255 -170.8474
552.000000 88.244 -170.2327
560.000000 88.234 -169.5259
570.000000 88.224 -168.6357
580.000000 88.217 -167.7586
590.000000 88.210 -166.8787
600.000000 88.206 -165.9948
608.000000 88.201 -165.2911
615.000000 88.196 -164.6797
622.000000 88.192 -164.0681
630.000000 88.189 -163.3688
640.000000 88.186 -162.4943
650.000000 88.186 -161.6167
660.000000 88.188 -160.7410
670.000000 88.191 -159.8724
680.000000 88.198 -159.0030
690.000000 88.208 -158.1323
700.000000 88.219 -157.2631
710.000000 88.232 -156.3908
720.000000 88.248 -155.5219
730.000000 88.265 -154.6588
740.000000 88.285 -153.7946
750.000000 88.308 -152.9283
762.000000 88.337 -151.8948
775.000000 88.371 -150.7861
788.000000 88.408 -149.6817
800.000000 88.446 -148.6721
812.000000 88.487 -147.6661
825.000000 88.536 -146.5815
838.000000 88.587 -145.5073
850.000000 88.638 -144.5364
862.000000 88.694 -143.5865
875.000000 88.759 -142.5645
885.000000 88.810 -141.7909
900.000000 88.890 -140.6591
912.000000 88.957 -139.7716
925.000000 89.034 -138.8339
938.000000 89.114 -137.9269
950.000000 89.188 -137.1126
962.000000 89.263 -136.3173
975.000000 89.344 -135.4863
988.000000 89.425 -134.6857
1000.000000 89.502 -133.9663
1015.000000 89.599 -133.0986
1030.000000 89.697 -132.2703
1044.000000 89.789 -131.5267
1060.000000 89.894 -130.7087
1075.000000 89.992 -129.9737
1090.000000 90.096 -129.2758
1106.000000 90.215 -128.5637
1120.000000 90.322 -127.9620
1138.000000 90.458 -127.2241
1150.000000 90.547 -126.7507
1172.000000 90.708 -125.9089
1180.000000 90.767 -125.6125
1206.000000 90.963 -124.7125
1220.000000 91.069 -124.2478
1241.000000 91.223 -123.5543
1250.000000 91.287 -123.2665
1265.000000 91.391 -122.7978
1280.000000 91.493 -122.3349
1315.000000 91.724 -121.2790
1320.000000 91.756 -121.1298
1340.000000 91.876 -120.5336
1360.000000 91.977 -119.9427
1380.000000 92.075 -119.3611
1400.000000 92.187 -118.7835
1430.000000 92.361 -117.9258
1450.000000 92.477 -117.3583
1475.000000 92.621 -116.6539
1500.000000 92.763 -115.9619
1525.000000 92.904 -115.2809
1550.000000 93.040 -114.6055
1575.000000 93.175 -113.9430
1600.000000 93.310 -113.2899
1625.000000 93.444 -112.6455
1650.000000 93.579 -112.0169
1675.000000 93.714 -111.4000
1700.000000 93.850 -110.7933
1725.000000 93.986 -110.2021
1750.000000 94.122 -109.6280
1775.000000 94.258 -109.0681
1800.000000 94.395 -108.5250
1825.000000 94.533 -108.0038
1850.000000 94.673 -107.5003
1875.000000 94.813 -107.0160
1900.000000 94.953 -106.5551
1925.000000 95.095 -106.1188
1950.000000 95.236 -105.7060
1975.000000 95.378 -105.3194
2000.000000 95.520 -104.9599
2030.000000 95.691 -104.5661
2060.000000 95.862 -104.2106
2090.000000 96.032 -103.8980
2120.000000 96.202 -103.6325
2140.000000 96.315 -103.4799
2180.000000 96.539 -103.2327
2200.000000 96.647 -103.1408
2240.000000 96.859 -103.0141
2270.000000 97.013 -102.9706
2300.000000 97.164 -102.9718
2330.000000 97.311 -103.0153
2360.000000 97.452 -103.0973
2400.000000 97.634 -103.2625
2430.000000 97.763 -103.4247
2470.000000 97.925 -103.6846
2500.000000 98.040 -103.9069
2540.000000 98.186 -104.2372
2580.000000 98.322 -104.6117
2620.000000 98.448 -105.0414
2650.000000 98.534 -105.4034
2690.000000 98.635 -105.9238
2720.000000 98.698 -106.3301
2760.000000 98.767 -106.8787
2800.000000 98.819 -107.4182
2850.000000 98.863 -108.0580
2900.000000 98.887 -108.6505
2950.000000 98.892 -109.1824
3000.000000 98.879 -109.6365
3040.000000 98.860 -109.9435
3070.000000 98.840 -110.1377
3110.000000 98.808 -110.3459
3150.000000 98.770 -110.4943
3200.000000 98.717 -110.6022
3250.000000 98.661 -110.6288
3300.000000 98.600 -110.5844
3350.000000 98.537 -110.4790
3400.000000 98.474 -110.3110
3450.000000 98.412 -110.0740
3500.000000 98.353 -109.7686
3550.000000 98.297 -109.4009
3600.000000 98.243 -108.9726
3650.000000 98.191 -108.4886
3700.000000 98.142 -107.9594
3750.000000 98.097 -107.3903
3820.000000 98.038 -106.5327
3870.000000 97.999 -105.8890
3950.000000 97.943 -104.8136
4000.000000 97.912 -104.1213
4060.000000 97.882 -103.2787
4120.000000 97.858 -102.4284
4180.000000 97.841 -101.5787
4250.000000 97.829 -100.6026
4310.000000 97.820 -99.7909
4370.000000 97.809 -99.0107
4440.000000 97.793 -98.1475
4500.000000 97.780 -97.4519
4550.000000 97.770 -96.9064
4620.000000 97.755 -96.1932
4680.000000 97.738 -95.6267
4750.000000 97.712 -95.0066
4820.000000 97.678 -94.4087
4870.000000 97.651 -93.9864
4940.000000 97.610 -93.4037
5000.000000 97.573 -92.9246
5080.000000 97.519 -92.3347
5150.000000 97.461 -91.8679
5220.000000 97.391 -91.4328
5300.000000 97.293 -90.9401
5380.000000 97.177 -90.4195
5450.000000 97.063 -89.9222
5520.000000 96.937 -89.3726
5600.000000 96.777 -88.6610
5700.000000 96.554 -87.5904
5800.000000 96.313 -86.2334
5900.000000 96.072 -84.5427
6000.000000 95.851 -82.5657
6080.000000 95.694 -80.8295
6150.000000 95.574 -79.2288
6220.000000 95.469 -77.5699
6300.000000 95.367 -75.6122
6400.000000 95.268 -73.0825
6500.000000 95.203 -70.4827
6600.000000 95.177 -67.8563
6700.000000 95.192 -65.2596
6800.000000 95.255 -62.7464
6900.000000 95.376 -60.3545
7000.000000 95.556 -58.1082
7100.000000 95.781 -56.0370
7200.000000 96.047 -54.2017
7300.000000 96.352 -52.6941
7400.000000 96.688 -51.6070
7500.000000 97.051 -51.0259
7620.000000 97.517 -51.1192
7750.000000 98.016 -52.3663
7880.000000 98.366 -54.9299
8000.000000 98.508 -58.4001
8120.000000 98.439 -62.6278
8250.000000 98.086 -67.4494
8380.000000 97.442 -71.7277
8500.000000 96.634 -74.6071
8620.000000 95.685 -76.1751
8750.000000 94.574 -76.3634
8850.000000 93.704 -75.5443
9000.000000 92.435 -73.0273
9120.000000 91.474 -70.1268
9250.000000 90.497 -66.2899
9380.000000 89.591 -61.8825
9500.000000 88.823 -57.4102
9620.000000 88.119 -52.6207
9750.000000 87.428 -47.1367
9880.000000 86.809 -41.4040
10000.000000 86.297 -35.9346
10150.000000 85.731 -28.9066
10300.000000 85.241 -21.7096
10440.000000 84.852 -14.8799
10600.000000 84.484 -6.9824
10750.000000 84.214 0.4786
10900.000000 84.015 7.9667
11060.000000 83.884 15.9496
11200.000000 83.838 22.8952
11380.000000 83.869 31.7293
11500.000000 83.944 37.5321
11720.000000 84.198 47.9162
11800.000000 84.326 51.5939
12060.000000 84.867 63.1241
12200.000000 85.233 69.0490
12410.000000 85.883 77.5260
12500.000000 86.205 80.9827
12650.000000 86.811 86.4474
12800.000000 87.509 91.4407
13150.000000 89.510 100.3008
13200.000000 89.835 101.1198
13400.000000 91.192 102.8103
13600.000000 92.517 101.3325
13800.000000 93.564 96.2541
14000.000000 94.076 88.4524
14300.000000 93.659 76.9812
14500.000000 92.817 72.5378
14750.000000 91.574 71.1687
15000.000000 90.447 73.1314
15250.000000 89.614 76.9181
15500.000000 89.180 81.2073
15750.000000 89.136 84.4372
16000.000000 89.236 85.1026
16250.000000 89.129 82.9723
16500.000000 88.564 79.6053
16750.000000 87.513 77.2651
17000.000000 86.135 77.3487
17250.000000 84.641 79.9971
17500.000000 83.201 84.6710
17750.000000 81.896 90.6753
18000.000000 80.734 97.3331
18250.000000 79.649 104.2067
18500.000000 78.503 111.9062
18750.000000 77.333 122.1421
19000.000000 76.559 134.3709
19250.000000 76.303 145.3374
19500.000000 76.174 153.6805
19750.000000 75.919 159.9761
20000.000000 75.384 164.9649
20300.000000 74.310 170.2823
20600.000000 72.838 176.3338
20900.000000 71.031 -175.6335
21200.000000 69.051 -165.5643
21400.000000 67.709 -158.4176
21800.000000 64.717 -152.5731
22000.000000 62.585 178.0996
22400.000000 55.806 175.8004
22700.000000 48.616 -135.1152
23000.000000 40.451 112.9043
23300.000000 33.962 115.2207
23600.000000 31.899 150.8672
24000.000000 31.342 113.5547
