* Measurement data measured by REW V5.20.13
* Source: Headset (DS by VECLAN.COM), MICROPHONE (Master Volume), L, volume: 0.720. Timing signal peak level -14.6 dBFS, measurement signal peak level -14.0 dBFS
* Format: 2M Log Swept Sine, 1 sweep at -12.0 dBFS using an acoustic timing reference
* Dated: Feb 16, 2024 12:41:42 AM
* REW Settings:
*  C-weighting compensation: Off
*  Target level: 75.0 dB
* Note: ; Delay -0.0680 ms (-23 mm, -0.92 in) using estimated IR delay relative to Acoustic reference played from HEADPHONE R with no timing offset
* Measurement: Simgot EA500 Red R
* Smoothing: 1/24 octave
* Frequency Step: 1/48 octave
* Start Frequency: 1.000 Hz
*
* Freq(Hz) SPL(dB) Phase(degrees)
1.000000 69.700 -22.7188
1.015000 69.918 -23.5750
1.030000 70.136 -24.4171
1.044000 70.339 -25.1873
1.060000 70.570 -26.0452
1.075000 70.786 -26.8244
1.090000 71.001 -27.5758
1.106000 71.229 -28.3476
1.120000 71.432 -29.0223
1.138000 71.698 -29.8946
1.150000 71.878 -30.4780
1.172000 72.213 -31.5489
1.180000 72.337 -31.9381
1.206000 72.741 -33.1985
1.220000 72.960 -33.8725
1.241000 73.290 -34.8743
1.250000 73.432 -35.2994
1.265000 73.667 -36.0013
1.280000 73.902 -36.6935
1.315000 74.444 -38.2636
1.320000 74.520 -38.4820
1.340000 74.823 -39.3386
1.360000 75.119 -40.1658
1.380000 75.408 -40.9602
1.400000 75.689 -41.7184
1.430000 76.092 -42.7809
1.450000 76.346 -43.4344
1.475000 76.647 -44.1825
1.500000 76.933 -44.8414
1.525000 77.205 -45.4177
1.550000 77.465 -45.9217
1.575000 77.714 -46.3636
1.600000 77.953 -46.7538
1.625000 78.183 -47.1026
1.650000 78.405 -47.4203
1.675000 78.620 -47.7174
1.700000 78.829 -48.0040
1.725000 79.033 -48.2906
1.750000 79.233 -48.5875
1.775000 79.430 -48.9049
1.800000 79.625 -49.2533
1.825000 79.820 -49.6429
1.850000 80.013 -50.0711
1.875000 80.198 -50.5111
1.900000 80.377 -50.9600
1.925000 80.549 -51.4161
1.950000 80.716 -51.8777
1.975000 80.879 -52.3432
2.000000 81.038 -52.8109
2.030000 81.224 -53.3726
2.060000 81.407 -53.9321
2.090000 81.588 -54.4865
2.120000 81.767 -55.0330
2.140000 81.887 -55.3914
2.180000 82.129 -56.0904
2.200000 82.252 -56.4291
2.240000 82.498 -57.0875
2.270000 82.681 -57.5677
2.300000 82.864 -58.0383
2.330000 83.045 -58.5011
2.360000 83.225 -58.9580
2.400000 83.461 -59.5612
2.430000 83.636 -60.0116
2.470000 83.864 -60.6129
2.500000 84.032 -61.0669
2.540000 84.250 -61.6798
2.580000 84.461 -62.3042
2.620000 84.666 -62.9329
2.650000 84.816 -63.4058
2.690000 85.010 -64.0379
2.720000 85.153 -64.5132
2.760000 85.339 -65.1484
2.800000 85.521 -65.7851
2.850000 85.744 -66.5830
2.900000 85.961 -67.3828
2.950000 86.175 -68.1852
3.000000 86.383 -68.9974
3.040000 86.546 -69.6525
3.070000 86.666 -70.1454
3.110000 86.822 -70.8026
3.150000 86.975 -71.4576
3.200000 87.161 -72.2692
3.250000 87.343 -73.0686
3.300000 87.519 -73.8509
3.350000 87.690 -74.6148
3.400000 87.854 -75.3644
3.450000 88.014 -76.1031
3.500000 88.168 -76.8341
3.550000 88.319 -77.5610
3.600000 88.465 -78.2871
3.650000 88.607 -79.0158
3.700000 88.747 -79.7506
3.750000 88.881 -80.4911
3.820000 89.062 -81.5294
3.870000 89.187 -82.2662
3.950000 89.380 -83.4250
4.000000 89.497 -84.1299
4.060000 89.633 -84.9500
4.120000 89.764 -85.7457
4.180000 89.890 -86.5220
4.250000 90.032 -87.4089
4.310000 90.149 -88.1581
4.370000 90.263 -88.9018
4.440000 90.393 -89.7669
4.500000 90.500 -90.5034
4.550000 90.586 -91.1115
4.620000 90.703 -91.9511
4.680000 90.800 -92.6572
4.750000 90.911 -93.4613
4.820000 91.019 -94.2416
4.870000 91.094 -94.7856
4.940000 91.195 -95.5312
5.000000 91.280 -96.1576
5.080000 91.390 -96.9783
5.150000 91.484 -97.6860
5.220000 91.575 -98.3814
5.300000 91.676 -99.1603
5.380000 91.775 -99.9231
5.450000 91.859 -100.5779
5.520000 91.942 -101.2213
5.600000 92.034 -101.9404
5.700000 92.145 -102.8172
5.800000 92.254 -103.6739
5.900000 92.360 -104.5142
6.000000 92.464 -105.3347
6.080000 92.544 -105.9781
6.150000 92.613 -106.5336
6.220000 92.681 -107.0835
6.300000 92.758 -107.7053
6.400000 92.851 -108.4705
6.500000 92.941 -109.2225
6.600000 93.029 -109.9612
6.700000 93.115 -110.6858
6.800000 93.199 -111.3970
6.900000 93.281 -112.0962
7.000000 93.360 -112.7848
7.100000 93.438 -113.4628
7.200000 93.513 -114.1291
7.300000 93.587 -114.7829
7.400000 93.658 -115.4237
7.500000 93.728 -116.0518
7.620000 93.810 -116.7892
7.750000 93.895 -117.5683
7.880000 93.978 -118.3264
8.000000 94.052 -119.0082
8.120000 94.125 -119.6731
8.250000 94.202 -120.3735
8.380000 94.278 -121.0560
8.500000 94.346 -121.6720
8.620000 94.413 -122.2734
8.750000 94.483 -122.9112
8.850000 94.537 -123.3939
9.000000 94.615 -124.1031
9.120000 94.677 -124.6594
9.250000 94.743 -125.2523
9.380000 94.808 -125.8341
9.500000 94.865 -126.3632
9.620000 94.919 -126.8859
9.750000 94.973 -127.4442
9.880000 95.020 -127.9919
10.000000 95.054 -128.4891
10.150000 95.086 -129.0976
10.300000 95.111 -129.6819
10.440000 95.125 -130.2039
10.600000 95.137 -130.7775
10.750000 95.149 -131.2925
10.900000 95.160 -131.7880
11.060000 95.174 -132.3085
11.200000 95.187 -132.7562
11.380000 95.205 -133.3211
11.500000 95.216 -133.6906
11.720000 95.238 -134.3570
11.800000 95.246 -134.5966
12.060000 95.274 -135.3665
12.200000 95.290 -135.7808
12.410000 95.315 -136.3984
12.500000 95.325 -136.6585
12.650000 95.339 -137.0873
12.800000 95.353 -137.5073
13.150000 95.380 -138.4460
13.200000 95.384 -138.5755
13.400000 95.400 -139.0815
13.600000 95.417 -139.5713
13.800000 95.436 -140.0448
14.000000 95.456 -140.5123
14.300000 95.487 -141.2068
14.500000 95.508 -141.6689
14.750000 95.533 -142.2458
15.000000 95.559 -142.8216
15.250000 95.585 -143.3968
15.500000 95.611 -143.9603
15.750000 95.636 -144.5063
16.000000 95.659 -145.0273
16.250000 95.682 -145.5277
16.500000 95.705 -146.0108
16.750000 95.730 -146.4814
17.000000 95.758 -146.9475
17.250000 95.787 -147.4121
17.500000 95.816 -147.8791
17.750000 95.843 -148.3445
18.000000 95.868 -148.8036
18.250000 95.890 -149.2509
18.500000 95.911 -149.6776
18.750000 95.932 -150.0835
19.000000 95.955 -150.4691
19.250000 95.979 -150.8445
19.500000 96.006 -151.2186
19.750000 96.033 -151.5983
20.000000 96.060 -151.9916
20.299999 96.088 -152.4773
20.600000 96.110 -152.9667
20.900000 96.125 -153.4404
21.200001 96.135 -153.8766
21.400000 96.140 -154.1396
21.799999 96.151 -154.6071
22.000000 96.160 -154.8220
22.400000 96.183 -155.2482
22.700001 96.205 -155.5917
23.000000 96.227 -155.9700
23.299999 96.245 -156.3763
23.600000 96.258 -156.7918
24.000000 96.267 -157.3233
24.299999 96.271 -157.6841
24.700001 96.279 -158.1156
25.000000 96.290 -158.4234
25.400000 96.309 -158.8514
25.799999 96.330 -159.3278
26.200001 96.343 -159.8408
26.500000 96.346 -160.2204
26.900000 96.345 -160.6812
27.200001 96.342 -160.9789
27.600000 96.344 -161.3217
28.000000 96.353 -161.6395
28.500000 96.373 -162.0558
29.000000 96.395 -162.5094
29.500000 96.414 -162.9779
30.000000 96.431 -163.4412
30.400000 96.442 -163.8060
30.700001 96.449 -164.0758
31.100000 96.458 -164.4285
31.500000 96.466 -164.7717
32.000000 96.474 -165.1885
32.500000 96.480 -165.5844
33.000000 96.483 -165.9386
33.500000 96.490 -166.2510
34.000000 96.506 -166.5724
34.500000 96.520 -166.9521
35.000000 96.520 -167.3460
35.500000 96.508 -167.6270
36.000000 96.506 -167.7478
36.500000 96.535 -167.8441
37.000000 96.587 -168.1321
37.500000 96.626 -168.6710
38.200001 96.620 -169.5336
38.700001 96.587 -169.9841
39.500000 96.545 -170.4223
40.000000 96.532 -170.6532
40.599998 96.524 -170.9261
41.200001 96.523 -171.1937
41.799999 96.530 -171.5099
42.500000 96.530 -171.9491
43.099998 96.519 -172.2820
43.700001 96.513 -172.5345
44.400002 96.521 -172.8447
45.000000 96.528 -173.2164
45.500000 96.520 -173.5671
46.200001 96.489 -173.9811
46.799999 96.462 -174.1888
47.500000 96.453 -174.3422
48.200001 96.469 -174.5726
48.700001 96.483 -174.8231
49.400002 96.493 -175.2343
50.000000 96.496 -175.5766
50.799999 96.496 -175.9838
51.500000 96.499 -176.3002
52.200001 96.503 -176.5957
53.000000 96.507 -176.9330
53.799999 96.504 -177.2511
54.500000 96.497 -177.4928
55.200001 96.491 -177.7278
56.000000 96.479 -178.0004
57.000000 96.464 -178.3338
58.000000 96.445 -178.7540
59.000000 96.408 -179.1128
60.000000 96.395 -179.3462
60.799999 96.401 -179.6411
61.500000 96.398 -179.9411
62.200001 96.394 179.7965
63.000000 96.393 179.5010
64.000000 96.385 179.1143
65.000000 96.369 178.8063
66.000000 96.358 178.5230
67.000000 96.342 178.2183
68.000000 96.320 177.9582
69.000000 96.309 177.7262
70.000000 96.303 177.3928
71.000000 96.283 177.0481
72.000000 96.266 176.7946
73.000000 96.257 176.5232
74.000000 96.241 176.2276
75.000000 96.213 175.9458
76.199997 96.166 175.7236
77.500000 96.133 175.5394
78.800003 96.108 175.2033
80.000000 96.076 174.7968
81.199997 96.039 174.4390
82.500000 96.006 174.1258
83.800003 95.984 173.9298
85.000000 95.980 173.7526
86.199997 95.970 173.5388
87.500000 95.953 173.3522
88.500000 95.942 173.2016
90.000000 95.923 172.9141
91.199997 95.901 172.6414
92.500000 95.865 172.3698
93.800003 95.830 172.1732
95.000000 95.802 171.9976
96.199997 95.777 171.8149
97.500000 95.753 171.5781
98.800003 95.723 171.3052
100.000000 95.689 171.1073
101.500000 95.661 170.9534
103.000000 95.644 170.7391
104.400002 95.620 170.5058
106.000000 95.583 170.2533
107.500000 95.542 170.0294
109.000000 95.493 169.8264
110.599998 95.448 169.6937
112.000000 95.426 169.4934
113.800003 95.381 169.1114
115.000000 95.345 168.9411
117.199997 95.291 168.7192
118.000000 95.270 168.6706
120.599998 95.221 168.7150
122.000000 95.217 168.6373
124.099998 95.181 168.2361
125.000000 95.147 168.0483
126.500000 95.079 167.8446
128.000000 95.023 167.7411
131.500000 94.943 167.3586
132.000000 94.935 167.3021
134.000000 94.904 167.1184
136.000000 94.870 167.0869
138.000000 94.856 167.1796
140.000000 94.844 167.0172
143.000000 94.776 166.7077
145.000000 94.727 166.5813
147.500000 94.659 166.4712
150.000000 94.589 166.4170
152.500000 94.543 166.2691
155.000000 94.501 166.0319
157.500000 94.447 165.9362
160.000000 94.403 165.9459
162.500000 94.361 165.8883
165.000000 94.312 165.8866
167.500000 94.264 165.8619
170.000000 94.196 165.6512
172.500000 94.125 165.4740
175.000000 94.098 165.5231
177.500000 94.087 165.6432
180.000000 94.035 165.8140
182.500000 93.954 166.0481
185.000000 93.905 166.1758
187.500000 93.863 166.0064
190.000000 93.799 165.8881
192.500000 93.753 165.9087
195.000000 93.732 165.8922
197.500000 93.708 165.9061
200.000000 93.671 166.0210
203.000000 93.607 166.0450
206.000000 93.536 165.8676
209.000000 93.497 165.7503
212.000000 93.450 165.8359
214.000000 93.405 165.9984
218.000000 93.342 166.1589
220.000000 93.320 166.1600
224.000000 93.251 166.2243
227.000000 93.192 166.2525
230.000000 93.143 166.2907
233.000000 93.094 166.4426
236.000000 93.041 166.6027
240.000000 92.977 166.7353
243.000000 92.933 166.8087
247.000000 92.872 166.9065
250.000000 92.825 167.0749
254.000000 92.758 167.3573
258.000000 92.689 167.5789
262.000000 92.638 167.7253
265.000000 92.606 167.8593
269.000000 92.567 168.1219
272.000000 92.525 168.3328
276.000000 92.459 168.5076
280.000000 92.413 168.6190
285.000000 92.377 168.9846
290.000000 92.313 169.3385
295.000000 92.246 169.6059
300.000000 92.184 169.7917
304.000000 92.142 170.0020
307.000000 92.106 170.1802
311.000000 92.063 170.4141
315.000000 92.028 170.6475
320.000000 91.984 170.9396
325.000000 91.935 171.2384
330.000000 91.887 171.5482
335.000000 91.842 171.8831
340.000000 91.795 172.2272
345.000000 91.748 172.5679
350.000000 91.700 172.9073
355.000000 91.654 173.2389
360.000000 91.609 173.5771
365.000000 91.564 173.9399
370.000000 91.519 174.3054
375.000000 91.475 174.6674
382.000000 91.416 175.1801
387.000000 91.376 175.5419
395.000000 91.312 176.1118
400.000000 91.272 176.4664
406.000000 91.226 176.9097
412.000000 91.180 177.3726
418.000000 91.137 177.8344
425.000000 91.090 178.3678
431.000000 91.051 178.8296
437.000000 91.013 179.2975
444.000000 90.970 179.8409
450.000000 90.933 -179.7015
455.000000 90.903 -179.3216
462.000000 90.862 -178.7733
468.000000 90.829 -178.3022
475.000000 90.791 -177.7635
482.000000 90.757 -177.2197
487.000000 90.735 -176.8216
494.000000 90.706 -176.2600
500.000000 90.682 -175.7754
508.000000 90.651 -175.1470
515.000000 90.622 -174.6005
522.000000 90.594 -174.0359
530.000000 90.564 -173.3830
538.000000 90.538 -172.7366
545.000000 90.517 -172.1866
552.000000 90.499 -171.6262
560.000000 90.479 -170.9648
570.000000 90.451 -170.1342
580.000000 90.424 -169.3084
590.000000 90.401 -168.4735
600.000000 90.381 -167.6500
608.000000 90.367 -166.9838
615.000000 90.354 -166.3916
622.000000 90.341 -165.8026
630.000000 90.327 -165.1278
640.000000 90.312 -164.2779
650.000000 90.301 -163.4267
660.000000 90.291 -162.5715
670.000000 90.284 -161.7102
680.000000 90.280 -160.8488
690.000000 90.279 -159.9867
700.000000 90.281 -159.1205
710.000000 90.286 -158.2453
720.000000 90.293 -157.3662
730.000000 90.303 -156.4890
740.000000 90.317 -155.6031
750.000000 90.335 -154.7103
762.000000 90.362 -153.6501
775.000000 90.396 -152.5305
788.000000 90.434 -151.4225
800.000000 90.472 -150.4240
812.000000 90.512 -149.4460
825.000000 90.557 -148.4057
838.000000 90.606 -147.3736
850.000000 90.651 -146.4160
862.000000 90.700 -145.4508
875.000000 90.761 -144.4232
885.000000 90.810 -143.6607
900.000000 90.886 -142.5114
912.000000 90.951 -141.5905
925.000000 91.025 -140.6367
938.000000 91.106 -139.7161
950.000000 91.182 -138.8721
962.000000 91.257 -138.0488
975.000000 91.340 -137.1835
988.000000 91.426 -136.3455
1000.000000 91.506 -135.5963
1015.000000 91.609 -134.6967
1030.000000 91.713 -133.8396
1044.000000 91.813 -133.0811
1060.000000 91.927 -132.2482
1075.000000 92.036 -131.4976
1090.000000 92.149 -130.7875
1106.000000 92.279 -130.0741
1120.000000 92.394 -129.4794
1138.000000 92.542 -128.7603
1150.000000 92.640 -128.3013
1172.000000 92.816 -127.4870
1180.000000 92.879 -127.2047
1206.000000 93.083 -126.3418
1220.000000 93.195 -125.8950
1241.000000 93.365 -125.2522
1250.000000 93.437 -124.9880
1265.000000 93.555 -124.5580
1280.000000 93.670 -124.1380
1315.000000 93.935 -123.2016
1320.000000 93.971 -123.0713
1340.000000 94.111 -122.5612
1360.000000 94.231 -122.0703
1380.000000 94.349 -121.5904
1400.000000 94.479 -121.1234
1430.000000 94.680 -120.4479
1450.000000 94.814 -120.0079
1475.000000 94.979 -119.4716
1500.000000 95.143 -118.9569
1525.000000 95.304 -118.4550
1550.000000 95.460 -117.9705
1575.000000 95.614 -117.5055
1600.000000 95.767 -117.0519
1625.000000 95.921 -116.6212
1650.000000 96.075 -116.2136
1675.000000 96.230 -115.8251
1700.000000 96.385 -115.4601
1725.000000 96.541 -115.1230
1750.000000 96.695 -114.8115
1775.000000 96.850 -114.5302
1800.000000 97.006 -114.2833
1825.000000 97.160 -114.0653
1850.000000 97.316 -113.8830
1875.000000 97.471 -113.7402
1900.000000 97.626 -113.6330
1925.000000 97.780 -113.5651
1950.000000 97.932 -113.5409
1975.000000 98.083 -113.5608
2000.000000 98.232 -113.6232
2030.000000 98.407 -113.7549
2060.000000 98.578 -113.9534
2090.000000 98.744 -114.2134
2120.000000 98.905 -114.5391
2140.000000 99.009 -114.7933
2180.000000 99.206 -115.3771
2200.000000 99.297 -115.7067
2240.000000 99.464 -116.4448
2270.000000 99.578 -117.0532
2300.000000 99.678 -117.7010
2330.000000 99.767 -118.3866
2360.000000 99.844 -119.1051
2400.000000 99.925 -120.0827
2430.000000 99.970 -120.8221
2470.000000 100.010 -121.8101
2500.000000 100.025 -122.5323
2540.000000 100.026 -123.4586
2580.000000 100.010 -124.3530
2620.000000 99.976 -125.2069
2650.000000 99.937 -125.8140
2690.000000 99.868 -126.5652
2720.000000 99.804 -127.0741
2760.000000 99.704 -127.6656
2800.000000 99.589 -128.1461
2850.000000 99.432 -128.5907
2900.000000 99.264 -128.8602
2950.000000 99.090 -128.9645
3000.000000 98.912 -128.9174
3040.000000 98.769 -128.7847
3070.000000 98.661 -128.6301
3110.000000 98.518 -128.3529
3150.000000 98.375 -127.9966
3200.000000 98.200 -127.4416
3250.000000 98.029 -126.7721
3300.000000 97.863 -126.0009
3350.000000 97.705 -125.1369
3400.000000 97.555 -124.1902
3450.000000 97.419 -123.1700
3500.000000 97.294 -122.0801
3550.000000 97.181 -120.9319
3600.000000 97.076 -119.7310
3650.000000 96.981 -118.4831
3700.000000 96.894 -117.1953
3750.000000 96.817 -115.8745
3820.000000 96.722 -113.9760
3870.000000 96.663 -112.5936
3950.000000 96.582 -110.3456
4000.000000 96.542 -108.9231
4060.000000 96.506 -107.2099
4120.000000 96.482 -105.4931
4180.000000 96.470 -103.7786
4250.000000 96.470 -101.7920
4310.000000 96.480 -100.1061
4370.000000 96.493 -98.4426
4440.000000 96.517 -96.5416
4500.000000 96.549 -94.9606
4550.000000 96.583 -93.6778
4620.000000 96.641 -91.9377
4680.000000 96.699 -90.5033
4750.000000 96.777 -88.8991
4820.000000 96.864 -87.3630
4870.000000 96.933 -86.3134
4940.000000 97.041 -84.9259
5000.000000 97.143 -83.8347
5080.000000 97.288 -82.5581
5150.000000 97.417 -81.6314
5220.000000 97.539 -80.8743
5300.000000 97.665 -80.1767
5380.000000 97.775 -79.6019
5450.000000 97.866 -79.2030
5520.000000 97.948 -78.9607
5600.000000 98.012 -78.8710
5700.000000 98.027 -78.8375
5800.000000 97.987 -78.6798
5900.000000 97.914 -78.3299
6000.000000 97.822 -77.8156
6080.000000 97.740 -77.3144
6150.000000 97.661 -76.8103
6220.000000 97.576 -76.2338
6300.000000 97.472 -75.4640
6400.000000 97.339 -74.3133
6500.000000 97.213 -72.9517
6600.000000 97.104 -71.4142
6700.000000 97.021 -69.7551
6800.000000 96.973 -68.0230
6900.000000 96.976 -66.2591
7000.000000 97.032 -64.4902
7100.000000 97.132 -62.7496
7200.000000 97.274 -61.0913
7300.000000 97.458 -59.5944
7400.000000 97.689 -58.3380
7500.000000 97.971 -57.4089
7620.000000 98.398 -56.9461
7750.000000 98.943 -57.7592
7880.000000 99.383 -60.5507
8000.000000 99.564 -64.8965
8120.000000 99.445 -70.2497
8250.000000 98.940 -76.0271
8380.000000 98.094 -80.6786
8500.000000 97.100 -83.4122
8620.000000 95.994 -84.5311
8750.000000 94.749 -84.0779
8850.000000 93.804 -82.7394
9000.000000 92.455 -79.4701
9120.000000 91.449 -76.0128
9250.000000 90.439 -71.6327
9380.000000 89.513 -66.7491
9500.000000 88.730 -61.8936
9620.000000 88.012 -56.7679
9750.000000 87.305 -50.9605
9880.000000 86.670 -44.9296
10000.000000 86.140 -39.1989
10150.000000 85.548 -31.8513
10300.000000 85.030 -24.3379
10440.000000 84.610 -17.2051
10600.000000 84.202 -8.9332
10750.000000 83.887 -1.0776
10900.000000 83.640 6.8564
11060.000000 83.454 15.3815
11200.000000 83.354 22.8761
11380.000000 83.313 32.5515
11500.000000 83.339 39.0208
11720.000000 83.509 50.9093
11800.000000 83.612 55.2376
12060.000000 84.109 69.3112
12200.000000 84.489 76.8843
12410.000000 85.237 88.2061
12500.000000 85.640 93.0260
12650.000000 86.452 100.9558
12800.000000 87.489 108.6107
13150.000000 91.056 123.0151
13200.000000 91.696 124.2656
13400.000000 94.416 125.6756
13600.000000 96.950 119.2584
13800.000000 98.568 103.9584
14000.000000 98.742 84.6981
14300.000000 96.721 65.9786
14500.000000 94.876 63.0685
14750.000000 92.976 65.6220
15000.000000 91.778 70.9870
15250.000000 91.225 76.6496
15500.000000 91.228 80.8127
15750.000000 91.565 81.7185
16000.000000 91.776 78.3007
16250.000000 91.394 71.7941
16500.000000 90.221 65.8850
16750.000000 88.435 63.8278
17000.000000 86.410 66.3092
17250.000000 84.464 72.3476
17500.000000 82.771 80.7402
17750.000000 81.385 90.5969
18000.000000 80.302 101.3166
18250.000000 79.513 112.4592
18500.000000 79.009 123.6359
18750.000000 78.786 134.4303
19000.000000 78.819 144.2986
19250.000000 79.033 152.5137
19500.000000 79.291 158.2032
19750.000000 79.388 160.7507
20000.000000 79.014 160.6630
20300.000000 77.735 160.0561
20600.000000 75.721 162.6938
20900.000000 73.333 169.6599
21200.000000 70.925 179.0999
21400.000000 69.388 -174.9661
21800.000000 66.045 176.7179
22000.000000 63.696 106.3086
22400.000000 56.389 -44.3284
22700.000000 48.718 23.5542
23000.000000 40.118 -1.7188
23300.000000 33.602 -144.8418
23600.000000 31.666 -93.9375
24000.000000 31.103 -145.9492
