* Measurement data measured by REW V5.20.13
* Source: Headset (DS by VECLAN.COM), MICROPHONE (Master Volume), L, volume: 0.710. Timing signal peak level -9.1 dBFS, measurement signal peak level -9.2 dBFS
* Format: 2M Log Swept Sine, 1 sweep at -12.0 dBFS using an acoustic timing reference
* Dated: Nov 12, 2023 5:46:56 PM
* REW Settings:
*  C-weighting compensation: Off
*  Target level: 75.0 dB
* Note: ; Delay -0.0661 ms (-23 mm, -0.89 in) using estimated IR delay relative to Acoustic reference played from HEADPHONE R with no timing offset
* Measurement: Black R
* Smoothing: 1/24 octave
* Frequency Step: 1/48 octave
* Start Frequency: 1.000 Hz
*
* Freq(Hz) SPL(dB) Phase(degrees)
1.000000 68.667 -51.1959
1.015000 69.020 -48.4763
1.030000 69.367 -45.9202
1.044000 69.683 -43.6955
1.060000 70.033 -41.3596
1.075000 70.348 -39.3858
1.090000 70.651 -37.6367
1.106000 70.958 -36.7387
1.120000 71.225 -36.7439
1.138000 71.567 -36.7575
1.150000 71.795 -36.7705
1.172000 72.211 -36.8015
1.180000 72.362 -36.8148
1.206000 72.848 -36.8643
1.220000 73.108 -36.8942
1.241000 73.494 -36.9424
1.250000 73.657 -36.9640
1.265000 73.928 -37.0007
1.280000 74.195 -37.0380
1.315000 74.805 -37.1244
1.320000 74.890 -37.1364
1.340000 75.227 -37.1827
1.360000 75.554 -37.2256
1.380000 75.873 -37.2639
1.400000 76.183 -37.2963
1.430000 76.626 -37.3313
1.450000 76.908 -37.3438
1.475000 77.242 -37.3383
1.500000 77.556 -37.2890
1.525000 77.850 -37.2054
1.550000 78.127 -37.0955
1.575000 78.389 -36.9667
1.600000 78.636 -36.8271
1.625000 78.871 -36.6841
1.650000 79.096 -36.5456
1.675000 79.311 -36.4193
1.700000 79.519 -36.3129
1.725000 79.722 -36.2343
1.750000 79.921 -36.1909
1.775000 80.118 -36.1907
1.800000 80.315 -36.2414
1.825000 80.513 -36.3506
1.850000 80.711 -36.5229
1.875000 80.901 -36.7507
1.900000 81.085 -37.0278
1.925000 81.262 -37.3483
1.950000 81.433 -37.7060
1.975000 81.600 -38.0948
2.000000 81.762 -38.5089
2.030000 81.952 -39.0304
2.060000 82.139 -39.5690
2.090000 82.322 -40.1141
2.120000 82.504 -40.6554
2.140000 82.624 -41.0089
2.180000 82.867 -41.6845
2.200000 82.989 -42.0005
2.240000 83.232 -42.6232
2.270000 83.412 -43.0938
2.300000 83.590 -43.5668
2.330000 83.766 -44.0414
2.360000 83.940 -44.5171
2.400000 84.168 -45.1519
2.430000 84.336 -45.6276
2.470000 84.556 -46.2600
2.500000 84.717 -46.7321
2.540000 84.929 -47.3574
2.580000 85.135 -47.9759
2.620000 85.335 -48.5815
2.650000 85.482 -49.0291
2.690000 85.673 -49.6206
2.720000 85.814 -50.0626
2.760000 85.997 -50.6538
2.800000 86.177 -51.2510
2.850000 86.396 -52.0132
2.900000 86.610 -52.8011
2.950000 86.820 -53.6255
3.000000 87.023 -54.5013
3.040000 87.182 -55.2302
3.070000 87.298 -55.7869
3.110000 87.451 -56.5347
3.150000 87.600 -57.2799
3.200000 87.782 -58.1927
3.250000 87.960 -59.0670
3.300000 88.134 -59.8837
3.350000 88.303 -60.6370
3.400000 88.468 -61.3417
3.450000 88.628 -62.0126
3.500000 88.783 -62.6645
3.550000 88.935 -63.3120
3.600000 89.084 -63.9700
3.650000 89.230 -64.6532
3.700000 89.373 -65.3725
3.750000 89.512 -66.1193
3.820000 89.701 -67.1885
3.870000 89.832 -67.9529
3.950000 90.036 -69.1446
4.000000 90.162 -69.8513
4.060000 90.311 -70.6430
4.120000 90.456 -71.3796
4.180000 90.598 -72.0775
4.250000 90.760 -72.8638
4.310000 90.896 -73.5323
4.370000 91.030 -74.2127
4.440000 91.185 -75.0351
4.500000 91.315 -75.7516
4.550000 91.422 -76.3515
4.620000 91.569 -77.1889
4.680000 91.693 -77.8982
4.750000 91.836 -78.7075
4.820000 91.978 -79.4905
4.870000 92.078 -80.0361
4.940000 92.216 -80.7875
5.000000 92.332 -81.4261
5.080000 92.485 -82.2799
5.150000 92.616 -83.0378
5.220000 92.745 -83.8019
5.300000 92.889 -84.6779
5.380000 93.030 -85.5549
5.450000 93.151 -86.3212
5.520000 93.269 -87.0856
5.600000 93.400 -87.9600
5.700000 93.558 -89.0520
5.800000 93.711 -90.1376
5.900000 93.857 -91.2122
6.000000 93.996 -92.2803
6.080000 94.102 -93.1282
6.150000 94.192 -93.8628
6.220000 94.279 -94.5887
6.300000 94.374 -95.4110
6.400000 94.487 -96.4299
6.500000 94.594 -97.4267
6.600000 94.697 -98.3880
6.700000 94.794 -99.3124
6.800000 94.886 -100.2053
6.900000 94.975 -101.0672
7.000000 95.063 -101.8986
7.100000 95.147 -102.6977
7.200000 95.229 -103.4668
7.300000 95.312 -104.2088
7.400000 95.395 -104.9219
7.500000 95.477 -105.6027
7.620000 95.576 -106.3941
7.750000 95.686 -107.2395
7.880000 95.797 -108.0617
8.000000 95.901 -108.8137
8.120000 96.005 -109.5733
8.250000 96.119 -110.3973
8.380000 96.231 -111.2291
8.500000 96.332 -112.0120
8.620000 96.431 -112.8076
8.750000 96.534 -113.6757
8.850000 96.609 -114.3450
9.000000 96.715 -115.3584
9.120000 96.795 -116.1606
9.250000 96.877 -117.0099
9.380000 96.954 -117.8453
9.500000 97.019 -118.5934
9.620000 97.079 -119.3136
9.750000 97.138 -120.0665
9.880000 97.190 -120.7897
10.000000 97.231 -121.4280
10.150000 97.273 -122.1902
10.300000 97.311 -122.9246
10.440000 97.341 -123.5791
10.600000 97.374 -124.3138
10.750000 97.410 -125.0049
10.900000 97.447 -125.6962
11.060000 97.486 -126.4593
11.200000 97.521 -127.1492
11.380000 97.563 -128.0480
11.500000 97.586 -128.6559
11.720000 97.623 -129.7665
11.800000 97.634 -130.1621
12.060000 97.663 -131.4193
12.200000 97.676 -132.0629
12.410000 97.694 -132.9850
12.500000 97.701 -133.3608
12.650000 97.711 -133.9596
12.800000 97.722 -134.5337
13.150000 97.752 -135.7949
13.200000 97.757 -135.9700
13.400000 97.778 -136.6597
13.600000 97.802 -137.3344
13.800000 97.826 -137.9963
14.000000 97.851 -138.6392
14.300000 97.889 -139.5652
14.500000 97.918 -140.1494
14.750000 97.960 -140.8673
15.000000 98.013 -141.5898
15.250000 98.076 -142.3734
15.500000 98.140 -143.2418
15.750000 98.199 -144.1994
16.000000 98.241 -145.2320
16.250000 98.260 -146.2720
16.500000 98.257 -147.2687
16.750000 98.234 -148.1451
17.000000 98.204 -148.8505
17.250000 98.177 -149.3878
17.500000 98.163 -149.7688
17.750000 98.170 -150.0811
18.000000 98.197 -150.3853
18.250000 98.243 -150.7484
18.500000 98.296 -151.2218
18.750000 98.348 -151.7962
19.000000 98.392 -152.4626
19.250000 98.422 -153.1659
19.500000 98.440 -153.8652
19.750000 98.446 -154.5288
20.000000 98.446 -155.1273
20.299999 98.444 -155.7709
20.600000 98.446 -156.3562
20.900000 98.454 -156.9215
21.200001 98.466 -157.5054
21.400000 98.473 -157.9143
21.799999 98.482 -158.7663
22.000000 98.482 -159.1956
22.400000 98.474 -160.0192
22.700001 98.464 -160.5803
23.000000 98.458 -161.0914
23.299999 98.459 -161.5814
23.600000 98.466 -162.0804
24.000000 98.480 -162.7895
24.299999 98.489 -163.3428
24.700001 98.494 -164.0554
25.000000 98.499 -164.5397
25.400000 98.514 -165.1337
25.799999 98.545 -165.7673
26.200001 98.572 -166.5231
26.500000 98.576 -167.1281
26.900000 98.550 -167.8149
27.200001 98.522 -168.1030
27.600000 98.513 -168.1345
28.000000 98.584 -168.0166
28.500000 98.781 -168.4008
29.000000 98.967 -169.9268
29.500000 98.993 -172.1817
30.000000 98.829 -174.0161
30.400000 98.638 -174.6198
30.700001 98.517 -174.5851
31.100000 98.433 -174.2669
31.500000 98.432 -174.0815
32.000000 98.464 -174.3860
32.500000 98.452 -175.0446
33.000000 98.397 -175.5742
33.500000 98.352 -175.8638
34.000000 98.346 -176.1713
34.500000 98.354 -176.7148
35.000000 98.339 -177.4258
35.500000 98.294 -178.0762
36.000000 98.244 -178.5378
36.500000 98.213 -178.8638
37.000000 98.208 -179.2002
37.500000 98.216 -179.6509
38.200001 98.220 179.5107
38.700001 98.200 178.8513
39.500000 98.130 177.9507
40.000000 98.080 177.5718
40.599998 98.036 177.2643
41.200001 98.019 176.9596
41.799999 98.014 176.5352
42.500000 97.999 175.9060
43.099998 97.974 175.3443
43.700001 97.942 174.8016
44.400002 97.898 174.2104
45.000000 97.858 173.7647
45.500000 97.827 173.4298
46.200001 97.791 172.9725
46.799999 97.760 172.5845
47.500000 97.726 172.1654
48.200001 97.697 171.7602
48.700001 97.677 171.4602
49.400002 97.644 171.0457
50.000000 97.615 170.7145
50.799999 97.578 170.2780
51.500000 97.543 169.8801
52.200001 97.505 169.4818
53.000000 97.456 169.0448
53.799999 97.404 168.6544
54.500000 97.364 168.3451
55.200001 97.329 168.0242
56.000000 97.290 167.6293
57.000000 97.238 167.1122
58.000000 97.177 166.6176
59.000000 97.119 166.2318
60.000000 97.078 165.7946
60.799999 97.036 165.3704
61.500000 96.990 165.0439
62.200001 96.947 164.7804
63.000000 96.905 164.4933
64.000000 96.858 164.1106
65.000000 96.811 163.7138
66.000000 96.759 163.2898
67.000000 96.694 162.9160
68.000000 96.630 162.6384
69.000000 96.572 162.3724
70.000000 96.515 162.0822
71.000000 96.455 161.7912
72.000000 96.395 161.5332
73.000000 96.342 161.2863
74.000000 96.294 161.0198
75.000000 96.245 160.7369
76.199997 96.180 160.4043
77.500000 96.108 160.1218
78.800003 96.047 159.8481
80.000000 95.989 159.5018
81.199997 95.914 159.1589
82.500000 95.832 158.9031
83.800003 95.765 158.6685
85.000000 95.703 158.4408
86.199997 95.641 158.2162
87.500000 95.561 158.0125
88.500000 95.498 157.9560
90.000000 95.420 157.8879
91.199997 95.365 157.7990
92.500000 95.320 157.5798
93.800003 95.261 157.2150
95.000000 95.197 156.9344
96.199997 95.134 156.7044
97.500000 95.063 156.5255
98.800003 94.996 156.4723
100.000000 94.949 156.4688
101.500000 94.896 156.3513
103.000000 94.826 156.1712
104.400002 94.757 156.0025
106.000000 94.674 155.7644
107.500000 94.589 155.6022
109.000000 94.511 155.5491
110.599998 94.444 155.5130
112.000000 94.384 155.4487
113.800003 94.304 155.3883
115.000000 94.253 155.3352
117.199997 94.167 155.2367
118.000000 94.139 155.1837
120.599998 94.028 154.9982
122.000000 93.963 155.0141
124.099998 93.875 155.0267
125.000000 93.837 155.0213
126.500000 93.779 155.0136
128.000000 93.727 155.0062
131.500000 93.604 155.0281
132.000000 93.585 155.0354
134.000000 93.508 155.0598
136.000000 93.435 155.0639
138.000000 93.367 155.0567
140.000000 93.299 155.0571
143.000000 93.191 155.1562
145.000000 93.131 155.1671
147.500000 93.055 155.1252
150.000000 92.977 155.1654
152.500000 92.899 155.3010
155.000000 92.820 155.4194
157.500000 92.740 155.5871
160.000000 92.668 155.7700
162.500000 92.578 155.8965
165.000000 92.477 156.0363
167.500000 92.397 156.1493
170.000000 92.334 156.3039
172.500000 92.272 156.5096
175.000000 92.196 156.6708
177.500000 92.126 156.7925
180.000000 92.071 156.9456
182.500000 92.017 157.2321
185.000000 91.951 157.4952
187.500000 91.875 157.6588
190.000000 91.796 157.7908
192.500000 91.705 157.9500
195.000000 91.612 157.9863
197.500000 91.530 157.8876
200.000000 91.486 157.9657
203.000000 91.475 158.3684
206.000000 91.442 158.8972
209.000000 91.381 159.3296
212.000000 91.314 159.6034
214.000000 91.270 159.7465
218.000000 91.196 160.0311
220.000000 91.161 160.1952
224.000000 91.082 160.6149
227.000000 91.014 160.9458
230.000000 90.950 161.2152
233.000000 90.890 161.4471
236.000000 90.828 161.7018
240.000000 90.748 162.0370
243.000000 90.699 162.2995
247.000000 90.647 162.7175
250.000000 90.605 162.9988
254.000000 90.543 163.3254
258.000000 90.478 163.7135
262.000000 90.412 164.1234
265.000000 90.359 164.4280
269.000000 90.298 164.8969
272.000000 90.259 165.1902
276.000000 90.199 165.5500
280.000000 90.145 165.9433
285.000000 90.080 166.4897
290.000000 90.027 166.9941
295.000000 89.969 167.4642
300.000000 89.912 168.0095
304.000000 89.865 168.4181
307.000000 89.832 168.7100
311.000000 89.795 169.1246
315.000000 89.750 169.5671
320.000000 89.690 170.1393
325.000000 89.641 170.7186
330.000000 89.599 171.2234
335.000000 89.555 171.6438
340.000000 89.508 172.1261
345.000000 89.471 172.6161
350.000000 89.427 173.0196
355.000000 89.387 173.4274
360.000000 89.365 174.1864
365.000000 89.328 174.9876
370.000000 89.281 175.5348
375.000000 89.245 175.9259
382.000000 89.218 176.4396
387.000000 89.181 176.9514
395.000000 89.104 177.8358
400.000000 89.081 178.3840
406.000000 89.032 179.0364
412.000000 88.996 179.7372
418.000000 88.984 -179.6637
425.000000 88.942 -179.1007
431.000000 88.905 -178.5038
437.000000 88.872 -177.8923
444.000000 88.836 -177.1755
450.000000 88.820 -176.5399
455.000000 88.813 -175.9967
462.000000 88.797 -175.2874
468.000000 88.762 -174.7456
475.000000 88.707 -174.1064
482.000000 88.681 -173.3704
487.000000 88.673 -172.8602
494.000000 88.659 -172.1461
500.000000 88.644 -171.5037
508.000000 88.631 -170.6926
515.000000 88.630 -170.0348
522.000000 88.624 -169.4019
530.000000 88.614 -168.6040
538.000000 88.597 -167.7964
545.000000 88.587 -167.1265
552.000000 88.586 -166.4434
560.000000 88.584 -165.5922
570.000000 88.554 -164.5115
580.000000 88.535 -163.6384
590.000000 88.528 -162.7867
600.000000 88.534 -161.7105
608.000000 88.556 -160.8928
615.000000 88.567 -160.2586
622.000000 88.569 -159.6181
630.000000 88.574 -158.8309
640.000000 88.583 -157.8656
650.000000 88.587 -156.9078
660.000000 88.594 -155.9543
670.000000 88.607 -155.0110
680.000000 88.623 -154.1090
690.000000 88.643 -153.1841
700.000000 88.658 -152.1866
710.000000 88.677 -151.2331
720.000000 88.704 -150.3255
730.000000 88.733 -149.3961
740.000000 88.763 -148.4458
750.000000 88.794 -147.5061
762.000000 88.833 -146.3703
775.000000 88.878 -145.1701
788.000000 88.926 -144.0044
800.000000 88.971 -142.9197
812.000000 89.026 -141.8583
825.000000 89.090 -140.7070
838.000000 89.154 -139.5524
850.000000 89.215 -138.4985
862.000000 89.279 -137.4615
875.000000 89.353 -136.3535
885.000000 89.412 -135.5362
900.000000 89.504 -134.3089
912.000000 89.588 -133.3405
925.000000 89.686 -132.3895
938.000000 89.785 -131.4625
950.000000 89.872 -130.5576
962.000000 89.952 -129.6559
975.000000 90.044 -128.7584
988.000000 90.140 -127.9197
1000.000000 90.235 -127.1659
1015.000000 90.350 -126.2435
1030.000000 90.452 -125.3477
1044.000000 90.544 -124.5469
1060.000000 90.641 -123.6619
1075.000000 90.724 -122.7730
1090.000000 90.808 -121.6566
1106.000000 90.975 -120.2013
1120.000000 91.197 -119.2773
1138.000000 91.438 -118.8172
1150.000000 91.548 -118.5426
1172.000000 91.717 -117.8298
1180.000000 91.778 -117.5523
1206.000000 91.987 -116.6234
1220.000000 92.100 -116.1160
1241.000000 92.270 -115.3470
1250.000000 92.343 -115.0178
1265.000000 92.468 -114.4803
1280.000000 92.594 -113.9529
1315.000000 92.883 -112.7308
1320.000000 92.924 -112.5529
1340.000000 93.078 -111.8604
1360.000000 93.214 -111.1797
1380.000000 93.348 -110.5025
1400.000000 93.497 -109.8524
1430.000000 93.735 -108.8766
1450.000000 93.896 -108.2522
1475.000000 94.099 -107.4836
1500.000000 94.300 -106.7339
1525.000000 94.500 -105.9954
1550.000000 94.701 -105.3115
1575.000000 94.900 -104.6082
1600.000000 95.103 -103.9392
1625.000000 95.317 -103.3086
1650.000000 95.540 -102.7340
1675.000000 95.767 -102.2577
1700.000000 95.995 -101.8420
1725.000000 96.223 -101.5052
1750.000000 96.451 -101.2144
1775.000000 96.677 -100.9808
1800.000000 96.901 -100.7967
1825.000000 97.125 -100.6596
1850.000000 97.355 -100.6017
1875.000000 97.590 -100.6123
1900.000000 97.824 -100.7043
1925.000000 98.061 -100.9269
1950.000000 98.297 -101.2870
1975.000000 98.525 -101.7505
2000.000000 98.741 -102.3077
2030.000000 98.987 -103.1156
2060.000000 99.223 -104.0881
2090.000000 99.441 -105.1921
2120.000000 99.632 -106.4034
2140.000000 99.745 -107.2835
2180.000000 99.944 -109.2513
2200.000000 100.025 -110.3027
2240.000000 100.142 -112.4836
2270.000000 100.185 -114.1753
2300.000000 100.192 -115.8633
2330.000000 100.164 -117.5268
2360.000000 100.098 -119.1015
2400.000000 99.953 -120.9954
2430.000000 99.812 -122.2395
2470.000000 99.594 -123.6486
2500.000000 99.412 -124.5042
2540.000000 99.149 -125.3606
2580.000000 98.873 -125.9124
2620.000000 98.591 -126.1696
2650.000000 98.383 -126.1899
2690.000000 98.113 -126.0080
2720.000000 97.913 -125.7012
2760.000000 97.653 -125.0999
2800.000000 97.414 -124.3586
2850.000000 97.145 -123.3189
2900.000000 96.888 -122.2386
2950.000000 96.630 -121.0881
3000.000000 96.371 -119.7567
3040.000000 96.166 -118.5019
3070.000000 96.013 -117.4294
3110.000000 95.823 -115.8570
3150.000000 95.662 -114.1533
3200.000000 95.500 -111.9056
3250.000000 95.380 -109.6635
3300.000000 95.286 -107.5252
3350.000000 95.208 -105.5258
3400.000000 95.138 -103.6120
3450.000000 95.065 -101.6647
3500.000000 94.988 -99.6263
3550.000000 94.913 -97.4665
3600.000000 94.852 -95.1735
3650.000000 94.819 -92.7847
3700.000000 94.815 -90.3444
3750.000000 94.835 -87.8918
3820.000000 94.897 -84.5277
3870.000000 94.961 -82.2024
3950.000000 95.084 -78.5805
4000.000000 95.173 -76.3568
4060.000000 95.296 -73.7173
4120.000000 95.438 -71.1140
4180.000000 95.600 -68.5505
4250.000000 95.809 -65.6510
4310.000000 95.996 -63.2365
4370.000000 96.200 -60.9403
4440.000000 96.450 -58.4438
4500.000000 96.654 -56.3934
4550.000000 96.824 -54.6517
4620.000000 97.103 -52.2056
4680.000000 97.375 -50.2900
4750.000000 97.703 -48.2847
4820.000000 98.037 -46.4621
4870.000000 98.275 -45.2359
4940.000000 98.614 -43.6205
5000.000000 98.916 -42.3370
5080.000000 99.330 -40.7499
5150.000000 99.707 -39.4990
5220.000000 100.102 -38.3969
5300.000000 100.579 -37.3600
5380.000000 101.094 -36.6525
5450.000000 101.571 -36.3850
5520.000000 102.068 -36.5404
5600.000000 102.641 -37.3478
5700.000000 103.318 -39.4322
5800.000000 103.890 -42.7692
5900.000000 104.282 -47.1383
6000.000000 104.441 -52.0505
6080.000000 104.385 -55.8996
6150.000000 104.218 -58.9312
6220.000000 103.960 -61.4653
6300.000000 103.581 -63.6286
6400.000000 103.043 -65.1979
6500.000000 102.498 -65.5953
6600.000000 101.997 -65.0211
6700.000000 101.563 -63.6707
6800.000000 101.219 -61.7507
6900.000000 100.989 -59.4287
7000.000000 100.889 -56.8630
7100.000000 100.918 -54.2135
7200.000000 101.072 -51.6478
7300.000000 101.345 -49.3684
7400.000000 101.728 -47.5710
7500.000000 102.233 -46.5161
7620.000000 102.997 -46.6837
7750.000000 103.913 -49.4217
7880.000000 104.626 -55.6221
8000.000000 104.877 -64.3492
8120.000000 104.564 -74.4480
8250.000000 103.550 -84.1643
8380.000000 102.022 -90.5310
8500.000000 100.412 -93.1262
8620.000000 98.799 -93.1511
8750.000000 97.156 -91.0828
8850.000000 95.986 -88.4399
9000.000000 94.405 -83.3092
9120.000000 93.292 -78.4930
9250.000000 92.221 -72.7789
9380.000000 91.269 -66.6911
9500.000000 90.484 -60.8340
9620.000000 89.790 -54.8169
9750.000000 89.141 -48.1718
9880.000000 88.589 -41.4435
10000.000000 88.151 -35.1853
10150.000000 87.701 -27.3539
10300.000000 87.361 -19.5649
10440.000000 87.128 -12.3615
10600.000000 86.958 -4.2649
10750.000000 86.900 3.1537
10900.000000 86.948 10.3523
11060.000000 87.112 17.6568
11200.000000 87.342 23.6299
11380.000000 87.761 30.5530
11500.000000 88.118 34.5486
11720.000000 88.880 40.1461
11800.000000 89.165 41.5055
12060.000000 89.946 43.0302
12200.000000 90.153 42.3080
12410.000000 90.096 41.0585
12500.000000 90.011 40.8074
12650.000000 89.867 39.8936
12800.000000 89.519 37.8588
13150.000000 87.503 38.4840
13200.000000 87.185 39.5668
13400.000000 86.089 45.0116
13600.000000 85.189 51.0934
13800.000000 84.395 58.1746
14000.000000 83.796 66.2787
14300.000000 83.390 79.1719
14500.000000 83.481 87.4485
14750.000000 84.015 96.3340
15000.000000 85.000 102.2119
15250.000000 86.260 102.4637
15500.000000 87.150 94.1568
15750.000000 86.783 79.7637
16000.000000 84.852 68.8143
16250.000000 81.916 67.0565
16500.000000 78.773 72.9277
16750.000000 75.858 83.5366
17000.000000 73.237 97.5661
17250.000000 70.840 115.3568
17500.000000 68.786 138.2497
17750.000000 67.776 166.1958
18000.000000 68.734 -165.5476
18250.000000 71.024 -143.9160
18500.000000 73.520 -131.1432
18750.000000 75.869 -124.7455
19000.000000 77.947 -122.2458
19250.000000 79.541 -122.4559
19500.000000 80.533 -124.5748
19750.000000 80.958 -128.1047
20000.000000 80.817 -132.5890
20300.000000 79.953 -137.6624
20600.000000 78.563 -140.0297
20900.000000 76.929 -139.1287
21200.000000 75.306 -137.3154
21400.000000 74.286 -142.0519
21800.000000 71.919 27.2392
22000.000000 69.998 -155.2187
22400.000000 63.471 -16.8101
22700.000000 56.500 -156.7686
23000.000000 49.454 46.4688
23300.000000 47.584 -6.6719
23600.000000 49.760 -37.4375
24000.000000 51.859 34.6875
