* Measurement data measured by REW V5.20.13
* Source: Headset (DS by VECLAN.COM), MICROPHONE (Master Volume), L, volume: 0.720. Timing signal peak level -15.6 dBFS, measurement signal peak level -14.6 dBFS
* Format: 2M Log Swept Sine, 1 sweep at -12.0 dBFS using an acoustic timing reference
* Dated: Feb 16, 2024 12:59:33 AM
* REW Settings:
*  C-weighting compensation: Off
*  Target level: 75.0 dB
* Note: ; Delay -0.0683 ms (-23 mm, -0.92 in) using estimated IR delay relative to Acoustic reference played from HEADPHONE R with no timing offset
* Measurement: Simgot EA500LM Red R
* Smoothing: 1/24 octave
* Frequency Step: 1/48 octave
* Start Frequency: 1.000 Hz
*
* Freq(Hz) SPL(dB) Phase(degrees)
1.000000 76.091 -29.3751
1.015000 76.315 -30.0636
1.030000 76.539 -30.7376
1.044000 76.746 -31.3513
1.060000 76.982 -32.0319
1.075000 77.201 -32.6472
1.090000 77.418 -33.2378
1.106000 77.647 -33.8400
1.120000 77.850 -34.3555
1.138000 78.114 -35.0063
1.150000 78.292 -35.4328
1.172000 78.621 -36.2002
1.180000 78.742 -36.4746
1.206000 79.135 -37.3499
1.220000 79.347 -37.8111
1.241000 79.665 -38.4898
1.250000 79.801 -38.7761
1.265000 80.027 -39.2472
1.280000 80.252 -39.7109
1.315000 80.767 -40.7656
1.320000 80.840 -40.9132
1.340000 81.126 -41.4965
1.360000 81.406 -42.0686
1.380000 81.679 -42.6299
1.400000 81.943 -43.1809
1.430000 82.321 -43.9892
1.450000 82.560 -44.5166
1.475000 82.841 -45.1621
1.500000 83.106 -45.7789
1.525000 83.356 -46.3666
1.550000 83.593 -46.9286
1.575000 83.818 -47.4681
1.600000 84.032 -47.9886
1.625000 84.236 -48.4934
1.650000 84.432 -48.9858
1.675000 84.621 -49.4691
1.700000 84.804 -49.9468
1.725000 84.983 -50.4222
1.750000 85.159 -50.8985
1.775000 85.333 -51.3793
1.800000 85.506 -51.8677
1.825000 85.680 -52.3672
1.850000 85.853 -52.8762
1.875000 86.019 -53.3847
1.900000 86.180 -53.8922
1.925000 86.335 -54.3986
1.950000 86.486 -54.9039
1.975000 86.632 -55.4081
2.000000 86.775 -55.9112
2.030000 86.943 -56.5133
2.060000 87.108 -57.1136
2.090000 87.271 -57.7121
2.120000 87.434 -58.3087
2.140000 87.542 -58.7054
2.180000 87.761 -59.4961
2.200000 87.872 -59.8901
2.240000 88.094 -60.6738
2.270000 88.261 -61.2579
2.300000 88.427 -61.8393
2.330000 88.591 -62.4185
2.360000 88.755 -62.9961
2.400000 88.970 -63.7644
2.430000 89.129 -64.3400
2.470000 89.337 -65.1074
2.500000 89.490 -65.6836
2.540000 89.689 -66.4537
2.580000 89.881 -67.2268
2.620000 90.068 -68.0026
2.650000 90.205 -68.5857
2.690000 90.384 -69.3641
2.720000 90.515 -69.9480
2.760000 90.686 -70.7259
2.800000 90.853 -71.5024
2.850000 91.057 -72.4695
2.900000 91.255 -73.4310
2.950000 91.450 -74.3857
3.000000 91.639 -75.3381
3.040000 91.786 -76.0984
3.070000 91.894 -76.6672
3.110000 92.035 -77.4228
3.150000 92.173 -78.1747
3.200000 92.340 -79.1078
3.250000 92.504 -80.0321
3.300000 92.662 -80.9459
3.350000 92.816 -81.8507
3.400000 92.964 -82.7480
3.450000 93.108 -83.6374
3.500000 93.247 -84.5186
3.550000 93.381 -85.3910
3.600000 93.512 -86.2543
3.650000 93.640 -87.1081
3.700000 93.763 -87.9530
3.750000 93.882 -88.7904
3.820000 94.042 -89.9486
3.870000 94.152 -90.7643
3.950000 94.321 -92.0467
4.000000 94.423 -92.8323
4.060000 94.543 -93.7573
4.120000 94.659 -94.6639
4.180000 94.770 -95.5532
4.250000 94.894 -96.5707
4.310000 94.997 -97.4269
4.370000 95.098 -98.2699
4.440000 95.212 -99.2372
4.500000 95.306 -100.0504
4.550000 95.381 -100.7173
4.620000 95.484 -101.6348
4.680000 95.570 -102.4071
4.750000 95.667 -103.2923
4.820000 95.763 -104.1594
4.870000 95.829 -104.7666
4.940000 95.920 -105.6013
5.000000 95.995 -106.3043
5.080000 96.094 -107.2265
5.150000 96.178 -108.0213
5.220000 96.259 -108.8020
5.300000 96.350 -109.6771
5.380000 96.438 -110.5363
5.450000 96.512 -111.2769
5.520000 96.586 -112.0085
5.600000 96.667 -112.8309
5.700000 96.766 -113.8392
5.800000 96.861 -114.8285
5.900000 96.953 -115.8012
6.000000 97.041 -116.7562
6.080000 97.109 -117.5072
6.150000 97.167 -118.1552
6.220000 97.223 -118.7948
6.300000 97.286 -119.5159
6.400000 97.360 -120.4021
6.500000 97.432 -121.2703
6.600000 97.501 -122.1195
6.700000 97.568 -122.9492
6.800000 97.632 -123.7602
6.900000 97.693 -124.5530
7.000000 97.753 -125.3279
7.100000 97.811 -126.0839
7.200000 97.866 -126.8224
7.300000 97.921 -127.5453
7.400000 97.974 -128.2531
7.500000 98.026 -128.9443
7.620000 98.087 -129.7554
7.750000 98.150 -130.6155
7.880000 98.212 -131.4539
8.000000 98.268 -132.2117
8.120000 98.322 -132.9573
8.250000 98.379 -133.7494
8.380000 98.434 -134.5268
8.500000 98.482 -135.2329
8.620000 98.529 -135.9275
8.750000 98.577 -136.6661
8.850000 98.613 -137.2240
9.000000 98.663 -138.0451
9.120000 98.701 -138.6867
9.250000 98.742 -139.3648
9.380000 98.781 -140.0260
9.500000 98.815 -140.6224
9.620000 98.845 -141.2057
9.750000 98.874 -141.8227
9.880000 98.896 -142.4253
10.000000 98.909 -142.9698
10.150000 98.916 -143.6334
10.300000 98.916 -144.2747
10.440000 98.909 -144.8513
10.600000 98.897 -145.4912
10.750000 98.887 -146.0758
10.900000 98.876 -146.6464
11.060000 98.867 -147.2521
11.200000 98.859 -147.7795
11.380000 98.849 -148.4475
11.500000 98.841 -148.8858
11.720000 98.827 -149.6738
11.800000 98.822 -149.9543
12.060000 98.807 -150.8466
12.200000 98.800 -151.3179
12.410000 98.790 -152.0112
12.500000 98.786 -152.3017
12.650000 98.779 -152.7773
12.800000 98.771 -153.2435
13.150000 98.752 -154.2972
13.200000 98.749 -154.4448
13.400000 98.740 -155.0280
13.600000 98.731 -155.6002
13.800000 98.724 -156.1614
14.000000 98.716 -156.7136
14.300000 98.704 -157.5238
14.500000 98.695 -158.0475
14.750000 98.685 -158.6833
15.000000 98.678 -159.3000
15.250000 98.675 -159.9090
15.500000 98.676 -160.5143
15.750000 98.678 -161.1183
16.000000 98.679 -161.7238
16.250000 98.678 -162.3292
16.500000 98.674 -162.9296
16.750000 98.669 -163.5143
17.000000 98.662 -164.0726
17.250000 98.656 -164.6022
17.500000 98.652 -165.1019
17.750000 98.650 -165.5817
18.000000 98.650 -166.0507
18.250000 98.652 -166.5190
18.500000 98.654 -166.9936
18.750000 98.657 -167.4710
19.000000 98.657 -167.9480
19.250000 98.656 -168.4127
19.500000 98.654 -168.8589
19.750000 98.651 -169.2825
20.000000 98.649 -169.6869
20.299999 98.649 -170.1637
20.600000 98.651 -170.6481
20.900000 98.652 -171.1528
21.200001 98.648 -171.6768
21.400000 98.640 -172.0247
21.799999 98.616 -172.6866
22.000000 98.601 -172.9868
22.400000 98.569 -173.5116
22.700001 98.550 -173.8524
23.000000 98.538 -174.1779
23.299999 98.531 -174.5183
23.600000 98.527 -174.8879
24.000000 98.521 -175.4253
24.299999 98.512 -175.8420
24.700001 98.495 -176.3837
25.000000 98.480 -176.7667
25.400000 98.463 -177.2506
25.799999 98.448 -177.7272
26.200001 98.435 -178.2162
26.500000 98.424 -178.5895
26.900000 98.406 -179.0811
27.200001 98.390 -179.4321
27.600000 98.369 -179.8673
28.000000 98.350 179.7310
28.500000 98.330 179.2528
29.000000 98.314 178.7745
29.500000 98.298 178.2865
30.000000 98.278 177.7939
30.400000 98.260 177.4022
30.700001 98.244 177.1120
31.100000 98.221 176.7322
31.500000 98.196 176.3618
32.000000 98.164 175.9112
32.500000 98.131 175.4676
33.000000 98.097 175.0233
33.500000 98.060 174.5838
34.000000 98.024 174.1649
34.500000 97.993 173.7639
35.000000 97.968 173.3464
35.500000 97.943 172.8770
36.000000 97.909 172.3785
36.500000 97.863 171.9350
37.000000 97.818 171.6157
37.500000 97.790 171.3840
38.200001 97.785 170.9642
38.700001 97.782 170.4942
39.500000 97.734 169.6739
40.000000 97.685 169.3055
40.599998 97.634 169.0288
41.200001 97.602 168.7962
41.799999 97.579 168.5187
42.500000 97.550 168.1542
43.099998 97.525 167.8347
43.700001 97.499 167.5020
44.400002 97.463 167.1075
45.000000 97.428 166.7885
45.500000 97.399 166.5370
46.200001 97.360 166.1892
46.799999 97.327 165.8915
47.500000 97.289 165.5533
48.200001 97.253 165.2177
48.700001 97.226 164.9736
49.400002 97.188 164.6323
50.000000 97.153 164.3497
50.799999 97.106 163.9900
51.500000 97.065 163.6882
52.200001 97.025 163.3910
53.000000 96.981 163.0435
53.799999 96.933 162.6988
54.500000 96.892 162.4160
55.200001 96.852 162.1440
56.000000 96.808 161.8434
57.000000 96.756 161.4945
58.000000 96.707 161.1155
59.000000 96.646 160.7173
60.000000 96.575 160.3885
60.799999 96.520 160.1728
61.500000 96.477 160.0040
62.200001 96.439 159.8251
63.000000 96.399 159.5784
64.000000 96.343 159.2615
65.000000 96.292 159.0086
66.000000 96.253 158.7343
67.000000 96.204 158.4022
68.000000 96.140 158.1416
69.000000 96.077 157.9552
70.000000 96.014 157.7648
71.000000 95.952 157.5748
72.000000 95.894 157.3583
73.000000 95.839 157.0952
74.000000 95.782 156.7802
75.000000 95.713 156.5250
76.199997 95.643 156.3676
77.500000 95.580 156.1916
78.800003 95.517 156.0123
80.000000 95.453 155.8116
81.199997 95.382 155.6074
82.500000 95.301 155.3838
83.800003 95.224 155.2092
85.000000 95.165 155.0397
86.199997 95.108 154.8392
87.500000 95.042 154.6573
88.500000 94.994 154.5492
90.000000 94.922 154.4061
91.199997 94.865 154.2952
92.500000 94.802 154.1631
93.800003 94.736 154.0383
95.000000 94.675 153.9332
96.199997 94.613 153.8335
97.500000 94.548 153.7378
98.800003 94.487 153.6477
100.000000 94.433 153.5594
101.500000 94.364 153.4379
103.000000 94.291 153.3418
104.400002 94.224 153.2750
106.000000 94.149 153.1992
107.500000 94.079 153.1426
109.000000 94.010 153.1013
110.599998 93.936 153.0714
112.000000 93.868 153.0282
113.800003 93.774 152.9796
115.000000 93.715 152.9422
117.199997 93.615 152.8622
118.000000 93.583 152.8641
120.599998 93.503 153.0117
122.000000 93.475 153.0699
124.099998 93.412 152.9847
125.000000 93.374 152.9193
126.500000 93.303 152.8214
128.000000 93.231 152.7318
131.500000 93.076 152.8384
132.000000 93.060 152.8853
134.000000 92.999 153.0365
136.000000 92.929 153.2012
138.000000 92.864 153.3984
140.000000 92.799 153.4932
143.000000 92.677 153.6176
145.000000 92.608 153.7631
147.500000 92.546 153.9417
150.000000 92.501 154.0668
152.500000 92.446 154.1304
155.000000 92.372 154.1880
157.500000 92.290 154.2705
160.000000 92.210 154.3731
162.500000 92.135 154.4830
165.000000 92.062 154.5965
167.500000 91.988 154.7456
170.000000 91.915 154.9131
172.500000 91.842 155.0769
175.000000 91.770 155.2440
177.500000 91.695 155.4327
180.000000 91.618 155.6390
182.500000 91.546 155.8193
185.000000 91.479 155.9743
187.500000 91.416 156.1556
190.000000 91.350 156.3972
192.500000 91.279 156.6608
195.000000 91.206 156.9201
197.500000 91.136 157.2153
200.000000 91.077 157.5966
203.000000 91.024 158.1418
206.000000 90.997 158.5682
209.000000 90.979 158.7592
212.000000 90.947 158.8439
214.000000 90.915 158.9267
218.000000 90.838 159.1375
220.000000 90.797 159.2567
224.000000 90.717 159.5355
227.000000 90.656 159.7657
230.000000 90.596 160.0056
233.000000 90.538 160.2637
236.000000 90.481 160.5473
240.000000 90.405 160.9376
243.000000 90.348 161.2141
247.000000 90.273 161.5721
250.000000 90.223 161.8552
254.000000 90.164 162.2239
258.000000 90.106 162.6044
262.000000 90.044 163.0182
265.000000 89.997 163.3133
269.000000 89.940 163.6850
272.000000 89.899 163.9792
276.000000 89.839 164.4175
280.000000 89.784 164.8593
285.000000 89.738 165.3315
290.000000 89.691 165.7975
295.000000 89.636 166.2825
300.000000 89.580 166.7745
304.000000 89.540 167.1616
307.000000 89.511 167.4536
311.000000 89.475 167.8541
315.000000 89.441 168.2488
320.000000 89.397 168.7081
325.000000 89.357 169.2168
330.000000 89.320 169.7510
335.000000 89.281 170.2340
340.000000 89.237 170.7123
345.000000 89.196 171.1602
350.000000 89.159 171.6249
355.000000 89.122 172.1269
360.000000 89.081 172.6333
365.000000 89.045 173.1279
370.000000 89.011 173.6168
375.000000 88.972 174.1039
382.000000 88.920 174.7653
387.000000 88.888 175.2310
395.000000 88.839 175.9949
400.000000 88.807 176.4897
406.000000 88.771 177.0694
412.000000 88.736 177.6408
418.000000 88.703 178.2043
425.000000 88.669 178.8529
431.000000 88.640 179.4131
437.000000 88.611 179.9825
444.000000 88.580 -179.3445
450.000000 88.553 -178.7727
455.000000 88.531 -178.3061
462.000000 88.502 -177.6570
468.000000 88.479 -177.1039
475.000000 88.453 -176.4521
482.000000 88.431 -175.7988
487.000000 88.418 -175.3403
494.000000 88.398 -174.7027
500.000000 88.381 -174.1557
508.000000 88.364 -173.4345
515.000000 88.350 -172.8019
522.000000 88.336 -172.1650
530.000000 88.320 -171.4428
538.000000 88.306 -170.7199
545.000000 88.296 -170.0894
552.000000 88.288 -169.4643
560.000000 88.278 -168.7505
570.000000 88.267 -167.8545
580.000000 88.259 -166.9604
590.000000 88.253 -166.0603
600.000000 88.248 -165.1683
608.000000 88.244 -164.4592
615.000000 88.241 -163.8397
622.000000 88.238 -163.2185
630.000000 88.235 -162.5040
640.000000 88.233 -161.6111
650.000000 88.234 -160.7250
660.000000 88.236 -159.8436
670.000000 88.239 -158.9565
680.000000 88.247 -158.0670
690.000000 88.257 -157.1816
700.000000 88.268 -156.3011
710.000000 88.282 -155.4185
720.000000 88.299 -154.5339
730.000000 88.318 -153.6548
740.000000 88.339 -152.7772
750.000000 88.362 -151.9005
762.000000 88.392 -150.8523
775.000000 88.426 -149.7261
788.000000 88.464 -148.6013
800.000000 88.502 -147.5744
812.000000 88.544 -146.5566
825.000000 88.593 -145.4608
838.000000 88.646 -144.3841
850.000000 88.699 -143.3951
862.000000 88.755 -142.4129
875.000000 88.819 -141.3674
885.000000 88.870 -140.5779
900.000000 88.950 -139.4225
912.000000 89.018 -138.5210
925.000000 89.094 -137.5665
938.000000 89.174 -136.6354
950.000000 89.250 -135.8011
962.000000 89.326 -134.9932
975.000000 89.408 -134.1454
988.000000 89.491 -133.3222
1000.000000 89.569 -132.5869
1015.000000 89.668 -131.7021
1030.000000 89.766 -130.8494
1044.000000 89.858 -130.0846
1060.000000 89.964 -129.2485
1075.000000 90.063 -128.4939
1090.000000 90.167 -127.7694
1106.000000 90.287 -127.0303
1120.000000 90.393 -126.4113
1138.000000 90.529 -125.6453
1150.000000 90.619 -125.1538
1172.000000 90.783 -124.2748
1180.000000 90.843 -123.9613
1206.000000 91.040 -123.0075
1220.000000 91.146 -122.5150
1241.000000 91.302 -121.7797
1250.000000 91.367 -121.4744
1265.000000 91.473 -120.9764
1280.000000 91.577 -120.4861
1315.000000 91.813 -119.3616
1320.000000 91.846 -119.2025
1340.000000 91.969 -118.5722
1360.000000 92.073 -117.9490
1380.000000 92.174 -117.3301
1400.000000 92.288 -116.7132
1430.000000 92.467 -115.7999
1450.000000 92.586 -115.1969
1475.000000 92.734 -114.4492
1500.000000 92.882 -113.7124
1525.000000 93.027 -112.9814
1550.000000 93.167 -112.2555
1575.000000 93.306 -111.5433
1600.000000 93.446 -110.8382
1625.000000 93.585 -110.1409
1650.000000 93.725 -109.4582
1675.000000 93.867 -108.7886
1700.000000 94.011 -108.1303
1725.000000 94.155 -107.4865
1750.000000 94.299 -106.8584
1775.000000 94.444 -106.2487
1800.000000 94.590 -105.6574
1825.000000 94.738 -105.0867
1850.000000 94.888 -104.5372
1875.000000 95.038 -104.0107
1900.000000 95.189 -103.5086
1925.000000 95.341 -103.0337
1950.000000 95.494 -102.5877
1975.000000 95.647 -102.1689
2000.000000 95.801 -101.7797
2030.000000 95.987 -101.3578
2060.000000 96.173 -100.9792
2090.000000 96.358 -100.6464
2120.000000 96.544 -100.3673
2140.000000 96.668 -100.2101
2180.000000 96.912 -99.9563
2200.000000 97.032 -99.8627
2240.000000 97.265 -99.7487
2270.000000 97.436 -99.7189
2300.000000 97.602 -99.7365
2330.000000 97.763 -99.8022
2360.000000 97.920 -99.9094
2400.000000 98.120 -100.1069
2430.000000 98.265 -100.2901
2470.000000 98.450 -100.5799
2500.000000 98.585 -100.8322
2540.000000 98.759 -101.2388
2580.000000 98.925 -101.7500
2620.000000 99.074 -102.3624
2650.000000 99.172 -102.8702
2690.000000 99.283 -103.5829
2720.000000 99.351 -104.1280
2760.000000 99.424 -104.8519
2800.000000 99.476 -105.5569
2850.000000 99.518 -106.3947
2900.000000 99.534 -107.1688
2950.000000 99.529 -107.8543
3000.000000 99.505 -108.4402
3040.000000 99.475 -108.8337
3070.000000 99.448 -109.0854
3110.000000 99.408 -109.3683
3150.000000 99.362 -109.5992
3200.000000 99.297 -109.8130
3250.000000 99.223 -109.9386
3300.000000 99.143 -109.9720
3350.000000 99.059 -109.9072
3400.000000 98.973 -109.7454
3450.000000 98.892 -109.4943
3500.000000 98.816 -109.1596
3550.000000 98.744 -108.7453
3600.000000 98.675 -108.2614
3650.000000 98.610 -107.7124
3700.000000 98.549 -107.1055
3750.000000 98.494 -106.4478
3820.000000 98.427 -105.4579
3870.000000 98.384 -104.7152
3950.000000 98.325 -103.4836
4000.000000 98.294 -102.6934
4060.000000 98.264 -101.7260
4120.000000 98.242 -100.7372
4180.000000 98.231 -99.7328
4250.000000 98.231 -98.5637
4310.000000 98.242 -97.5968
4370.000000 98.256 -96.6972
4440.000000 98.273 -95.7566
4500.000000 98.287 -95.0362
4550.000000 98.298 -94.4795
4620.000000 98.309 -93.7468
4680.000000 98.319 -93.1640
4750.000000 98.329 -92.5503
4820.000000 98.337 -92.0148
4870.000000 98.339 -91.6815
4940.000000 98.334 -91.2893
5000.000000 98.320 -91.0203
5080.000000 98.285 -90.7451
5150.000000 98.233 -90.5581
5220.000000 98.157 -90.3826
5300.000000 98.041 -90.1321
5380.000000 97.899 -89.7595
5450.000000 97.762 -89.2987
5520.000000 97.620 -88.7121
5600.000000 97.459 -87.9200
5700.000000 97.256 -86.8041
5800.000000 97.047 -85.5645
5900.000000 96.827 -84.1572
6000.000000 96.602 -82.5162
6080.000000 96.424 -80.9966
6150.000000 96.279 -79.5084
6220.000000 96.151 -77.8860
6300.000000 96.031 -75.9049
6400.000000 95.923 -73.3144
6500.000000 95.866 -70.6930
6600.000000 95.856 -68.1345
6700.000000 95.885 -65.7063
6800.000000 95.951 -63.4299
6900.000000 96.062 -61.2944
7000.000000 96.220 -59.2841
7100.000000 96.414 -57.4077
7200.000000 96.645 -55.7183
7300.000000 96.913 -54.3072
7400.000000 97.212 -53.2707
7500.000000 97.538 -52.6946
7620.000000 97.965 -52.7466
7750.000000 98.427 -53.9096
7880.000000 98.745 -56.3454
8000.000000 98.862 -59.6318
8120.000000 98.781 -63.5960
8250.000000 98.445 -68.1067
8380.000000 97.857 -72.2462
8500.000000 97.121 -75.3483
8620.000000 96.233 -77.5405
8750.000000 95.128 -78.7056
8850.000000 94.204 -78.6344
9000.000000 92.765 -76.8409
9120.000000 91.630 -74.0044
9250.000000 90.472 -69.7678
9380.000000 89.426 -64.6573
9500.000000 88.572 -59.4304
9620.000000 87.817 -53.8879
9750.000000 87.102 -47.6480
9880.000000 86.481 -41.2448
10000.000000 85.980 -35.2338
10150.000000 85.436 -27.6179
10300.000000 84.975 -19.9176
10440.000000 84.615 -12.6801
10600.000000 84.284 -4.3713
10750.000000 84.047 3.4358
10900.000000 83.881 11.2380
11060.000000 83.785 19.5312
11200.000000 83.768 26.7452
11380.000000 83.836 35.9302
11500.000000 83.938 41.9754
11720.000000 84.244 52.8447
11800.000000 84.395 56.7167
12060.000000 85.029 68.9343
12200.000000 85.463 75.2385
12410.000000 86.239 84.2436
12500.000000 86.625 87.9044
12650.000000 87.349 93.6757
12800.000000 88.187 98.9306
13150.000000 90.636 108.0542
13200.000000 91.043 108.8272
13400.000000 92.761 109.8721
13600.000000 94.428 106.5545
13800.000000 95.657 98.0789
14000.000000 96.068 86.2032
14300.000000 95.068 71.2269
14500.000000 93.797 66.8134
14750.000000 92.192 66.6313
15000.000000 90.904 69.8458
15250.000000 90.028 74.5196
15500.000000 89.607 79.2572
15750.000000 89.578 82.5452
16000.000000 89.656 83.0647
16250.000000 89.488 80.9050
16500.000000 88.856 77.8766
16750.000000 87.777 76.1561
17000.000000 86.434 76.8226
17250.000000 85.035 79.7707
17500.000000 83.727 84.3385
17750.000000 82.561 89.7981
18000.000000 81.525 95.4963
18250.000000 80.533 100.9870
18500.000000 79.415 106.9499
18750.000000 78.169 115.5287
19000.000000 77.268 126.4368
19250.000000 76.901 135.8719
19500.000000 76.601 142.1861
19750.000000 76.039 146.4485
20000.000000 75.061 150.1689
20300.000000 73.348 155.7578
20600.000000 71.286 163.9281
20900.000000 69.092 174.8030
21200.000000 66.939 -172.8499
21400.000000 65.558 -165.1940
21800.000000 62.508 -173.6666
22000.000000 60.318 100.3732
22400.000000 53.358 10.7227
22700.000000 45.991 35.7266
23000.000000 37.978 -92.9199
23300.000000 32.923 18.8281
23600.000000 31.863 -87.0625
24000.000000 31.403 64.9727
