* Measurement data measured by REW V5.20.13
* Source: Headset (DS by VECLAN.COM), MICROPHONE (Master Volume), L, volume: 0.720. Timing signal peak level -13.5 dBFS, measurement signal peak level -13.0 dBFS
* Format: 4M Log Swept Sine, 1 sweep at -12.0 dBFS using an acoustic timing reference
* Dated: Nov 25, 2023 2:15:45 AM
* REW Settings:
*  C-weighting compensation: Off
*  Target level: 75.0 dB
* Note: ; Apple + Abigail Delay -0.0684 ms (-23 mm, -0.92 in) using estimated IR delay relative to Acoustic reference played from HEADPHONE R with no timing offset Clock adjustment: -0.1 ppm
* Measurement: Simgot EW200 S2 W1 R
* Smoothing: 1/24 octave
* Frequency Step: 1/48 octave
* Start Frequency: 1.000 Hz
*
* Freq(Hz) SPL(dB) Phase(degrees)
1.000000 66.808 5.6541
1.015000 67.073 5.4168
1.030000 67.333 5.1384
1.044000 67.571 4.8402
1.060000 67.835 4.4524
1.075000 68.073 4.0419
1.090000 68.303 3.5843
1.106000 68.537 3.0377
1.120000 68.739 2.4824
1.138000 68.997 1.6631
1.150000 69.168 1.0564
1.172000 69.479 -0.1685
1.180000 69.591 -0.6467
1.206000 69.951 -2.3051
1.220000 70.143 -3.2550
1.241000 70.428 -4.7396
1.250000 70.549 -5.3938
1.265000 70.748 -6.5027
1.280000 70.945 -7.6289
1.315000 71.396 -10.2859
1.320000 71.459 -10.6651
1.340000 71.709 -12.1710
1.360000 71.955 -13.6474
1.380000 72.196 -15.0781
1.400000 72.431 -16.4471
1.430000 72.774 -18.3497
1.450000 72.996 -19.4941
1.475000 73.265 -20.7670
1.500000 73.522 -21.9387
1.525000 73.768 -23.0360
1.550000 74.003 -24.0660
1.575000 74.230 -25.0358
1.600000 74.448 -25.9526
1.625000 74.660 -26.8234
1.650000 74.866 -27.6554
1.675000 75.067 -28.4557
1.700000 75.265 -29.2315
1.725000 75.460 -29.9898
1.750000 75.654 -30.7378
1.775000 75.847 -31.4827
1.800000 76.041 -32.2315
1.825000 76.237 -32.9915
1.850000 76.434 -33.7589
1.875000 76.628 -34.5120
1.900000 76.819 -35.2499
1.925000 77.007 -35.9727
1.950000 77.193 -36.6804
1.975000 77.377 -37.3733
2.000000 77.559 -38.0514
2.030000 77.776 -38.8459
2.060000 77.990 -39.6194
2.090000 78.202 -40.3723
2.120000 78.413 -41.1048
2.140000 78.553 -41.5818
2.180000 78.833 -42.5092
2.200000 78.973 -42.9595
2.240000 79.251 -43.8201
2.270000 79.459 -44.4299
2.300000 79.666 -45.0132
2.330000 79.871 -45.5736
2.360000 80.074 -46.1148
2.400000 80.343 -46.8126
2.430000 80.542 -47.3228
2.470000 80.804 -47.9926
2.500000 80.997 -48.4916
2.540000 81.251 -49.1595
2.580000 81.498 -49.8351
2.620000 81.741 -50.4978
2.650000 81.921 -50.9844
2.690000 82.156 -51.6219
2.720000 82.329 -52.0932
2.760000 82.557 -52.7153
2.800000 82.781 -53.3329
2.850000 83.055 -54.1037
2.900000 83.322 -54.8788
2.950000 83.584 -55.6646
3.000000 83.838 -56.4620
3.040000 84.037 -57.1044
3.070000 84.183 -57.5866
3.110000 84.374 -58.2276
3.150000 84.562 -58.8631
3.200000 84.792 -59.6449
3.250000 85.017 -60.4068
3.300000 85.238 -61.1422
3.350000 85.453 -61.8460
3.400000 85.663 -62.5228
3.450000 85.867 -63.1803
3.500000 86.067 -63.8261
3.550000 86.262 -64.4677
3.600000 86.452 -65.1128
3.650000 86.640 -65.7690
3.700000 86.823 -66.4414
3.750000 87.002 -67.1252
3.820000 87.245 -68.0908
3.870000 87.414 -68.7790
3.950000 87.677 -69.8625
4.000000 87.837 -70.5200
4.060000 88.025 -71.2812
4.120000 88.207 -72.0163
4.180000 88.383 -72.7318
4.250000 88.584 -73.5501
4.310000 88.751 -74.2444
4.370000 88.915 -74.9386
4.440000 89.102 -75.7540
4.500000 89.257 -76.4526
4.550000 89.384 -77.0325
4.620000 89.557 -77.8379
4.680000 89.703 -78.5195
4.750000 89.870 -79.3012
4.820000 90.034 -80.0645
4.870000 90.148 -80.5990
4.940000 90.306 -81.3364
5.000000 90.438 -81.9622
5.080000 90.610 -82.7939
5.150000 90.757 -83.5246
5.220000 90.900 -84.2562
5.300000 91.059 -85.0900
5.380000 91.214 -85.9190
5.450000 91.346 -86.6384
5.520000 91.474 -87.3508
5.600000 91.617 -88.1584
5.700000 91.788 -89.1581
5.800000 91.954 -90.1454
5.900000 92.114 -91.1183
6.000000 92.269 -92.0758
6.080000 92.389 -92.8327
6.150000 92.491 -93.4900
6.220000 92.590 -94.1439
6.300000 92.701 -94.8886
6.400000 92.834 -95.8135
6.500000 92.963 -96.7274
6.600000 93.086 -97.6258
6.700000 93.204 -98.5100
6.800000 93.316 -99.3805
6.900000 93.424 -100.2339
7.000000 93.529 -101.0672
7.100000 93.629 -101.8816
7.200000 93.726 -102.6776
7.300000 93.820 -103.4552
7.400000 93.913 -104.2129
7.500000 94.003 -104.9497
7.620000 94.108 -105.8145
7.750000 94.220 -106.7370
7.880000 94.330 -107.6394
8.000000 94.429 -108.4607
8.120000 94.527 -109.2773
8.250000 94.630 -110.1534
8.380000 94.730 -111.0227
8.500000 94.820 -111.8217
8.620000 94.906 -112.6167
8.750000 94.996 -113.4717
8.850000 95.064 -114.1242
9.000000 95.160 -115.0958
9.120000 95.234 -115.8643
9.250000 95.312 -116.6864
9.380000 95.387 -117.4987
9.500000 95.452 -118.2377
9.620000 95.512 -118.9662
9.750000 95.571 -119.7439
9.880000 95.623 -120.5047
10.000000 95.660 -121.1915
10.150000 95.697 -122.0288
10.300000 95.726 -122.8320
10.440000 95.744 -123.5481
10.600000 95.762 -124.3365
10.750000 95.780 -125.0480
10.900000 95.799 -125.7363
11.060000 95.822 -126.4678
11.200000 95.845 -127.1038
11.380000 95.876 -127.9176
11.500000 95.896 -128.4585
11.720000 95.934 -129.4469
11.800000 95.947 -129.8056
12.060000 95.992 -130.9688
12.200000 96.016 -131.5960
12.410000 96.051 -132.5334
12.500000 96.064 -132.9283
12.650000 96.085 -133.5799
12.800000 96.104 -134.2184
13.150000 96.141 -135.6452
13.200000 96.147 -135.8422
13.400000 96.168 -136.6120
13.600000 96.190 -137.3570
13.800000 96.213 -138.0772
14.000000 96.236 -138.7827
14.300000 96.271 -139.8175
14.500000 96.294 -140.4952
14.750000 96.321 -141.3299
15.000000 96.348 -142.1518
15.250000 96.375 -142.9645
15.500000 96.402 -143.7618
15.750000 96.427 -144.5405
16.000000 96.448 -145.2966
16.250000 96.465 -146.0310
16.500000 96.480 -146.7417
16.750000 96.492 -147.4248
17.000000 96.504 -148.0732
17.250000 96.515 -148.6848
17.500000 96.527 -149.2564
17.750000 96.541 -149.7975
18.000000 96.559 -150.3205
18.250000 96.580 -150.8395
18.500000 96.605 -151.3735
18.750000 96.632 -151.9301
19.000000 96.661 -152.5165
19.250000 96.686 -153.1330
19.500000 96.706 -153.7663
19.750000 96.720 -154.4051
20.000000 96.728 -155.0249
20.299999 96.730 -155.7258
20.600000 96.729 -156.3701
20.900000 96.729 -156.9612
21.200001 96.732 -157.5180
21.400000 96.736 -157.8837
21.799999 96.747 -158.6191
22.000000 96.753 -158.9934
22.400000 96.760 -159.7517
22.700001 96.762 -160.3141
23.000000 96.762 -160.8572
23.299999 96.762 -161.3786
23.600000 96.763 -161.8829
24.000000 96.765 -162.5405
24.299999 96.768 -163.0304
24.700001 96.771 -163.6804
25.000000 96.772 -164.1601
25.400000 96.773 -164.7819
25.799999 96.774 -165.3819
26.200001 96.774 -165.9670
26.500000 96.775 -166.3998
26.900000 96.774 -166.9684
27.200001 96.772 -167.3853
27.600000 96.769 -167.9261
28.000000 96.765 -168.4520
28.500000 96.759 -169.0948
29.000000 96.752 -169.7135
29.500000 96.746 -170.2952
30.000000 96.743 -170.8576
30.400000 96.742 -171.3276
30.700001 96.740 -171.7057
31.100000 96.732 -172.2377
31.500000 96.714 -172.7665
32.000000 96.679 -173.3452
32.500000 96.643 -173.7862
33.000000 96.623 -174.1448
33.500000 96.619 -174.5375
34.000000 96.622 -175.0480
34.500000 96.613 -175.6561
35.000000 96.586 -176.2693
35.500000 96.545 -176.7908
36.000000 96.503 -177.1828
36.500000 96.471 -177.4764
37.000000 96.454 -177.7502
37.500000 96.448 -178.0714
38.200001 96.444 -178.6278
38.700001 96.437 -179.0715
39.500000 96.419 -179.8102
40.000000 96.402 179.7199
40.599998 96.374 179.1730
41.200001 96.340 178.6833
41.799999 96.308 178.2556
42.500000 96.280 177.7839
43.099998 96.259 177.3649
43.700001 96.236 176.9387
44.400002 96.207 176.4523
45.000000 96.179 176.0526
45.500000 96.154 175.7425
46.200001 96.119 175.3565
46.799999 96.095 175.0505
47.500000 96.072 174.6672
48.200001 96.046 174.2459
48.700001 96.023 173.9484
49.400002 95.988 173.5609
50.000000 95.961 173.2355
50.799999 95.926 172.7755
51.500000 95.893 172.3650
52.200001 95.860 171.9586
53.000000 95.823 171.4962
53.799999 95.788 171.0773
54.500000 95.764 170.7325
55.200001 95.744 170.3842
56.000000 95.728 170.0560
57.000000 95.747 169.5045
58.000000 95.700 168.5085
59.000000 95.544 168.1604
60.000000 95.474 168.4775
60.799999 95.469 168.3830
61.500000 95.442 168.1158
62.200001 95.399 167.8795
63.000000 95.349 167.6237
64.000000 95.288 167.2610
65.000000 95.233 166.8580
66.000000 95.178 166.4646
67.000000 95.132 166.1631
68.000000 95.101 165.9268
69.000000 95.087 165.6747
70.000000 95.068 165.2512
71.000000 95.003 164.8103
72.000000 94.917 164.6268
73.000000 94.851 164.5724
74.000000 94.798 164.4565
75.000000 94.746 164.2944
76.199997 94.692 164.0650
77.500000 94.639 163.7711
78.800003 94.591 163.4503
80.000000 94.541 163.1442
81.199997 94.485 162.8755
82.500000 94.421 162.6297
83.800003 94.360 162.4034
85.000000 94.306 162.1901
86.199997 94.254 161.9701
87.500000 94.196 161.7388
88.500000 94.152 161.5854
90.000000 94.086 161.3838
91.199997 94.035 161.2236
92.500000 93.979 161.0554
93.800003 93.924 160.9045
95.000000 93.871 160.7740
96.199997 93.818 160.6578
97.500000 93.762 160.5418
98.800003 93.705 160.4305
100.000000 93.652 160.3270
101.500000 93.588 160.1975
103.000000 93.533 160.0361
104.400002 93.475 159.8585
106.000000 93.401 159.7302
107.500000 93.337 159.6804
109.000000 93.280 159.6301
110.599998 93.218 159.5620
112.000000 93.163 159.4963
113.800003 93.092 159.4241
115.000000 93.045 159.3672
117.199997 92.955 159.2104
118.000000 92.920 159.1600
120.599998 92.810 159.1299
122.000000 92.766 159.1562
124.099998 92.706 159.1428
125.000000 92.679 159.1254
126.500000 92.630 159.1008
128.000000 92.579 159.0969
131.500000 92.469 159.1546
132.000000 92.454 159.1635
134.000000 92.393 159.1873
136.000000 92.336 159.1982
138.000000 92.281 159.1842
140.000000 92.228 159.1724
143.000000 92.153 159.2008
145.000000 92.091 159.2245
147.500000 92.009 159.3298
150.000000 91.940 159.4455
152.500000 91.876 159.5659
155.000000 91.811 159.6891
157.500000 91.747 159.7841
160.000000 91.681 159.8516
162.500000 91.618 159.9545
165.000000 91.557 160.0865
167.500000 91.495 160.2220
170.000000 91.429 160.3595
172.500000 91.365 160.4948
175.000000 91.306 160.6131
177.500000 91.247 160.7113
180.000000 91.183 160.8386
182.500000 91.124 161.0112
185.000000 91.067 161.1790
187.500000 91.010 161.3327
190.000000 90.954 161.4932
192.500000 90.900 161.6682
195.000000 90.849 161.8527
197.500000 90.800 162.0309
200.000000 90.752 162.2083
203.000000 90.702 162.4243
206.000000 90.649 162.6417
209.000000 90.592 162.8558
212.000000 90.538 163.0862
214.000000 90.505 163.2589
218.000000 90.438 163.5884
220.000000 90.403 163.7405
224.000000 90.335 164.0562
227.000000 90.285 164.2936
230.000000 90.235 164.5361
233.000000 90.188 164.7931
236.000000 90.143 165.0550
240.000000 90.080 165.3983
243.000000 90.036 165.6530
247.000000 89.980 165.9899
250.000000 89.940 166.2537
254.000000 89.887 166.6248
258.000000 89.838 166.9747
262.000000 89.791 167.2961
265.000000 89.757 167.5372
269.000000 89.713 167.8852
272.000000 89.681 168.1592
276.000000 89.637 168.5202
280.000000 89.594 168.8549
285.000000 89.542 169.2772
290.000000 89.496 169.7230
295.000000 89.454 170.1688
300.000000 89.411 170.6457
304.000000 89.374 171.0035
307.000000 89.350 171.2456
311.000000 89.322 171.5742
315.000000 89.295 171.9317
320.000000 89.262 172.3860
325.000000 89.226 172.8005
330.000000 89.192 173.2106
335.000000 89.162 173.6292
340.000000 89.129 174.0538
345.000000 89.096 174.5038
350.000000 89.065 174.9565
355.000000 89.037 175.4062
360.000000 89.007 175.8657
365.000000 88.979 176.2832
370.000000 88.951 176.6891
375.000000 88.923 177.0988
382.000000 88.887 177.6931
387.000000 88.861 178.1278
395.000000 88.821 178.8037
400.000000 88.796 179.2040
406.000000 88.768 179.7130
412.000000 88.743 -179.7669
418.000000 88.720 -179.2603
425.000000 88.691 -178.6671
431.000000 88.666 -178.1537
437.000000 88.643 -177.6581
444.000000 88.621 -177.0928
450.000000 88.604 -176.6036
455.000000 88.588 -176.1948
462.000000 88.567 -175.6184
468.000000 88.549 -175.1143
475.000000 88.528 -174.5303
482.000000 88.511 -173.9706
487.000000 88.502 -173.5725
494.000000 88.490 -173.0092
500.000000 88.482 -172.5362
508.000000 88.471 -171.8882
515.000000 88.460 -171.3084
522.000000 88.450 -170.7350
530.000000 88.440 -170.0875
538.000000 88.431 -169.4469
545.000000 88.425 -168.8921
552.000000 88.421 -168.3295
560.000000 88.418 -167.6795
570.000000 88.415 -166.8943
580.000000 88.414 -166.1055
590.000000 88.416 -165.3138
600.000000 88.418 -164.5274
608.000000 88.417 -163.8957
615.000000 88.418 -163.3318
622.000000 88.420 -162.7550
630.000000 88.422 -162.1025
640.000000 88.425 -161.3187
650.000000 88.431 -160.5351
660.000000 88.437 -159.7388
670.000000 88.443 -158.9403
680.000000 88.451 -158.1540
690.000000 88.461 -157.3749
700.000000 88.472 -156.5919
710.000000 88.490 -155.7805
720.000000 88.507 -154.9673
730.000000 88.525 -154.1747
740.000000 88.547 -153.3860
750.000000 88.572 -152.5943
762.000000 88.598 -151.6534
775.000000 88.624 -150.6328
788.000000 88.651 -149.6220
800.000000 88.678 -148.7073
812.000000 88.703 -147.7801
825.000000 88.726 -146.7791
838.000000 88.732 -145.7706
850.000000 88.705 -144.7080
862.000000 88.644 -143.2627
875.000000 88.623 -140.6403
885.000000 88.809 -138.0204
900.000000 89.391 -136.2323
912.000000 89.678 -136.9757
925.000000 89.758 -137.6102
938.000000 89.778 -137.5162
950.000000 89.806 -137.0938
962.000000 89.847 -136.5479
975.000000 89.899 -135.8668
988.000000 89.954 -135.1307
1000.000000 89.998 -134.4172
1015.000000 90.035 -133.3452
1030.000000 90.120 -131.8107
1044.000000 90.339 -130.4149
1060.000000 90.636 -129.9656
1075.000000 90.795 -130.0740
1090.000000 90.887 -129.9536
1106.000000 90.986 -129.5906
1120.000000 91.081 -129.1915
1138.000000 91.206 -128.6622
1150.000000 91.291 -128.3058
1172.000000 91.448 -127.6456
1180.000000 91.504 -127.4045
1206.000000 91.692 -126.6678
1220.000000 91.798 -126.3022
1241.000000 91.953 -125.7513
1250.000000 92.018 -125.5090
1265.000000 92.126 -125.1128
1280.000000 92.233 -124.7213
1315.000000 92.478 -123.8313
1320.000000 92.513 -123.7092
1340.000000 92.646 -123.2194
1360.000000 92.760 -122.7180
1380.000000 92.871 -122.2202
1400.000000 92.994 -121.7296
1430.000000 93.191 -121.0101
1450.000000 93.326 -120.5492
1475.000000 93.493 -119.9846
1500.000000 93.661 -119.4570
1525.000000 93.831 -118.9624
1550.000000 93.993 -118.4940
1575.000000 94.149 -118.0404
1600.000000 94.303 -117.6057
1625.000000 94.456 -117.1927
1650.000000 94.609 -116.7790
1675.000000 94.761 -116.3778
1700.000000 94.913 -115.9966
1725.000000 95.063 -115.6250
1750.000000 95.215 -115.2757
1775.000000 95.368 -114.9427
1800.000000 95.520 -114.6249
1825.000000 95.672 -114.3391
1850.000000 95.823 -114.0768
1875.000000 95.975 -113.8325
1900.000000 96.126 -113.6090
1925.000000 96.277 -113.4111
1950.000000 96.426 -113.2350
1975.000000 96.576 -113.0735
2000.000000 96.724 -112.9350
2030.000000 96.889 -112.8022
2060.000000 97.049 -112.6595
2090.000000 97.211 -112.4833
2120.000000 97.376 -112.2695
2140.000000 97.492 -112.1053
2180.000000 97.747 -111.7447
2200.000000 97.889 -111.5913
2240.000000 98.203 -111.4859
2270.000000 98.453 -111.6970
2300.000000 98.693 -112.1695
2330.000000 98.909 -112.8357
2360.000000 99.098 -113.6186
2400.000000 99.309 -114.7175
2430.000000 99.445 -115.5451
2470.000000 99.603 -116.6364
2500.000000 99.704 -117.4372
2540.000000 99.819 -118.4940
2580.000000 99.916 -119.5362
2620.000000 99.993 -120.5631
2650.000000 100.041 -121.3246
2690.000000 100.091 -122.3035
2720.000000 100.115 -123.0000
2760.000000 100.132 -123.8804
2800.000000 100.135 -124.7076
2850.000000 100.123 -125.6598
2900.000000 100.096 -126.5051
2950.000000 100.054 -127.2475
3000.000000 99.999 -127.8753
3040.000000 99.947 -128.3187
3070.000000 99.904 -128.6064
3110.000000 99.845 -128.9118
3150.000000 99.785 -129.1309
3200.000000 99.710 -129.3081
3250.000000 99.636 -129.4060
3300.000000 99.569 -129.4502
3350.000000 99.507 -129.4558
3400.000000 99.441 -129.4274
3450.000000 99.373 -129.3596
3500.000000 99.304 -129.2418
3550.000000 99.227 -129.0394
3600.000000 99.139 -128.6847
3650.000000 99.048 -128.1168
3700.000000 98.972 -127.3128
3750.000000 98.925 -126.3025
3820.000000 98.921 -124.7472
3870.000000 98.968 -123.7161
3950.000000 99.092 -122.3424
4000.000000 99.183 -121.6446
4060.000000 99.303 -120.9451
4120.000000 99.434 -120.3699
4180.000000 99.572 -119.9155
4250.000000 99.738 -119.5556
4310.000000 99.879 -119.4075
4370.000000 100.011 -119.4013
4440.000000 100.163 -119.5684
4500.000000 100.289 -119.8683
4550.000000 100.388 -120.2386
4620.000000 100.516 -120.9554
4680.000000 100.613 -121.7492
4750.000000 100.698 -122.8512
4820.000000 100.747 -124.1248
4870.000000 100.756 -125.1143
4940.000000 100.726 -126.5742
5000.000000 100.660 -127.8511
5080.000000 100.522 -129.4906
5150.000000 100.354 -130.7979
5220.000000 100.147 -131.9173
5300.000000 99.873 -132.9152
5380.000000 99.574 -133.6208
5450.000000 99.301 -134.0191
5520.000000 99.022 -134.2286
5600.000000 98.693 -134.2395
5700.000000 98.268 -133.8913
5800.000000 97.836 -133.1364
5900.000000 97.410 -131.9718
6000.000000 96.987 -130.3886
6080.000000 96.645 -128.6826
6150.000000 96.367 -126.5764
6220.000000 96.201 -123.8797
6300.000000 96.218 -121.1909
6400.000000 96.259 -119.4591
6500.000000 96.162 -117.9284
6600.000000 96.052 -115.8914
6700.000000 95.993 -113.5803
6800.000000 95.999 -111.1912
6900.000000 96.088 -108.8311
7000.000000 96.258 -106.5785
7100.000000 96.492 -104.5014
7200.000000 96.786 -102.6837
7300.000000 97.139 -101.2279
7400.000000 97.545 -100.2445
7500.000000 98.001 -99.8777
7620.000000 98.610 -100.4857
7750.000000 99.272 -102.7136
7880.000000 99.753 -106.7543
8000.000000 99.952 -111.9487
8120.000000 99.855 -117.9982
8250.000000 99.375 -124.5059
8380.000000 98.543 -129.8122
8500.000000 97.549 -132.9381
8620.000000 96.445 -134.1633
8750.000000 95.233 -133.5657
8850.000000 94.345 -132.0298
9000.000000 93.137 -128.4537
9120.000000 92.292 -124.8189
9250.000000 91.493 -120.3499
9380.000000 90.804 -115.4902
9500.000000 90.263 -110.7517
9620.000000 89.809 -105.8311
9750.000000 89.412 -100.3485
9880.000000 89.109 -94.7539
10000.000000 88.908 -89.5334
10150.000000 88.763 -82.9689
10300.000000 88.736 -76.3647
10440.000000 88.825 -70.1951
10600.000000 89.077 -63.2294
10750.000000 89.475 -56.8939
10900.000000 90.051 -50.8825
11060.000000 90.897 -45.0037
11200.000000 91.877 -40.5409
11380.000000 93.538 -36.4269
11500.000000 94.925 -35.4979
11720.000000 97.754 -41.2898
11800.000000 98.651 -47.0151
12060.000000 99.655 -77.6743
12200.000000 98.675 -93.8699
12410.000000 95.873 -106.9679
12500.000000 94.513 -108.7790
12650.000000 92.377 -108.6326
12800.000000 90.542 -106.1701
13150.000000 87.325 -96.9478
13200.000000 86.945 -95.4604
13400.000000 85.518 -89.0754
13600.000000 84.188 -81.4616
13800.000000 83.033 -72.0974
14000.000000 82.231 -61.3703
14300.000000 81.827 -45.0931
14500.000000 81.989 -35.2679
14750.000000 82.539 -24.5900
15000.000000 83.418 -15.8969
15250.000000 84.612 -9.6726
15500.000000 86.071 -6.8169
15750.000000 87.565 -8.3697
16000.000000 88.746 -14.4679
16250.000000 89.432 -23.7845
16500.000000 89.602 -35.4058
16750.000000 89.136 -48.8958
17000.000000 87.790 -62.4033
17250.000000 85.271 -68.7398
17500.000000 82.238 -62.0773
17750.000000 80.691 -50.5724
18000.000000 80.740 -45.8912
18250.000000 80.702 -48.8843
18500.000000 79.986 -54.6557
18750.000000 78.665 -59.6798
19000.000000 76.940 -62.7165
19250.000000 74.963 -63.7851
19500.000000 72.796 -63.2210
19750.000000 70.459 -61.0143
20000.000000 67.914 -56.5802
20300.000000 64.610 -47.2869
20600.000000 61.418 -33.5810
20900.000000 58.805 -17.4935
21200.000000 56.978 -2.3615
21400.000000 56.113 5.3494
21800.000000 54.653 -3.0480
22000.000000 53.682 -75.1742
22400.000000 50.174 -1.2955
22700.000000 45.872 156.1533
23000.000000 41.786 -70.8613
23300.000000 40.443 127.3164
23600.000000 41.142 -5.4258
24000.000000 42.894 -132.2266
