* Measurement data measured by REW V5.20.13
* Source: Headset (DS by VECLAN.COM), MICROPHONE (Master Volume), L, volume: 0.720. Timing signal peak level -16.7 dBFS, measurement signal peak level -14.2 dBFS
* Format: 2M Log Swept Sine, 1 sweep at -12.0 dBFS using an acoustic timing reference
* Dated: Feb 6, 2024 2:20:43 PM
* REW Settings:
*  C-weighting compensation: Off
*  Target level: 75.0 dB
* Note: ; Delay -0.0660 ms (-23 mm, -0.89 in) using estimated IR delay relative to Acoustic reference played from HEADPHONE R with no timing offset
* Measurement: Sonic Memory SM1 Gold R
* Smoothing: 1/24 octave
* Frequency Step: 1/48 octave
* Start Frequency: 1.000 Hz
*
* Freq(Hz) SPL(dB) Phase(degrees)
1.000000 72.882 -130.4123
1.015000 73.120 -131.7058
1.030000 73.354 -133.0110
1.044000 73.566 -134.2377
1.060000 73.802 -135.6475
1.075000 74.014 -136.9746
1.090000 74.219 -138.3046
1.106000 74.427 -139.7303
1.120000 74.605 -141.0164
1.138000 74.832 -142.7273
1.150000 74.981 -143.9006
1.172000 75.250 -146.1114
1.180000 75.347 -146.9324
1.206000 75.656 -149.6535
1.220000 75.820 -151.1466
1.241000 76.062 -153.4135
1.250000 76.164 -154.3926
1.265000 76.333 -156.0312
1.280000 76.499 -157.6746
1.315000 76.879 -161.5044
1.320000 76.932 -162.0487
1.340000 77.143 -164.2125
1.360000 77.349 -166.3477
1.380000 77.553 -168.4444
1.400000 77.752 -170.4925
1.430000 78.044 -173.4520
1.450000 78.235 -175.3354
1.475000 78.468 -177.5790
1.500000 78.691 -179.7549
1.525000 78.906 178.1205
1.550000 79.113 176.0461
1.575000 79.312 174.0205
1.600000 79.505 172.0425
1.625000 79.692 170.1108
1.650000 79.875 168.2240
1.675000 80.055 166.3809
1.700000 80.231 164.5802
1.725000 80.406 162.8206
1.750000 80.580 161.1008
1.775000 80.754 159.4194
1.800000 80.929 157.7753
1.825000 81.105 156.1671
1.850000 81.284 154.6002
1.875000 81.461 153.0882
1.900000 81.637 151.6281
1.925000 81.811 150.2164
1.950000 81.984 148.8493
1.975000 82.156 147.5233
2.000000 82.326 146.2348
2.030000 82.528 144.7329
2.060000 82.728 143.2735
2.090000 82.925 141.8503
2.120000 83.119 140.4570
2.140000 83.247 139.5417
2.180000 83.499 137.7353
2.200000 83.624 136.8406
2.240000 83.869 135.0981
2.270000 84.051 133.8395
2.300000 84.230 132.6188
2.330000 84.407 131.4332
2.360000 84.582 130.2795
2.400000 84.809 128.7857
2.430000 84.977 127.6949
2.470000 85.194 126.2740
2.500000 85.353 125.2297
2.540000 85.559 123.8599
2.580000 85.757 122.5120
2.620000 85.948 121.2033
2.650000 86.087 120.2492
2.690000 86.266 119.0112
2.720000 86.396 118.1070
2.760000 86.564 116.9313
2.800000 86.728 115.7875
2.850000 86.925 114.3983
2.900000 87.116 113.0490
2.950000 87.302 111.7355
3.000000 87.479 110.4652
3.040000 87.614 109.4815
3.070000 87.713 108.7625
3.110000 87.840 107.8287
3.150000 87.964 106.9230
3.200000 88.114 105.8300
3.250000 88.261 104.7800
3.300000 88.404 103.7726
3.350000 88.542 102.8141
3.400000 88.675 101.9056
3.450000 88.802 101.0423
3.500000 88.926 100.2191
3.550000 89.046 99.4309
3.600000 89.166 98.6728
3.650000 89.284 97.9398
3.700000 89.402 97.2337
3.750000 89.517 96.5660
3.820000 89.674 95.6879
3.870000 89.785 95.0946
3.950000 89.961 94.1909
4.000000 90.072 93.6470
4.060000 90.206 93.0134
4.120000 90.341 92.4211
4.180000 90.475 91.8629
4.250000 90.632 91.2386
4.310000 90.767 90.7126
4.370000 90.901 90.1825
4.440000 91.059 89.5530
4.500000 91.195 89.0217
4.550000 91.309 88.5827
4.620000 91.468 87.9683
4.680000 91.602 87.4363
4.750000 91.757 86.8028
4.820000 91.909 86.1531
4.870000 92.017 85.6830
4.940000 92.167 85.0169
5.000000 92.293 84.4393
5.080000 92.455 83.6606
5.150000 92.591 82.9713
5.220000 92.723 82.2674
5.300000 92.868 81.4504
5.380000 93.007 80.6305
5.450000 93.123 79.9193
5.520000 93.233 79.2197
5.600000 93.352 78.4208
5.700000 93.490 77.4301
5.800000 93.619 76.4672
5.900000 93.740 75.5495
6.000000 93.850 74.6675
6.080000 93.933 73.9878
6.150000 94.002 73.4144
6.220000 94.069 72.8629
6.300000 94.144 72.2623
6.400000 94.233 71.5532
6.500000 94.318 70.8810
6.600000 94.403 70.2359
6.700000 94.487 69.6261
6.800000 94.571 69.0489
6.900000 94.654 68.4862
7.000000 94.737 67.9232
7.100000 94.821 67.3706
7.200000 94.904 66.8242
7.300000 94.985 66.2742
7.400000 95.063 65.7137
7.500000 95.140 65.1470
7.620000 95.229 64.4657
7.750000 95.317 63.7311
7.880000 95.399 62.9924
8.000000 95.469 62.3243
8.120000 95.534 61.6855
8.250000 95.597 61.0183
8.380000 95.658 60.3833
8.500000 95.714 59.8353
8.620000 95.767 59.3241
8.750000 95.827 58.7912
8.850000 95.877 58.3883
9.000000 95.956 57.8116
9.120000 96.023 57.3376
9.250000 96.101 56.7874
9.380000 96.184 56.2133
9.500000 96.259 55.6374
9.620000 96.330 55.0003
9.750000 96.404 54.2529
9.880000 96.465 53.4593
10.000000 96.504 52.6772
10.150000 96.535 51.6462
10.300000 96.544 50.6314
10.440000 96.528 49.6851
10.600000 96.492 48.6619
10.750000 96.447 47.8081
10.900000 96.390 47.0428
11.060000 96.332 46.3624
11.200000 96.282 45.8853
11.380000 96.231 45.3872
11.500000 96.209 45.1393
11.720000 96.196 44.7558
11.800000 96.203 44.6107
12.060000 96.260 44.1102
12.200000 96.306 43.7247
12.410000 96.392 43.0082
12.500000 96.425 42.6419
12.650000 96.479 41.9419
12.800000 96.525 41.1840
13.150000 96.573 39.2932
13.200000 96.574 39.0383
13.400000 96.561 38.0510
13.600000 96.534 37.2191
13.800000 96.497 36.5877
14.000000 96.469 36.1464
14.300000 96.454 35.8050
14.500000 96.478 35.7027
14.750000 96.544 35.5610
15.000000 96.647 35.3249
15.250000 96.770 34.8786
15.500000 96.891 34.2474
15.750000 97.000 33.4604
16.000000 97.084 32.6016
16.250000 97.147 31.7532
16.500000 97.191 30.9516
16.750000 97.226 30.2345
17.000000 97.259 29.5790
17.250000 97.291 28.9620
17.500000 97.322 28.3496
17.750000 97.347 27.7211
18.000000 97.362 27.0907
18.250000 97.362 26.4756
18.500000 97.349 25.9362
18.750000 97.329 25.4994
19.000000 97.307 25.1892
19.250000 97.296 24.9907
19.500000 97.301 24.8481
19.750000 97.325 24.7147
20.000000 97.365 24.5012
20.299999 97.422 24.0924
20.600000 97.473 23.5109
20.900000 97.504 22.8094
21.200001 97.510 22.0956
21.400000 97.504 21.6735
21.799999 97.485 20.9937
22.000000 97.481 20.7245
22.400000 97.503 20.2213
22.700001 97.542 19.7496
23.000000 97.586 19.1103
23.299999 97.617 18.3190
23.600000 97.625 17.4579
24.000000 97.595 16.3835
24.299999 97.555 15.7588
24.700001 97.508 15.2102
25.000000 97.495 14.9344
25.400000 97.515 14.5667
25.799999 97.558 14.0274
26.200001 97.591 13.3053
26.500000 97.598 12.7363
26.900000 97.587 12.0823
27.200001 97.577 11.7208
27.600000 97.582 11.3624
28.000000 97.616 10.9681
28.500000 97.671 10.1790
29.000000 97.681 9.1044
29.500000 97.621 8.1189
30.000000 97.529 7.5663
30.400000 97.476 7.4043
30.700001 97.460 7.3304
31.100000 97.461 7.1440
31.500000 97.469 6.8108
32.000000 97.463 6.3009
32.500000 97.447 5.8625
33.000000 97.448 5.4910
33.500000 97.469 5.0289
34.000000 97.490 4.4020
34.500000 97.493 3.7090
35.000000 97.483 3.0610
35.500000 97.470 2.4674
36.000000 97.452 1.8960
36.500000 97.425 1.3807
37.000000 97.396 0.9829
37.500000 97.379 0.6724
38.200001 97.379 0.1636
38.700001 97.372 -0.3176
39.500000 97.329 -1.0620
40.000000 97.297 -1.4258
40.599998 97.270 -1.8336
41.200001 97.248 -2.3028
41.799999 97.221 -2.8189
42.500000 97.181 -3.3971
43.099998 97.146 -3.8223
43.700001 97.122 -4.1802
44.400002 97.113 -4.5939
45.000000 97.113 -5.0413
45.500000 97.104 -5.4777
46.200001 97.064 -6.0396
46.799999 97.015 -6.3282
47.500000 96.976 -6.4524
48.200001 96.971 -6.5961
48.700001 96.971 -6.8379
49.400002 96.946 -7.3379
50.000000 96.892 -7.7396
50.799999 96.804 -8.0521
51.500000 96.744 -8.1840
52.200001 96.714 -8.3312
53.000000 96.712 -8.6836
53.799999 96.712 -9.3624
54.500000 96.678 -10.0765
55.200001 96.620 -10.6021
56.000000 96.572 -10.9247
57.000000 96.554 -11.3477
58.000000 96.520 -11.8479
59.000000 96.461 -12.2201
60.000000 96.394 -12.4060
60.799999 96.366 -12.5223
61.500000 96.353 -12.8533
62.200001 96.312 -13.3733
63.000000 96.230 -13.8336
64.000000 96.159 -14.1414
65.000000 96.120 -14.5931
66.000000 96.070 -14.9178
67.000000 96.053 -15.0265
68.000000 96.052 -15.2278
69.000000 96.029 -15.4973
70.000000 95.968 -15.7844
71.000000 95.875 -15.9291
72.000000 95.795 -15.9877
73.000000 95.736 -16.2289
74.000000 95.676 -16.6605
75.000000 95.611 -17.1478
76.199997 95.535 -17.5957
77.500000 95.484 -17.8403
78.800003 95.459 -18.1180
80.000000 95.406 -18.4705
81.199997 95.320 -18.7004
82.500000 95.224 -18.8502
83.800003 95.143 -18.9906
85.000000 95.093 -19.1844
86.199997 95.045 -19.4669
87.500000 94.984 -19.6616
88.500000 94.942 -19.7115
90.000000 94.895 -19.7570
91.199997 94.860 -19.9274
92.500000 94.797 -20.1536
93.800003 94.734 -20.2616
95.000000 94.682 -20.3688
96.199997 94.623 -20.4833
97.500000 94.554 -20.5900
98.800003 94.490 -20.7471
100.000000 94.423 -21.0415
101.500000 94.319 -21.3162
103.000000 94.234 -21.4385
104.400002 94.167 -21.4033
106.000000 94.110 -21.2405
107.500000 94.074 -21.1150
109.000000 94.034 -21.2770
110.599998 93.947 -21.5443
112.000000 93.871 -21.6142
113.800003 93.815 -21.6744
115.000000 93.795 -21.8135
117.199997 93.761 -22.3002
118.000000 93.741 -22.4579
120.599998 93.653 -22.3790
122.000000 93.611 -21.7502
124.099998 93.575 -20.8946
125.000000 93.539 -20.8135
126.500000 93.418 -21.0925
128.000000 93.234 -21.5405
131.500000 93.015 -21.4838
132.000000 93.034 -21.4308
134.000000 93.123 -21.3977
136.000000 93.142 -21.3835
138.000000 93.084 -21.2905
140.000000 93.008 -21.2108
143.000000 92.915 -21.2743
145.000000 92.858 -21.3042
147.500000 92.783 -21.2802
150.000000 92.703 -21.1667
152.500000 92.622 -20.9597
155.000000 92.544 -20.7434
157.500000 92.477 -20.6097
160.000000 92.423 -20.5214
162.500000 92.365 -20.4167
165.000000 92.289 -20.2655
167.500000 92.220 -19.9727
170.000000 92.167 -19.5847
172.500000 92.128 -19.1882
175.000000 92.071 -19.0352
177.500000 91.994 -18.9037
180.000000 91.930 -18.8007
182.500000 91.865 -18.4940
185.000000 91.863 -17.9858
187.500000 91.877 -17.9309
190.000000 91.820 -18.1674
192.500000 91.715 -18.1245
195.000000 91.653 -17.7338
197.500000 91.634 -17.3019
200.000000 91.639 -16.9358
203.000000 91.649 -16.6735
206.000000 91.626 -16.3407
209.000000 91.570 -16.1592
212.000000 91.473 -16.3610
214.000000 91.417 -16.5199
218.000000 91.362 -16.5822
220.000000 91.338 -16.4919
224.000000 91.263 -16.2601
227.000000 91.203 -16.0701
230.000000 91.156 -15.8400
233.000000 91.113 -15.5935
236.000000 91.065 -15.3577
240.000000 91.003 -15.0492
243.000000 90.961 -14.8399
247.000000 90.903 -14.5133
250.000000 90.859 -14.2274
254.000000 90.803 -13.8771
258.000000 90.748 -13.5555
262.000000 90.693 -13.2614
265.000000 90.656 -13.0612
269.000000 90.611 -12.7749
272.000000 90.576 -12.5140
276.000000 90.537 -12.1407
280.000000 90.496 -11.8026
285.000000 90.441 -11.3743
290.000000 90.398 -10.8212
295.000000 90.347 -10.4156
300.000000 90.306 -9.9578
304.000000 90.283 -9.7139
307.000000 90.262 -9.5262
311.000000 90.234 -9.2371
315.000000 90.208 -8.9233
320.000000 90.162 -8.4309
325.000000 90.129 -7.9566
330.000000 90.084 -7.5703
335.000000 90.043 -7.0494
340.000000 90.013 -6.5684
345.000000 89.979 -6.1340
350.000000 89.949 -5.7106
355.000000 89.926 -5.2200
360.000000 89.903 -4.7340
365.000000 89.883 -4.2856
370.000000 89.869 -3.9009
375.000000 89.857 -3.5782
382.000000 89.834 -3.1505
387.000000 89.808 -2.7817
395.000000 89.755 -2.1400
400.000000 89.718 -1.7574
406.000000 89.680 -1.2997
412.000000 89.653 -0.8130
418.000000 89.627 -0.3254
425.000000 89.595 0.2369
431.000000 89.575 0.7349
437.000000 89.563 1.2147
444.000000 89.543 1.7333
450.000000 89.520 2.1987
455.000000 89.503 2.6276
462.000000 89.480 3.2607
468.000000 89.457 3.7902
475.000000 89.437 4.3546
482.000000 89.429 4.9040
487.000000 89.425 5.3140
494.000000 89.418 5.8690
500.000000 89.415 6.3044
508.000000 89.412 6.8417
515.000000 89.403 7.3018
522.000000 89.392 7.7996
530.000000 89.377 8.4086
538.000000 89.366 8.9828
545.000000 89.364 9.4620
552.000000 89.367 9.9321
560.000000 89.366 10.4884
570.000000 89.353 11.2422
580.000000 89.338 12.0200
590.000000 89.331 12.7709
600.000000 89.340 13.4952
608.000000 89.348 14.0541
615.000000 89.350 14.5380
622.000000 89.346 15.0525
630.000000 89.339 15.6816
640.000000 89.325 16.4802
650.000000 89.315 17.2294
660.000000 89.316 17.9568
670.000000 89.322 18.7085
680.000000 89.338 19.4692
690.000000 89.360 20.1831
700.000000 89.379 20.8879
710.000000 89.390 21.6577
720.000000 89.396 22.4564
730.000000 89.402 23.2065
740.000000 89.418 23.9388
750.000000 89.440 24.6989
762.000000 89.470 25.5954
775.000000 89.511 26.5194
788.000000 89.549 27.4584
800.000000 89.582 28.3544
812.000000 89.616 29.2423
825.000000 89.660 30.1730
838.000000 89.710 31.0818
850.000000 89.759 31.9251
862.000000 89.815 32.7713
875.000000 89.882 33.6276
885.000000 89.935 34.2578
900.000000 90.011 35.2388
912.000000 90.067 36.0369
925.000000 90.132 36.8453
938.000000 90.206 37.6011
950.000000 90.279 38.2835
962.000000 90.353 38.9537
975.000000 90.435 39.6493
988.000000 90.520 40.3030
1000.000000 90.599 40.8775
1015.000000 90.696 41.5755
1030.000000 90.787 42.2412
1044.000000 90.871 42.8300
1060.000000 90.968 43.4589
1075.000000 91.058 44.0009
1090.000000 91.152 44.5370
1106.000000 91.262 45.0798
1120.000000 91.360 45.5079
1138.000000 91.483 46.0160
1150.000000 91.562 46.3352
1172.000000 91.699 46.8797
1180.000000 91.746 47.0711
1206.000000 91.903 47.6874
1220.000000 91.988 47.9931
1241.000000 92.114 48.4486
1250.000000 92.165 48.6497
1265.000000 92.249 48.9774
1280.000000 92.331 49.2871
1315.000000 92.521 50.0032
1320.000000 92.547 50.1046
1340.000000 92.643 50.5007
1360.000000 92.717 50.8840
1380.000000 92.779 51.2841
1400.000000 92.846 51.7149
1430.000000 92.959 52.3762
1450.000000 93.043 52.8118
1475.000000 93.147 53.3673
1500.000000 93.243 53.9628
1525.000000 93.341 54.5577
1550.000000 93.443 55.1196
1575.000000 93.540 55.6765
1600.000000 93.627 56.2541
1625.000000 93.711 56.8256
1650.000000 93.797 57.3897
1675.000000 93.889 57.9580
1700.000000 93.989 58.5122
1725.000000 94.092 59.0513
1750.000000 94.185 59.5970
1775.000000 94.268 60.1678
1800.000000 94.351 60.7312
1825.000000 94.444 61.2649
1850.000000 94.543 61.7805
1875.000000 94.640 62.3004
1900.000000 94.730 62.8280
1925.000000 94.821 63.3486
1950.000000 94.920 63.8409
1975.000000 95.027 64.3078
2000.000000 95.134 64.7744
2030.000000 95.259 65.3241
2060.000000 95.379 65.8648
2090.000000 95.498 66.3862
2120.000000 95.618 66.8820
2140.000000 95.700 67.2058
2180.000000 95.868 67.8232
2200.000000 95.953 68.1074
2240.000000 96.118 68.6590
2270.000000 96.239 69.0556
2300.000000 96.364 69.4166
2330.000000 96.490 69.7456
2360.000000 96.614 70.0571
2400.000000 96.776 70.4466
2430.000000 96.902 70.6930
2470.000000 97.070 70.9783
2500.000000 97.190 71.1727
2540.000000 97.347 71.3899
2580.000000 97.501 71.5571
2620.000000 97.652 71.6882
2650.000000 97.768 71.7484
2690.000000 97.918 71.7822
2720.000000 98.022 71.7954
2760.000000 98.151 71.7811
2800.000000 98.283 71.7134
2850.000000 98.450 71.5607
2900.000000 98.607 71.3572
2950.000000 98.751 71.0945
3000.000000 98.880 70.7892
3040.000000 98.974 70.5076
3070.000000 99.042 70.2756
3110.000000 99.130 69.9440
3150.000000 99.215 69.5793
3200.000000 99.310 69.1005
3250.000000 99.389 68.6038
3300.000000 99.454 68.0824
3350.000000 99.501 67.5539
3400.000000 99.538 67.0177
3450.000000 99.572 66.4736
3500.000000 99.604 65.9315
3550.000000 99.628 65.3987
3600.000000 99.643 64.8751
3650.000000 99.643 64.3685
3700.000000 99.624 63.8933
3750.000000 99.591 63.4469
3820.000000 99.534 62.8630
3870.000000 99.487 62.4747
3950.000000 99.387 61.9436
4000.000000 99.317 61.6576
4060.000000 99.229 61.3590
4120.000000 99.133 61.1169
4180.000000 99.020 60.9390
4250.000000 98.864 60.8195
4310.000000 98.721 60.7756
4370.000000 98.571 60.7891
4440.000000 98.389 60.8862
4500.000000 98.234 61.0308
4550.000000 98.105 61.1950
4620.000000 97.914 61.5034
4680.000000 97.738 61.8387
4750.000000 97.520 62.3098
4820.000000 97.292 62.8746
4870.000000 97.132 63.3245
4940.000000 96.918 64.0192
5000.000000 96.742 64.6830
5080.000000 96.513 65.6626
5150.000000 96.314 66.6098
5220.000000 96.112 67.6450
5300.000000 95.877 68.9336
5380.000000 95.637 70.3497
5450.000000 95.430 71.7032
5520.000000 95.233 73.1833
5600.000000 95.038 74.9882
5700.000000 94.842 77.2057
5800.000000 94.657 79.3440
5900.000000 94.472 81.5879
6000.000000 94.294 83.9717
6080.000000 94.157 85.9615
6150.000000 94.047 87.7456
6220.000000 93.956 89.5503
6300.000000 93.876 91.6278
6400.000000 93.803 94.2375
6500.000000 93.751 96.8442
6600.000000 93.722 99.4238
6700.000000 93.718 101.9618
6800.000000 93.742 104.4586
6900.000000 93.809 106.9207
7000.000000 93.924 109.3513
7100.000000 94.080 111.7352
7200.000000 94.278 114.0098
7300.000000 94.524 116.0623
7400.000000 94.817 117.7690
7500.000000 95.150 119.0189
7620.000000 95.587 119.7865
7750.000000 96.046 119.5948
7880.000000 96.356 118.3225
8000.000000 96.483 116.3779
8120.000000 96.444 114.0936
8250.000000 96.214 111.8223
8380.000000 95.848 110.2300
8500.000000 95.473 109.4015
8620.000000 95.111 108.8815
8750.000000 94.720 108.2108
8850.000000 94.383 107.4585
9000.000000 93.743 106.1161
9120.000000 93.092 105.2625
9250.000000 92.261 105.0180
9380.000000 91.342 105.7492
9500.000000 90.457 107.3295
9620.000000 89.579 109.6954
9750.000000 88.669 113.0056
9880.000000 87.820 116.9373
10000.000000 87.096 120.9980
10150.000000 86.267 126.5299
10300.000000 85.512 132.4560
10440.000000 84.869 138.2569
10600.000000 84.202 145.1354
10750.000000 83.648 151.7717
10900.000000 83.162 158.5519
11060.000000 82.710 165.9113
11200.000000 82.364 172.4365
11380.000000 81.983 -179.0777
11500.000000 81.770 -173.3758
11720.000000 81.469 -162.8606
11800.000000 81.387 -159.0233
12060.000000 81.212 -146.5233
12200.000000 81.171 -139.7849
12410.000000 81.177 -129.6856
12500.000000 81.205 -125.3643
12650.000000 81.290 -118.1780
12800.000000 81.427 -111.0237
13150.000000 81.967 -94.5191
13200.000000 82.070 -92.1857
13400.000000 82.555 -82.9181
13600.000000 83.179 -73.8528
13800.000000 83.961 -65.1686
14000.000000 84.906 -56.9206
14300.000000 86.699 -45.6623
14500.000000 88.230 -39.3681
14750.000000 90.622 -34.1149
15000.000000 93.418 -34.4691
15250.000000 95.889 -44.7783
15500.000000 96.944 -65.1736
15750.000000 96.140 -85.0006
16000.000000 94.145 -95.0745
16250.000000 91.986 -96.7434
16500.000000 90.190 -94.1831
16750.000000 88.800 -89.9153
17000.000000 87.695 -85.0698
17250.000000 86.751 -80.0929
17500.000000 85.895 -75.0930
17750.000000 85.069 -70.0018
18000.000000 84.225 -64.6326
18250.000000 83.367 -58.7131
18500.000000 82.585 -51.9783
18750.000000 82.027 -44.2668
19000.000000 81.710 -35.5314
19250.000000 81.432 -25.7957
19500.000000 80.980 -15.1546
19750.000000 80.349 -3.6810
20000.000000 79.619 8.4770
20300.000000 78.784 23.6287
20600.000000 78.193 38.9500
20900.000000 77.841 53.3197
21200.000000 77.606 65.1707
21400.000000 77.369 70.5809
21800.000000 75.920 60.8766
22000.000000 74.172 6.0282
22400.000000 67.718 5.1401
22700.000000 60.559 95.3162
23000.000000 51.963 -53.8184
23300.000000 42.578 113.6973
23600.000000 34.633 -31.2461
24000.000000 31.108 -7.3906
