* Measurement data measured by REW V5.20.13
* Source: Headset (DS by VECLAN.COM), MICROPHONE (Master Volume), L, volume: 0.910. Timing signal peak level -30.4 dBFS, measurement signal peak level -27.7 dBFS
* Format: 2M Log Swept Sine, 1 sweep at -12.0 dBFS using an acoustic timing reference
* Dated: Aug 27, 2023 3:08:13 PM
* REW Settings:
*  C-weighting compensation: Off
*  Target level: 75.0 dB
* Note: ; Delay -0.0654 ms (-22 mm, -0.88 in) using estimated IR delay relative to Acoustic reference played from HEADPHONE L with no timing offset Clock adjustment: -0.2 ppm
* Measurement: WF-XM5 S2 50% L
* Smoothing: 1/24 octave
* Frequency Step: 1/48 octave
* Start Frequency: 1.000 Hz
*
* Freq(Hz) SPL(dB) Phase(degrees)
1.000000 48.662 69.5909
1.015000 48.641 67.7229
1.030000 48.609 66.0151
1.044000 48.569 64.5841
1.060000 48.508 63.1636
1.075000 48.437 62.0615
1.090000 48.352 61.2032
1.106000 48.243 60.5540
1.120000 48.126 60.0798
1.138000 47.949 59.5642
1.150000 47.814 59.2833
1.172000 47.538 58.9083
1.180000 47.429 58.8194
1.206000 47.048 58.7172
1.220000 46.829 58.7872
1.241000 46.484 59.0674
1.250000 46.332 59.2548
1.265000 46.075 59.6608
1.280000 45.813 60.1883
1.315000 45.199 61.9195
1.320000 45.112 62.2267
1.340000 44.767 63.6128
1.360000 44.433 65.2593
1.380000 44.112 67.1780
1.400000 43.811 69.3807
1.430000 43.404 73.2435
1.450000 43.170 76.2083
1.475000 42.919 80.4270
1.500000 42.658 85.6501
1.525000 42.382 91.8419
1.550000 42.100 98.8414
1.575000 41.821 106.4878
1.600000 41.554 114.6203
1.625000 41.308 123.0780
1.650000 41.093 131.7001
1.675000 40.918 140.3257
1.700000 40.792 148.7940
1.725000 40.724 156.9442
1.750000 40.724 164.6153
1.775000 40.801 171.6467
1.800000 40.964 177.8773
1.825000 41.222 -176.8535
1.850000 41.595 -172.5097
1.875000 42.104 -168.6844
1.900000 42.732 -165.3293
1.925000 43.461 -162.4143
1.950000 44.272 -159.9091
1.975000 45.147 -157.7837
2.000000 46.068 -156.0079
2.030000 47.207 -154.2958
2.060000 48.353 -152.9915
2.090000 49.476 -152.0431
2.120000 50.542 -151.3982
2.140000 51.206 -151.1112
2.180000 52.380 -150.8108
2.200000 52.871 -150.7693
2.240000 53.736 -151.4715
2.270000 54.317 -152.7516
2.300000 54.847 -154.5497
2.330000 55.332 -156.7512
2.360000 55.779 -159.2412
2.400000 56.328 -162.8117
2.430000 56.712 -165.5284
2.470000 57.199 -168.9843
2.500000 57.555 -171.3026
2.540000 58.028 -173.8104
2.580000 58.509 -175.4517
2.620000 58.964 -176.5073
2.650000 59.284 -177.0258
2.690000 59.685 -177.4326
2.720000 59.970 -177.5786
2.760000 60.332 -177.6411
2.800000 60.678 -177.6435
2.850000 61.093 -177.7136
2.900000 61.497 -178.0393
2.950000 61.896 -178.7856
3.000000 62.274 -179.7985
3.040000 62.559 179.2758
3.070000 62.765 178.5353
3.110000 63.031 177.5121
3.150000 63.289 176.4775
3.200000 63.604 175.2171
3.250000 63.915 174.0520
3.300000 64.227 173.0446
3.350000 64.534 172.1753
3.400000 64.832 171.3900
3.450000 65.123 170.6728
3.500000 65.409 170.0078
3.550000 65.692 169.3789
3.600000 65.975 168.7703
3.650000 66.261 168.1660
3.700000 66.549 167.5854
3.750000 66.837 167.0862
3.820000 67.240 166.4606
3.870000 67.526 166.0161
3.950000 67.982 165.2075
4.000000 68.265 164.5839
4.060000 68.602 163.6635
4.120000 68.941 162.5846
4.180000 69.279 161.3904
4.250000 69.669 159.9042
4.310000 69.996 158.5961
4.370000 70.314 157.2982
4.440000 70.673 155.8377
4.500000 70.974 154.6101
4.550000 71.220 153.5827
4.620000 71.554 152.1065
4.680000 71.829 150.7767
4.750000 72.133 149.1122
4.820000 72.420 147.2813
4.870000 72.615 145.8756
4.940000 72.875 143.8216
5.000000 73.085 142.0266
5.080000 73.346 139.6604
5.150000 73.555 137.6794
5.220000 73.746 135.7382
5.300000 73.942 133.5440
5.380000 74.117 131.3834
5.450000 74.256 129.5263
5.520000 74.381 127.7019
5.600000 74.503 125.6222
5.700000 74.628 123.0729
5.800000 74.734 120.6577
5.900000 74.829 118.4530
6.000000 74.903 116.4402
6.080000 74.953 114.9474
6.150000 74.996 113.7180
6.220000 75.044 112.5532
6.300000 75.104 111.3255
6.400000 75.179 109.9522
6.500000 75.263 108.6708
6.600000 75.362 107.3884
6.700000 75.482 106.1398
6.800000 75.616 104.9299
6.900000 75.757 103.6716
7.000000 75.900 102.2898
7.100000 76.054 100.8241
7.200000 76.210 99.2747
7.300000 76.348 97.6216
7.400000 76.465 95.8290
7.500000 76.570 93.8941
7.620000 76.662 91.5055
7.750000 76.701 88.9521
7.880000 76.681 86.3159
8.000000 76.610 84.0426
8.120000 76.483 82.1243
8.250000 76.273 80.2789
8.380000 76.028 78.9917
8.500000 75.786 78.5832
8.620000 75.506 78.8325
8.750000 75.252 79.7180
8.850000 75.144 80.8429
9.000000 75.073 83.4366
9.120000 75.135 85.6140
9.250000 75.377 87.6459
9.380000 75.781 89.5971
9.500000 76.202 90.8345
9.620000 76.638 91.2174
9.750000 77.158 90.8923
9.880000 77.628 89.9260
10.000000 77.984 88.4035
10.150000 78.356 85.7522
10.300000 78.605 82.8774
10.440000 78.723 79.8894
10.600000 78.739 76.5468
10.750000 78.637 73.7987
10.900000 78.434 71.3918
11.060000 78.164 69.7601
11.200000 77.861 69.1019
11.380000 77.531 69.1895
11.500000 77.365 69.9987
11.720000 77.231 72.0941
11.800000 77.279 72.8228
12.060000 77.692 74.9618
12.200000 78.007 75.0940
12.410000 78.561 74.0946
12.500000 78.759 73.1756
12.650000 79.063 70.9076
12.800000 79.292 68.1251
13.150000 79.429 60.4321
13.200000 79.405 59.3628
13.400000 79.191 55.0974
13.600000 78.842 51.5990
13.800000 78.361 49.1466
14.000000 77.877 47.9630
14.300000 77.243 48.3985
14.500000 77.059 49.5869
14.750000 77.083 50.7190
15.000000 77.355 50.8307
15.250000 77.653 49.1683
15.500000 77.849 46.3308
15.750000 77.882 42.7970
16.000000 77.718 39.5727
16.250000 77.443 37.4107
16.500000 77.133 36.5065
16.750000 76.927 36.9405
17.000000 76.934 37.7935
17.250000 77.133 38.4891
17.500000 77.477 38.2589
17.750000 77.802 36.9113
18.000000 78.050 34.7424
18.250000 78.160 32.1113
18.500000 78.133 29.7741
18.750000 78.013 28.0220
19.000000 77.840 27.1213
19.250000 77.703 27.0099
19.500000 77.635 27.3439
19.750000 77.656 27.8537
20.000000 77.738 28.1002
20.299999 77.853 27.9896
20.600000 77.937 27.5321
20.900000 77.968 27.0058
21.200001 77.967 26.6816
21.400000 77.973 26.5778
21.799999 78.020 26.3858
22.000000 78.061 26.1558
22.400000 78.141 25.1886
22.700001 78.159 24.0716
23.000000 78.119 22.8341
23.299999 78.034 21.6891
23.600000 77.931 20.7142
24.000000 77.807 19.6098
24.299999 77.742 18.7426
24.700001 77.679 17.3000
25.000000 77.624 15.9483
25.400000 77.503 13.8879
25.799999 77.299 11.8453
26.200001 77.001 10.3375
26.500000 76.741 9.9562
26.900000 76.437 10.8107
27.200001 76.353 12.3621
27.600000 76.560 14.8185
28.000000 77.100 16.1963
28.500000 77.881 14.8302
29.000000 78.370 10.7173
29.500000 78.454 6.2121
30.000000 78.294 3.1600
30.400000 78.148 1.6882
30.700001 78.054 0.7191
31.100000 77.886 -0.7091
31.500000 77.583 -1.8748
32.000000 77.025 -1.4357
32.500000 76.595 1.8458
33.000000 76.674 5.8044
33.500000 77.101 7.5037
34.000000 77.416 6.4826
34.500000 77.437 4.7629
35.000000 77.297 3.9870
35.500000 77.214 4.0833
36.000000 77.243 4.0186
36.500000 77.288 3.3165
37.000000 77.270 2.3108
37.500000 77.199 1.4302
38.200001 77.075 0.6075
38.700001 76.996 0.3037
39.500000 76.948 0.1211
40.000000 76.970 -0.1973
40.599998 76.975 -0.9962
41.200001 76.901 -1.7902
41.799999 76.792 -2.0778
42.500000 76.733 -1.9750
43.099998 76.747 -2.1297
43.700001 76.745 -2.6791
44.400002 76.677 -3.3633
45.000000 76.604 -3.6084
45.500000 76.586 -3.6910
46.200001 76.622 -4.1625
46.799999 76.638 -5.0532
47.500000 76.594 -6.1308
48.200001 76.544 -6.9343
48.700001 76.526 -7.5207
49.400002 76.478 -8.4555
50.000000 76.396 -9.0270
50.799999 76.302 -9.1798
51.500000 76.275 -9.0767
52.200001 76.276 -8.9841
53.000000 76.296 -8.9475
53.799999 76.312 -9.0786
54.500000 76.316 -9.2872
55.200001 76.319 -9.7139
56.000000 76.268 -10.5929
57.000000 76.086 -11.4701
58.000000 75.904 -11.7516
59.000000 75.775 -11.6381
60.000000 75.768 -11.4089
60.799999 75.802 -11.5999
61.500000 75.824 -11.8818
62.200001 75.838 -12.2921
63.000000 75.794 -12.8091
64.000000 75.699 -12.8324
65.000000 75.682 -12.7976
66.000000 75.665 -13.2512
67.000000 75.611 -14.0845
68.000000 75.472 -14.6780
69.000000 75.435 -14.6751
70.000000 75.465 -15.6677
71.000000 75.311 -16.5746
72.000000 75.197 -16.1305
73.000000 75.236 -15.9212
74.000000 75.238 -16.3039
75.000000 75.194 -16.5957
76.199997 75.110 -17.1764
77.500000 74.903 -17.1110
78.800003 74.935 -16.3095
80.000000 75.081 -17.4673
81.199997 75.002 -19.6248
82.500000 74.686 -20.8478
83.800003 74.411 -20.1055
85.000000 74.352 -18.8641
86.199997 74.425 -17.7167
87.500000 74.614 -17.1008
88.500000 74.746 -17.3959
90.000000 74.779 -18.5032
91.199997 74.700 -19.2110
92.500000 74.604 -20.0000
93.800003 74.470 -20.9728
95.000000 74.333 -21.6971
96.199997 74.222 -22.1769
97.500000 74.155 -22.4631
98.800003 74.121 -22.6352
100.000000 74.092 -22.6728
101.500000 74.033 -22.6489
103.000000 73.935 -22.4721
104.400002 73.851 -22.3400
106.000000 73.752 -22.4784
107.500000 73.655 -22.5283
109.000000 73.606 -22.4882
110.599998 73.564 -22.5507
112.000000 73.518 -22.5785
113.800003 73.448 -22.8077
115.000000 73.387 -23.0477
117.199997 73.296 -23.5419
118.000000 73.269 -23.7104
120.599998 73.206 -23.8525
122.000000 73.185 -23.7512
124.099998 73.136 -23.6565
125.000000 73.103 -23.6780
126.500000 73.029 -23.7669
128.000000 72.951 -23.8827
131.500000 72.804 -24.1948
132.000000 72.787 -24.2181
134.000000 72.742 -24.2011
136.000000 72.719 -24.2226
138.000000 72.671 -24.2602
140.000000 72.598 -24.2783
143.000000 72.464 -24.2793
145.000000 72.393 -24.2390
147.500000 72.333 -24.2329
150.000000 72.272 -24.2343
152.500000 72.196 -24.0889
155.000000 72.106 -23.8764
157.500000 72.019 -23.8220
160.000000 71.937 -23.9003
162.500000 71.873 -23.8828
165.000000 71.820 -23.7994
167.500000 71.762 -23.7416
170.000000 71.705 -23.7112
172.500000 71.643 -23.5935
175.000000 71.571 -23.3647
177.500000 71.491 -23.2131
180.000000 71.413 -23.1363
182.500000 71.356 -23.0686
185.000000 71.306 -23.0096
187.500000 71.249 -22.9117
190.000000 71.195 -22.7963
192.500000 71.140 -22.6659
195.000000 71.085 -22.4951
197.500000 71.031 -22.3132
200.000000 70.975 -22.1642
203.000000 70.894 -22.0118
206.000000 70.821 -21.7660
209.000000 70.781 -21.5208
212.000000 70.739 -21.3169
214.000000 70.703 -21.1553
218.000000 70.631 -20.8043
220.000000 70.598 -20.6555
224.000000 70.525 -20.4322
227.000000 70.470 -20.2431
230.000000 70.423 -20.0058
233.000000 70.375 -19.7937
236.000000 70.320 -19.6066
240.000000 70.254 -19.2858
243.000000 70.211 -19.0019
247.000000 70.154 -18.6311
250.000000 70.109 -18.3982
254.000000 70.057 -18.1182
258.000000 70.023 -17.8127
262.000000 69.988 -17.4843
265.000000 69.958 -17.2570
269.000000 69.922 -16.9745
272.000000 69.895 -16.7641
276.000000 69.854 -16.4109
280.000000 69.817 -16.0026
285.000000 69.784 -15.6143
290.000000 69.752 -15.3122
295.000000 69.707 -14.9913
300.000000 69.674 -14.5866
304.000000 69.649 -14.2224
307.000000 69.625 -13.9796
311.000000 69.594 -13.7059
315.000000 69.574 -13.4294
320.000000 69.556 -13.0643
325.000000 69.532 -12.6995
330.000000 69.504 -12.3389
335.000000 69.476 -11.9382
340.000000 69.448 -11.5967
345.000000 69.418 -11.3530
350.000000 69.387 -11.0215
355.000000 69.358 -10.5605
360.000000 69.331 -10.0790
365.000000 69.306 -9.5919
370.000000 69.306 -9.0352
375.000000 69.333 -8.4773
382.000000 69.375 -7.9061
387.000000 69.401 -7.6179
395.000000 69.432 -7.2951
400.000000 69.439 -7.2037
406.000000 69.429 -7.0384
412.000000 69.415 -6.8057
418.000000 69.411 -6.6466
425.000000 69.398 -6.4479
431.000000 69.369 -6.2043
437.000000 69.346 -5.9841
444.000000 69.335 -5.7959
450.000000 69.331 -5.5937
455.000000 69.329 -5.3549
462.000000 69.327 -5.0140
468.000000 69.325 -4.7950
475.000000 69.320 -4.4932
482.000000 69.315 -4.1392
487.000000 69.311 -3.9420
494.000000 69.303 -3.7211
500.000000 69.297 -3.4839
508.000000 69.289 -3.1229
515.000000 69.286 -2.8876
522.000000 69.282 -2.6441
530.000000 69.273 -2.3208
538.000000 69.270 -2.0228
545.000000 69.265 -1.7790
552.000000 69.259 -1.5413
560.000000 69.254 -1.2925
570.000000 69.245 -0.9894
580.000000 69.235 -0.7027
590.000000 69.215 -0.5015
600.000000 69.210 -0.3058
608.000000 69.219 -0.0814
615.000000 69.214 0.1857
622.000000 69.202 0.4722
630.000000 69.193 0.7885
640.000000 69.182 1.1657
650.000000 69.163 1.5426
660.000000 69.154 1.8638
670.000000 69.150 2.1679
680.000000 69.133 2.5344
690.000000 69.122 2.9154
700.000000 69.122 3.2520
710.000000 69.112 3.6349
720.000000 69.099 4.0549
730.000000 69.095 4.4139
740.000000 69.086 4.7950
750.000000 69.070 5.2194
762.000000 69.063 5.6759
775.000000 69.055 6.1569
788.000000 69.031 6.7335
800.000000 69.018 7.2690
812.000000 69.007 7.8002
825.000000 68.993 8.3559
838.000000 69.000 8.9101
850.000000 69.008 9.4343
862.000000 68.999 9.8360
875.000000 68.984 10.2252
885.000000 68.984 10.5976
900.000000 69.001 11.2576
912.000000 69.004 11.8321
925.000000 69.003 12.4591
938.000000 69.026 13.0448
950.000000 69.054 13.5736
962.000000 69.064 14.1049
975.000000 69.075 14.6872
988.000000 69.099 15.2716
1000.000000 69.113 15.7910
1015.000000 69.122 16.4272
1030.000000 69.161 17.0948
1044.000000 69.201 17.6831
1060.000000 69.227 18.3030
1075.000000 69.262 18.9072
1090.000000 69.309 19.5302
1106.000000 69.347 20.1360
1120.000000 69.387 20.6634
1138.000000 69.464 21.3986
1150.000000 69.506 21.8597
1172.000000 69.580 22.6569
1180.000000 69.617 22.9685
1206.000000 69.746 23.9418
1220.000000 69.808 24.2683
1241.000000 69.907 24.6679
1250.000000 69.952 24.9233
1265.000000 70.035 25.4658
1280.000000 70.122 26.0340
1315.000000 70.292 27.1972
1320.000000 70.322 27.3697
1340.000000 70.448 28.0715
1360.000000 70.542 28.6922
1380.000000 70.637 29.2916
1400.000000 70.773 29.9476
1430.000000 70.962 30.7346
1450.000000 71.095 31.2516
1475.000000 71.283 31.8935
1500.000000 71.448 32.3319
1525.000000 71.623 32.8405
1550.000000 71.804 33.3118
1575.000000 71.968 33.5535
1600.000000 72.153 33.8709
1625.000000 72.334 34.1272
1650.000000 72.494 33.9863
1675.000000 72.650 33.6325
1700.000000 72.815 33.5062
1725.000000 72.995 33.5684
1750.000000 73.153 33.5042
1775.000000 73.297 33.3288
1800.000000 73.458 33.2624
1825.000000 73.606 33.1409
1850.000000 73.726 32.8510
1875.000000 73.860 32.6354
1900.000000 74.004 32.4720
1925.000000 74.123 32.1389
1950.000000 74.231 31.7677
1975.000000 74.353 31.5399
2000.000000 74.468 31.2692
2030.000000 74.574 30.7394
2060.000000 74.691 30.3357
2090.000000 74.814 30.0165
2120.000000 74.906 29.4621
2140.000000 74.966 29.1002
2180.000000 75.111 28.6258
2200.000000 75.172 28.3030
2240.000000 75.275 27.4788
2270.000000 75.373 27.0472
2300.000000 75.464 26.5372
2330.000000 75.531 25.6205
2360.000000 75.585 24.4633
2400.000000 75.650 23.1538
2430.000000 75.708 22.5482
2470.000000 75.760 21.7415
2500.000000 75.767 20.9536
2540.000000 75.787 20.1870
2580.000000 75.807 19.5971
2620.000000 75.784 18.7873
2650.000000 75.771 18.3435
2690.000000 75.774 18.0066
2720.000000 75.761 17.5986
2760.000000 75.734 16.9747
2800.000000 75.730 16.7004
2850.000000 75.717 16.1441
2900.000000 75.681 14.8872
2950.000000 75.643 13.7842
3000.000000 75.628 13.4718
3040.000000 75.613 13.2719
3070.000000 75.585 12.9240
3110.000000 75.552 12.5653
3150.000000 75.541 12.5146
3200.000000 75.509 12.2276
3250.000000 75.460 11.7361
3300.000000 75.445 11.6517
3350.000000 75.413 11.3835
3400.000000 75.354 10.8889
3450.000000 75.319 10.8478
3500.000000 75.278 10.7336
3550.000000 75.212 10.3113
3600.000000 75.165 10.2636
3650.000000 75.122 10.3888
3700.000000 75.042 10.1649
3750.000000 74.966 10.0906
3820.000000 74.881 10.5691
3870.000000 74.792 10.6028
3950.000000 74.657 11.1006
4000.000000 74.585 11.7979
4060.000000 74.475 12.0768
4120.000000 74.369 11.9943
4180.000000 74.292 12.4338
4250.000000 74.278 14.2729
4310.000000 74.316 16.1134
4370.000000 74.393 17.6125
4440.000000 74.620 19.7232
4500.000000 74.925 21.3534
4550.000000 75.216 21.8669
4620.000000 75.667 21.7765
4680.000000 76.056 21.3513
4750.000000 76.410 19.6197
4820.000000 76.633 17.0185
4870.000000 76.739 15.4360
4940.000000 76.805 13.3502
5000.000000 76.770 11.2429
5080.000000 76.663 8.9964
5150.000000 76.553 7.8669
5220.000000 76.409 6.5058
5300.000000 76.234 5.1084
5380.000000 76.098 4.6814
5450.000000 75.984 4.0111
5520.000000 75.860 2.5529
5600.000000 75.728 0.6508
5700.000000 75.593 -0.5936
5800.000000 75.497 -0.7963
5900.000000 75.366 -1.9582
6000.000000 75.238 -2.6887
6080.000000 75.135 -2.9795
6150.000000 75.010 -3.7918
6220.000000 74.871 -4.6115
6300.000000 74.723 -4.7921
6400.000000 74.521 -4.9904
6500.000000 74.274 -5.7616
6600.000000 74.030 -5.4614
6700.000000 73.770 -4.6749
6800.000000 73.596 -3.7277
6900.000000 73.726 -2.6702
7000.000000 73.775 -2.7964
7100.000000 73.738 -3.1717
7200.000000 73.795 -3.4385
7300.000000 73.803 -3.5118
7400.000000 73.749 -4.1384
7500.000000 73.709 -4.8174
7620.000000 73.739 -4.6284
7750.000000 73.792 -5.4997
7880.000000 73.773 -7.2382
8000.000000 73.689 -8.2716
8120.000000 73.489 -10.7033
8250.000000 73.137 -14.7968
8380.000000 72.688 -18.0446
8500.000000 72.247 -18.8055
8620.000000 71.801 -18.6285
8750.000000 71.278 -19.1340
8850.000000 70.884 -18.9061
9000.000000 70.371 -17.0894
9120.000000 69.990 -16.3808
9250.000000 69.608 -15.7651
9380.000000 69.283 -14.0255
9500.000000 68.992 -12.9496
9620.000000 68.686 -12.8274
9750.000000 68.360 -11.8916
9880.000000 68.045 -10.2190
10000.000000 67.738 -9.5147
10150.000000 67.336 -8.6490
10300.000000 66.953 -6.1366
10440.000000 66.600 -4.2114
10600.000000 66.210 -2.7478
10750.000000 65.911 0.0977
10900.000000 65.653 3.0112
11060.000000 65.387 4.8433
11200.000000 65.204 7.2552
11380.000000 65.047 11.0776
11500.000000 64.956 12.2230
11720.000000 64.833 11.8712
11800.000000 64.805 11.7588
12060.000000 64.789 14.5952
12200.000000 64.811 16.8514
12410.000000 64.811 18.0419
12500.000000 64.819 18.6070
12650.000000 64.863 20.4946
12800.000000 64.903 22.1294
13150.000000 64.937 22.8158
13200.000000 64.949 23.2564
13400.000000 64.996 24.7901
13600.000000 65.010 24.2220
13800.000000 65.045 24.3007
14000.000000 65.116 25.4513
14300.000000 65.196 23.9654
14500.000000 65.306 23.8697
14750.000000 65.564 23.5530
15000.000000 65.886 18.9468
15250.000000 66.033 13.9693
15500.000000 65.899 7.2214
15750.000000 65.525 -2.9740
16000.000000 65.071 -13.1145
16250.000000 64.547 -20.4389
16500.000000 63.955 -26.8336
16750.000000 63.155 -37.8168
17000.000000 61.914 -49.7288
17250.000000 60.147 -58.5949
17500.000000 57.958 -65.3036
17750.000000 55.502 -67.0033
18000.000000 52.855 -62.6173
18250.000000 50.087 -57.0946
18500.000000 47.323 -55.1793
18750.000000 44.673 -88.5797
19000.000000 42.177 50.0143
19250.000000 39.776 -175.2251
19500.000000 37.431 87.7601
19750.000000 35.193 -98.4773
20000.000000 33.080 37.5288
20300.000000 30.777 112.8496
20600.000000 29.124 158.7793
20900.000000 28.543 145.6797
21200.000000 28.770 -147.0215
21400.000000 28.923 86.7656
21800.000000 27.594 -60.6641
22000.000000 25.721 18.9297
22400.000000 19.713 177.9805
22700.000000 14.558 -162.5078
23000.000000 11.082 -156.6953
23300.000000 9.973 18.6250
23600.000000 10.034 -167.5469
24000.000000 10.529 31.2188
