* Measurement data measured by REW V5.20.13
* Source: Headset (DS by VECLAN.COM), MICROPHONE (Master Volume), L, volume: 0.720. Timing signal peak level -9.1 dBFS, measurement signal peak level -9.0 dBFS
* Format: 2M Log Swept Sine, 1 sweep at -12.0 dBFS using an acoustic timing reference
* Dated: Feb 24, 2024 2:26:11 PM
* REW Settings:
*  C-weighting compensation: Off
*  Target level: 75.0 dB
* Note: ; Delay -0.0766 ms (-26 mm, -1.03 in) using estimated IR delay relative to Acoustic reference played from HEADPHONE R with no timing offset
* Measurement: 800ST S&S R
* Smoothing: 1/24 octave
* Frequency Step: 1/48 octave
* Start Frequency: 1.000 Hz
*
* Freq(Hz) SPL(dB) Phase(degrees)
1.000000 69.558 56.0956
1.015000 69.595 56.4723
1.030000 69.629 56.7472
1.044000 69.657 56.9052
1.060000 69.685 56.9609
1.075000 69.707 56.8839
1.090000 69.725 56.6742
1.106000 69.739 56.2952
1.120000 69.744 55.8301
1.138000 69.744 55.0589
1.150000 69.738 54.4428
1.172000 69.720 53.1171
1.180000 69.711 52.5761
1.206000 69.673 50.6203
1.220000 69.649 49.4529
1.241000 69.608 47.5696
1.250000 69.590 46.7187
1.265000 69.558 45.2486
1.280000 69.526 43.7205
1.315000 69.451 39.9752
1.320000 69.440 39.4239
1.340000 69.400 37.1906
1.360000 69.365 34.9261
1.380000 69.334 32.6496
1.400000 69.311 30.3802
1.430000 69.292 27.0315
1.450000 69.291 24.8638
1.475000 69.306 22.2371
1.500000 69.326 19.5231
1.525000 69.349 16.6931
1.550000 69.376 13.7675
1.575000 69.408 10.7669
1.600000 69.446 7.7121
1.625000 69.491 4.6234
1.650000 69.544 1.5216
1.675000 69.607 -1.5728
1.700000 69.679 -4.6392
1.725000 69.763 -7.6571
1.750000 69.859 -10.6058
1.775000 69.968 -13.4648
1.800000 70.092 -16.2135
1.825000 70.231 -18.8314
1.850000 70.389 -21.3347
1.875000 70.571 -23.7989
1.900000 70.774 -26.2227
1.925000 70.994 -28.6012
1.950000 71.230 -30.9292
1.975000 71.477 -33.2020
2.000000 71.733 -35.4144
2.030000 72.049 -37.9827
2.060000 72.368 -40.4484
2.090000 72.686 -42.8029
2.120000 72.997 -45.0375
2.140000 73.198 -46.4565
2.180000 73.578 -49.1131
2.200000 73.754 -50.3454
2.240000 74.097 -52.5688
2.270000 74.352 -54.0334
2.300000 74.604 -55.3477
2.330000 74.852 -56.5328
2.360000 75.095 -57.6099
2.400000 75.412 -58.9145
2.430000 75.643 -59.8218
2.470000 75.940 -60.9768
2.500000 76.155 -61.8295
2.540000 76.428 -62.9885
2.580000 76.685 -64.2041
2.620000 76.927 -65.3830
2.650000 77.099 -66.2279
2.690000 77.317 -67.3056
2.720000 77.472 -68.0796
2.760000 77.669 -69.0694
2.800000 77.857 -70.0147
2.850000 78.081 -71.1407
2.900000 78.293 -72.2126
2.950000 78.497 -73.2378
3.000000 78.685 -74.2116
3.040000 78.825 -74.9498
3.070000 78.924 -75.4783
3.110000 79.050 -76.1477
3.150000 79.169 -76.7747
3.200000 79.311 -77.4958
3.250000 79.447 -78.1434
3.300000 79.580 -78.7133
3.350000 79.704 -79.1906
3.400000 79.818 -79.5770
3.450000 79.924 -79.8867
3.500000 80.024 -80.1344
3.550000 80.122 -80.3344
3.600000 80.220 -80.5014
3.650000 80.320 -80.6498
3.700000 80.422 -80.7808
3.750000 80.520 -80.8719
3.820000 80.654 -80.9361
3.870000 80.751 -80.9410
3.950000 80.911 -80.8862
4.000000 81.018 -80.8178
4.060000 81.154 -80.6945
4.120000 81.297 -80.4830
4.180000 81.446 -80.2112
4.250000 81.626 -79.8689
4.310000 81.786 -79.5979
4.370000 81.950 -79.3878
4.440000 82.149 -79.2439
4.500000 82.328 -79.1608
4.550000 82.481 -79.1189
4.620000 82.700 -79.1066
4.680000 82.888 -79.1431
4.750000 83.103 -79.2462
4.820000 83.317 -79.4166
4.870000 83.471 -79.5767
4.940000 83.687 -79.8534
5.000000 83.868 -80.1384
5.080000 84.102 -80.5856
5.150000 84.294 -81.0406
5.220000 84.479 -81.5777
5.300000 84.681 -82.2745
5.380000 84.872 -83.0248
5.450000 85.028 -83.6965
5.520000 85.172 -84.3627
5.600000 85.322 -85.1614
5.700000 85.490 -86.1943
5.800000 85.639 -87.2065
5.900000 85.770 -88.1458
6.000000 85.878 -89.0533
6.080000 85.952 -89.7439
6.150000 86.011 -90.3040
6.220000 86.067 -90.8078
6.300000 86.125 -91.3137
6.400000 86.185 -91.8610
6.500000 86.241 -92.3118
6.600000 86.304 -92.6639
6.700000 86.371 -92.8905
6.800000 86.441 -93.0116
6.900000 86.520 -93.0815
7.000000 86.616 -93.1417
7.100000 86.727 -93.1436
7.200000 86.849 -93.1265
7.300000 86.983 -93.1540
7.400000 87.128 -93.2540
7.500000 87.287 -93.3882
7.620000 87.484 -93.6360
7.750000 87.696 -94.0679
7.880000 87.911 -94.6652
8.000000 88.103 -95.3277
8.120000 88.277 -96.0789
8.250000 88.452 -97.0221
8.380000 88.608 -98.0184
8.500000 88.730 -98.9320
8.620000 88.831 -99.8766
8.750000 88.923 -100.8567
8.850000 88.983 -101.5354
9.000000 89.049 -102.4747
9.120000 89.094 -103.1258
9.250000 89.143 -103.6934
9.380000 89.186 -104.1334
9.500000 89.230 -104.4613
9.620000 89.284 -104.7151
9.750000 89.348 -104.9004
9.880000 89.419 -105.0791
10.000000 89.491 -105.2590
10.150000 89.588 -105.4894
10.300000 89.685 -105.8167
10.440000 89.777 -106.2152
10.600000 89.877 -106.7666
10.750000 89.960 -107.3954
10.900000 90.032 -108.1098
11.060000 90.089 -108.8875
11.200000 90.121 -109.6019
11.380000 90.143 -110.4384
11.500000 90.144 -110.9234
11.720000 90.131 -111.6462
11.800000 90.127 -111.8322
12.060000 90.119 -112.2113
12.200000 90.133 -112.3122
12.410000 90.178 -112.3625
12.500000 90.207 -112.4023
12.650000 90.270 -112.4672
12.800000 90.342 -112.5867
13.150000 90.527 -113.2218
13.200000 90.552 -113.3439
13.400000 90.646 -113.9331
13.600000 90.724 -114.5625
13.800000 90.783 -115.1989
14.000000 90.832 -115.7528
14.300000 90.895 -116.4023
14.500000 90.949 -116.7054
14.750000 91.037 -117.0607
15.000000 91.153 -117.4557
15.250000 91.284 -118.0332
15.500000 91.407 -118.7700
15.750000 91.510 -119.6212
16.000000 91.578 -120.4477
16.250000 91.626 -121.0973
16.500000 91.669 -121.5254
16.750000 91.733 -121.6985
17.000000 91.840 -121.7915
17.250000 91.986 -121.9347
17.500000 92.167 -122.3059
17.750000 92.341 -122.9989
18.000000 92.490 -123.9476
18.250000 92.589 -125.0718
18.500000 92.631 -126.1029
18.750000 92.634 -126.9010
19.000000 92.613 -127.3379
19.250000 92.610 -127.4017
19.500000 92.645 -127.2554
19.750000 92.731 -127.0340
20.000000 92.860 -127.0131
20.299999 93.028 -127.3816
20.600000 93.168 -128.1845
20.900000 93.243 -129.2525
21.200001 93.240 -130.2741
21.400000 93.205 -130.7636
21.799999 93.105 -131.1774
22.000000 93.065 -131.1195
22.400000 93.055 -130.7193
22.700001 93.111 -130.4768
23.000000 93.200 -130.5208
23.299999 93.287 -130.8899
23.600000 93.349 -131.5002
24.000000 93.378 -132.4541
24.299999 93.365 -133.0764
24.700001 93.329 -133.6269
25.000000 93.316 -133.8330
25.400000 93.340 -133.9645
25.799999 93.418 -134.1683
26.200001 93.528 -134.6327
26.500000 93.611 -135.1688
26.900000 93.699 -136.0416
27.200001 93.745 -136.7064
27.600000 93.787 -137.4833
28.000000 93.823 -138.0843
28.500000 93.878 -138.6569
29.000000 93.944 -139.1504
29.500000 94.011 -139.5967
30.000000 94.074 -139.9967
30.400000 94.118 -140.3093
30.700001 94.144 -140.5425
31.100000 94.164 -140.7995
31.500000 94.175 -140.9162
32.000000 94.208 -140.8435
32.500000 94.295 -140.7854
33.000000 94.411 -141.1370
33.500000 94.491 -141.9519
34.000000 94.498 -142.8318
34.500000 94.470 -143.3579
35.000000 94.473 -143.5505
35.500000 94.531 -143.7905
36.000000 94.605 -144.3325
36.500000 94.652 -145.0599
37.000000 94.668 -145.7017
37.500000 94.680 -146.1645
38.200001 94.710 -146.6754
38.700001 94.728 -146.9794
39.500000 94.766 -147.1778
40.000000 94.823 -147.2386
40.599998 94.909 -147.5243
41.200001 94.968 -148.0137
41.799999 94.999 -148.4092
42.500000 95.060 -148.7425
43.099998 95.132 -149.3068
43.700001 95.156 -150.1093
44.400002 95.117 -150.7199
45.000000 95.107 -150.7785
45.500000 95.146 -150.8209
46.200001 95.217 -151.1807
46.799999 95.254 -151.5562
47.500000 95.299 -151.8486
48.200001 95.359 -152.2303
48.700001 95.385 -152.5811
49.400002 95.398 -152.9422
50.000000 95.419 -153.1174
50.799999 95.463 -153.4400
51.500000 95.490 -153.7966
52.200001 95.515 -154.1306
53.000000 95.541 -154.6050
53.799999 95.533 -155.0238
54.500000 95.530 -155.1191
55.200001 95.567 -155.1918
56.000000 95.607 -155.5542
57.000000 95.589 -155.7622
58.000000 95.662 -155.4788
59.000000 95.791 -156.1271
60.000000 95.769 -157.0406
60.799999 95.744 -157.2322
61.500000 95.763 -157.4258
62.200001 95.780 -157.7770
63.000000 95.792 -158.1627
64.000000 95.815 -158.7621
65.000000 95.799 -159.4331
66.000000 95.765 -159.9238
67.000000 95.712 -160.2386
68.000000 95.688 -160.1684
69.000000 95.725 -160.3132
70.000000 95.738 -160.7060
71.000000 95.759 -161.0177
72.000000 95.788 -161.5684
73.000000 95.783 -162.0931
74.000000 95.788 -162.4396
75.000000 95.801 -162.7259
76.199997 95.841 -162.8805
77.500000 95.910 -163.1824
78.800003 95.928 -163.4781
80.000000 95.926 -163.4635
81.199997 95.928 -163.3731
82.500000 95.934 -163.3748
83.800003 95.926 -163.5453
85.000000 95.938 -163.7521
86.199997 95.966 -164.2972
87.500000 95.968 -164.8986
88.500000 95.986 -165.2137
90.000000 96.020 -165.7026
91.199997 96.025 -165.9524
92.500000 96.013 -166.0417
93.800003 96.002 -165.9790
95.000000 96.012 -166.0246
96.199997 96.018 -166.3254
97.500000 96.008 -166.7249
98.800003 96.003 -167.0007
100.000000 96.023 -167.1613
101.500000 96.054 -167.3841
103.000000 96.054 -167.5724
104.400002 96.024 -167.6196
106.000000 96.012 -167.7704
107.500000 95.988 -168.2828
109.000000 95.957 -168.6291
110.599998 95.987 -168.6952
112.000000 96.051 -168.7260
113.800003 96.097 -168.7286
115.000000 96.103 -168.6274
117.199997 96.102 -168.6192
118.000000 96.097 -168.7562
120.599998 96.066 -169.3210
122.000000 96.068 -169.5221
124.099998 96.078 -169.8294
125.000000 96.075 -169.9763
126.500000 96.058 -170.2281
128.000000 96.049 -170.4533
131.500000 96.106 -171.1992
132.000000 96.115 -171.2722
134.000000 96.143 -171.3934
136.000000 96.131 -171.3681
138.000000 96.100 -171.2934
140.000000 96.102 -171.6839
143.000000 96.115 -172.6347
145.000000 96.146 -173.0676
147.500000 96.163 -173.6392
150.000000 96.088 -174.7260
152.500000 96.071 -174.8579
155.000000 96.117 -174.8293
157.500000 95.959 -173.4563
160.000000 95.849 -172.1005
162.500000 95.930 -172.0900
165.000000 96.138 -173.2516
167.500000 96.229 -173.6275
170.000000 96.294 -172.9687
172.500000 96.294 -172.9852
175.000000 96.190 -173.4988
177.500000 96.091 -173.7346
180.000000 96.110 -173.8109
182.500000 96.126 -174.1712
185.000000 96.091 -174.3151
187.500000 96.047 -174.3482
190.000000 96.090 -174.2997
192.500000 96.171 -174.7330
195.000000 96.155 -175.1290
197.500000 96.093 -175.4052
200.000000 96.026 -175.7309
203.000000 95.997 -175.9245
206.000000 96.005 -176.1091
209.000000 95.993 -176.2785
212.000000 96.072 -175.9704
214.000000 96.158 -175.8667
218.000000 96.112 -175.9703
220.000000 96.051 -175.9031
224.000000 96.031 -175.9495
227.000000 96.021 -175.9469
230.000000 96.004 -176.0619
233.000000 96.019 -176.3990
236.000000 96.030 -176.5898
240.000000 95.980 -176.3659
243.000000 95.933 -176.1665
247.000000 95.901 -176.1358
250.000000 95.867 -176.2588
254.000000 95.862 -176.6287
258.000000 95.883 -177.0204
262.000000 95.857 -177.4657
265.000000 95.810 -177.5800
269.000000 95.767 -177.1513
272.000000 95.754 -176.8326
276.000000 95.743 -176.7177
280.000000 95.772 -176.7638
285.000000 95.806 -177.0488
290.000000 95.767 -177.3528
295.000000 95.619 -176.8829
300.000000 95.539 -177.3137
304.000000 95.593 -177.6919
307.000000 95.641 -177.8191
311.000000 95.692 -177.9435
315.000000 95.668 -178.0362
320.000000 95.584 -178.0209
325.000000 95.596 -177.9011
330.000000 95.599 -177.9370
335.000000 95.546 -178.2219
340.000000 95.540 -178.2547
345.000000 95.556 -178.0078
350.000000 95.557 -178.0799
355.000000 95.544 -178.5705
360.000000 95.489 -179.0898
365.000000 95.385 -179.2044
370.000000 95.385 -178.4743
375.000000 95.398 -177.4979
382.000000 95.326 -177.0248
387.000000 95.309 -177.4451
395.000000 95.298 -177.8376
400.000000 95.243 -177.7852
406.000000 95.201 -177.4393
412.000000 95.241 -177.2100
418.000000 95.250 -177.1935
425.000000 95.220 -177.1001
431.000000 95.134 -176.9682
437.000000 95.024 -176.8853
444.000000 95.001 -176.8744
450.000000 95.001 -176.8478
455.000000 94.960 -176.9185
462.000000 94.893 -176.7170
468.000000 94.859 -176.1883
475.000000 94.820 -175.7289
482.000000 94.725 -176.1392
487.000000 94.690 -176.2334
494.000000 94.689 -176.1228
500.000000 94.721 -175.9243
508.000000 94.802 -174.8060
515.000000 94.886 -175.0449
522.000000 94.767 -176.1837
530.000000 94.640 -175.8025
538.000000 94.637 -175.3454
545.000000 94.608 -175.2406
552.000000 94.621 -174.6415
560.000000 94.651 -173.3132
570.000000 94.504 -172.4726
580.000000 94.374 -172.2891
590.000000 94.307 -172.2564
600.000000 94.291 -171.7279
608.000000 94.295 -171.7450
615.000000 94.213 -172.1527
622.000000 94.125 -172.1910
630.000000 94.170 -171.6159
640.000000 94.199 -169.8039
650.000000 94.108 -168.8505
660.000000 94.089 -168.2292
670.000000 94.083 -167.7787
680.000000 94.069 -167.4005
690.000000 94.046 -166.8762
700.000000 94.015 -166.2560
710.000000 93.996 -165.7700
720.000000 93.987 -165.2615
730.000000 93.970 -164.6476
740.000000 93.955 -163.9901
750.000000 93.939 -163.3221
762.000000 93.903 -162.6191
775.000000 93.878 -162.0224
788.000000 93.882 -161.4313
800.000000 93.891 -160.6760
812.000000 93.887 -159.9270
825.000000 93.874 -159.2467
838.000000 93.873 -158.5755
850.000000 93.881 -157.9683
862.000000 93.878 -157.3446
875.000000 93.857 -156.6953
885.000000 93.835 -156.1511
900.000000 93.787 -155.1384
912.000000 93.751 -154.1291
925.000000 93.735 -152.8397
938.000000 93.747 -151.4754
950.000000 93.793 -150.2421
962.000000 93.864 -149.0882
975.000000 93.954 -148.0115
988.000000 94.053 -147.0558
1000.000000 94.152 -146.2379
1015.000000 94.282 -145.3626
1030.000000 94.411 -144.6381
1044.000000 94.531 -144.0089
1060.000000 94.665 -143.3311
1075.000000 94.793 -142.8034
1090.000000 94.917 -142.3987
1106.000000 95.051 -141.9187
1120.000000 95.169 -141.4818
1138.000000 95.318 -141.0550
1150.000000 95.413 -140.8190
1172.000000 95.588 -140.3853
1180.000000 95.655 -140.2636
1206.000000 95.864 -140.0134
1220.000000 95.975 -139.9147
1241.000000 96.142 -139.8926
1250.000000 96.215 -139.9148
1265.000000 96.335 -139.9528
1280.000000 96.442 -139.9789
1315.000000 96.681 -140.2821
1320.000000 96.714 -140.3560
1340.000000 96.820 -140.6776
1360.000000 96.883 -141.0551
1380.000000 96.919 -141.4826
1400.000000 96.950 -141.9167
1430.000000 96.943 -142.4774
1450.000000 96.904 -142.7562
1475.000000 96.828 -142.9284
1500.000000 96.724 -142.7902
1525.000000 96.606 -142.2253
1550.000000 96.492 -141.1905
1575.000000 96.407 -139.7844
1600.000000 96.388 -138.1636
1625.000000 96.448 -136.4911
1650.000000 96.576 -134.9269
1675.000000 96.751 -133.5929
1700.000000 96.956 -132.5134
1725.000000 97.178 -131.7265
1750.000000 97.406 -131.2751
1775.000000 97.621 -131.0548
1800.000000 97.824 -131.0155
1825.000000 98.021 -131.1570
1850.000000 98.202 -131.4432
1875.000000 98.359 -131.8366
1900.000000 98.500 -132.3279
1925.000000 98.625 -132.9121
1950.000000 98.731 -133.5413
1975.000000 98.817 -134.1918
2000.000000 98.885 -134.8769
2030.000000 98.947 -135.7311
2060.000000 98.985 -136.5795
2090.000000 99.003 -137.4053
2120.000000 99.001 -138.2294
2140.000000 98.989 -138.7528
2180.000000 98.942 -139.7133
2200.000000 98.908 -140.1612
2240.000000 98.818 -140.9805
2270.000000 98.733 -141.4980
2300.000000 98.637 -141.9493
2330.000000 98.531 -142.3359
2360.000000 98.416 -142.6320
2400.000000 98.253 -142.9242
2430.000000 98.128 -143.0682
2470.000000 97.952 -143.1391
2500.000000 97.815 -143.1123
2540.000000 97.635 -142.9877
2580.000000 97.450 -142.7568
2620.000000 97.259 -142.4097
2650.000000 97.118 -142.0773
2690.000000 96.940 -141.5364
2720.000000 96.805 -141.0716
2760.000000 96.620 -140.3512
2800.000000 96.447 -139.5371
2850.000000 96.254 -138.4121
2900.000000 96.084 -137.3060
2950.000000 95.930 -136.3536
3000.000000 95.767 -135.5297
3040.000000 95.615 -134.8983
3070.000000 95.490 -134.4221
3110.000000 95.313 -133.7527
3150.000000 95.122 -133.0012
3200.000000 94.865 -131.9107
3250.000000 94.595 -130.6486
3300.000000 94.316 -129.1819
3350.000000 94.035 -127.5073
3400.000000 93.758 -125.6083
3450.000000 93.486 -123.4649
3500.000000 93.231 -121.1012
3550.000000 93.001 -118.5405
3600.000000 92.792 -115.7837
3650.000000 92.607 -112.8591
3700.000000 92.455 -109.8112
3750.000000 92.340 -106.6804
3820.000000 92.223 -102.1794
3870.000000 92.174 -98.9348
3950.000000 92.155 -93.7761
4000.000000 92.172 -90.5724
4060.000000 92.222 -86.7695
4120.000000 92.302 -82.9975
4180.000000 92.409 -79.2287
4250.000000 92.570 -74.8076
4310.000000 92.753 -71.0306
4370.000000 92.971 -67.3144
4440.000000 93.264 -63.1294
4500.000000 93.556 -59.7461
4550.000000 93.822 -57.0965
4620.000000 94.201 -53.5837
4680.000000 94.538 -50.5815
4750.000000 94.991 -47.0421
4820.000000 95.523 -43.7029
4870.000000 95.945 -41.5231
4940.000000 96.588 -38.7715
5000.000000 97.191 -36.7288
5080.000000 98.066 -34.6118
5150.000000 98.889 -33.4578
5220.000000 99.762 -33.0767
5300.000000 100.806 -33.8078
5380.000000 101.861 -36.1338
5450.000000 102.728 -39.7486
5520.000000 103.454 -44.9249
5600.000000 104.001 -52.4698
5700.000000 104.140 -63.0041
5800.000000 103.674 -72.5255
5900.000000 102.780 -79.3366
6000.000000 101.705 -83.1246
6080.000000 100.834 -84.3004
6150.000000 100.107 -84.2755
6220.000000 99.439 -83.5022
6300.000000 98.760 -81.9283
6400.000000 98.035 -79.1961
6500.000000 97.437 -75.8776
6600.000000 96.968 -72.1749
6700.000000 96.620 -68.2330
6800.000000 96.387 -64.1512
6900.000000 96.282 -60.0292
7000.000000 96.309 -55.9608
7100.000000 96.451 -52.0426
7200.000000 96.708 -48.4075
7300.000000 97.083 -45.2136
7400.000000 97.567 -42.6324
7500.000000 98.155 -40.8803
7620.000000 98.989 -40.2870
7750.000000 99.950 -42.1627
7880.000000 100.713 -47.3062
8000.000000 101.041 -54.8425
8120.000000 100.846 -63.7428
8250.000000 100.010 -72.5454
8380.000000 98.687 -78.5554
8500.000000 97.238 -81.1346
8620.000000 95.737 -81.2121
8750.000000 94.178 -79.1443
8850.000000 93.064 -76.4247
9000.000000 91.554 -71.0472
9120.000000 90.492 -65.9588
9250.000000 89.481 -59.9131
9380.000000 88.604 -53.4849
9500.000000 87.903 -47.3080
9620.000000 87.302 -40.9806
9750.000000 86.762 -34.0132
9880.000000 86.323 -26.9559
10000.000000 86.003 -20.3985
10150.000000 85.723 -12.1959
10300.000000 85.568 -4.0246
10440.000000 85.544 3.5103
10600.000000 85.676 11.9395
10750.000000 85.978 19.5936
10900.000000 86.511 26.8265
11060.000000 87.391 33.3992
11200.000000 88.392 37.3323
11380.000000 89.894 38.8413
11500.000000 90.917 36.7206
11720.000000 92.174 24.2531
11800.000000 92.227 17.5149
12060.000000 90.553 -2.2356
12200.000000 88.787 -7.0459
12410.000000 85.838 -6.4269
12500.000000 84.639 -4.1760
12650.000000 82.843 1.1360
12800.000000 81.324 7.6032
13150.000000 78.619 24.3696
13200.000000 78.300 26.8346
13400.000000 77.146 36.8034
13600.000000 76.156 46.9659
13800.000000 75.319 57.2750
14000.000000 74.634 67.6055
14300.000000 73.865 82.9438
14500.000000 73.504 93.0579
14750.000000 73.238 105.5808
15000.000000 73.261 117.9582
15250.000000 73.800 129.6009
15500.000000 75.066 137.4218
15750.000000 76.353 135.9497
16000.000000 76.460 125.7808
16250.000000 74.915 116.2591
16500.000000 72.039 116.0236
16750.000000 68.635 126.2143
17000.000000 65.478 143.8323
17250.000000 62.945 167.4520
17500.000000 61.813 -163.5414
17750.000000 62.961 -137.6074
18000.000000 64.547 -124.1800
18250.000000 65.167 -119.1982
18500.000000 64.962 -114.3578
18750.000000 64.478 -106.4435
19000.000000 64.041 -95.5245
19250.000000 63.607 -82.2730
19500.000000 63.033 -67.1458
19750.000000 62.368 -50.4098
20000.000000 61.756 -32.5651
20300.000000 61.319 -10.7995
20600.000000 61.382 10.1587
20900.000000 61.888 28.7290
21200.000000 62.636 42.6762
21400.000000 63.056 47.2317
21800.000000 62.629 2.4954
22000.000000 61.162 -167.9438
22400.000000 54.889 -83.2759
22700.000000 47.744 159.0645
23000.000000 39.678 88.7676
23300.000000 33.639 25.2012
23600.000000 31.820 -84.9023
24000.000000 31.404 -84.3867
