* Measurement data measured by REW V5.20.13
* Source: Headset (DS by VECLAN.COM), MICROPHONE (Master Volume), L, volume: 0.910. Timing signal peak level -20.9 dBFS, measurement signal peak level -17.8 dBFS
* Format: 2M Log Swept Sine, 1 sweep at -12.0 dBFS using an acoustic timing reference
* Dated: Aug 27, 2023 3:09:02 PM
* REW Settings:
*  C-weighting compensation: Off
*  Target level: 75.0 dB
* Note: ; Delay -0.0701 ms (-24 mm, -0.95 in) using estimated IR delay relative to Acoustic reference played from HEADPHONE L with no timing offset Clock adjustment: -0.3 ppm
* Measurement: WF-XM5 S2 75% L
* Smoothing: 1/24 octave
* Frequency Step: 1/48 octave
* Start Frequency: 1.000 Hz
*
* Freq(Hz) SPL(dB) Phase(degrees)
1.000000 47.522 41.4497
1.015000 47.550 39.6104
1.030000 47.582 37.7203
1.044000 47.616 35.9101
1.060000 47.660 33.7866
1.075000 47.707 31.7426
1.090000 47.762 29.6468
1.106000 47.826 27.3458
1.120000 47.878 25.2315
1.138000 47.938 22.3728
1.150000 47.975 20.3861
1.172000 48.036 16.5933
1.180000 48.057 15.1703
1.206000 48.125 10.4056
1.220000 48.162 7.7635
1.241000 48.220 3.7196
1.250000 48.247 1.9622
1.265000 48.295 -0.9922
1.280000 48.348 -3.9705
1.315000 48.498 -10.9623
1.320000 48.523 -11.9611
1.340000 48.633 -15.9430
1.360000 48.762 -19.8876
1.380000 48.913 -23.7737
1.400000 49.088 -27.5800
1.430000 49.402 -33.0935
1.450000 49.649 -36.6074
1.475000 50.005 -40.8037
1.500000 50.425 -44.9574
1.525000 50.902 -49.1014
1.550000 51.429 -53.2202
1.575000 51.998 -57.2988
1.600000 52.601 -61.3217
1.625000 53.230 -65.2739
1.650000 53.876 -69.1400
1.675000 54.533 -72.9048
1.700000 55.192 -76.5530
1.725000 55.844 -80.0695
1.750000 56.483 -83.4389
1.775000 57.099 -86.6460
1.800000 57.686 -89.6755
1.825000 58.235 -92.5123
1.850000 58.750 -95.1337
1.875000 59.254 -97.5266
1.900000 59.749 -99.7121
1.925000 60.235 -101.7127
1.950000 60.712 -103.5508
1.975000 61.180 -105.2489
2.000000 61.639 -106.8292
2.030000 62.179 -108.6019
2.060000 62.706 -110.2761
2.090000 63.222 -111.8906
2.120000 63.725 -113.4841
2.140000 64.055 -114.5539
2.180000 64.698 -116.7629
2.200000 65.012 -117.9244
2.240000 65.621 -120.2238
2.270000 66.061 -121.8839
2.300000 66.487 -123.4948
2.330000 66.900 -125.0620
2.360000 67.302 -126.5911
2.400000 67.822 -128.5801
2.430000 68.200 -130.0415
2.470000 68.692 -131.9601
2.500000 69.053 -133.3838
2.540000 69.524 -135.2721
2.580000 69.986 -137.1570
2.620000 70.432 -139.0125
2.650000 70.756 -140.3813
2.690000 71.174 -142.1774
2.720000 71.479 -143.5037
2.760000 71.873 -145.2462
2.800000 72.256 -146.9608
2.850000 72.720 -149.0678
2.900000 73.170 -151.1382
2.950000 73.608 -153.1733
3.000000 74.029 -155.1562
3.040000 74.352 -156.7068
3.070000 74.588 -157.8519
3.110000 74.894 -159.3585
3.150000 75.191 -160.8461
3.200000 75.551 -162.6856
3.250000 75.901 -164.5113
3.300000 76.240 -166.3319
3.350000 76.568 -168.1507
3.400000 76.882 -169.9610
3.450000 77.184 -171.7554
3.500000 77.475 -173.5267
3.550000 77.756 -175.2674
3.600000 78.028 -176.9702
3.650000 78.292 -178.6279
3.700000 78.549 179.7651
3.750000 78.796 178.2044
3.820000 79.125 176.0860
3.870000 79.350 174.6125
3.950000 79.696 172.3073
4.000000 79.904 170.8901
4.060000 80.148 169.2054
4.120000 80.381 167.5431
4.180000 80.604 165.9097
4.250000 80.853 164.0484
4.310000 81.060 162.4977
4.370000 81.261 160.9943
4.440000 81.490 159.3081
4.500000 81.678 157.9210
4.550000 81.830 156.8005
4.620000 82.037 155.2766
4.680000 82.210 154.0037
4.750000 82.409 152.5463
4.820000 82.604 151.1186
4.870000 82.740 150.1246
4.940000 82.926 148.7658
5.000000 83.083 147.6282
5.080000 83.289 146.1450
5.150000 83.468 144.8747
5.220000 83.644 143.6420
5.300000 83.843 142.2739
5.380000 84.039 140.9344
5.450000 84.209 139.7739
5.520000 84.378 138.6157
5.600000 84.569 137.3103
5.700000 84.806 135.7012
5.800000 85.038 134.1001
5.900000 85.266 132.4908
6.000000 85.491 130.8824
6.080000 85.667 129.5959
6.150000 85.819 128.4677
6.220000 85.966 127.3351
6.300000 86.131 126.0344
6.400000 86.332 124.4020
6.500000 86.526 122.7643
6.600000 86.710 121.1233
6.700000 86.886 119.4726
6.800000 87.053 117.8163
6.900000 87.211 116.1672
7.000000 87.359 114.5357
7.100000 87.497 112.9112
7.200000 87.626 111.3013
7.300000 87.746 109.7186
7.400000 87.856 108.1671
7.500000 87.957 106.6382
7.620000 88.067 104.8496
7.750000 88.176 102.9876
7.880000 88.272 101.1973
8.000000 88.351 99.6116
8.120000 88.426 98.0968
8.250000 88.500 96.5353
8.380000 88.568 95.0477
8.500000 88.630 93.7364
8.620000 88.690 92.4896
8.750000 88.752 91.1935
8.850000 88.801 90.2259
9.000000 88.873 88.8340
9.120000 88.931 87.7569
9.250000 88.994 86.6143
9.380000 89.058 85.5032
9.500000 89.113 84.5037
9.620000 89.164 83.5257
9.750000 89.216 82.4926
9.880000 89.260 81.4965
10.000000 89.291 80.6120
10.150000 89.320 79.5522
10.300000 89.346 78.5542
10.440000 89.364 77.6841
10.600000 89.389 76.7423
10.750000 89.423 75.9082
10.900000 89.467 75.1113
11.060000 89.527 74.2452
11.200000 89.593 73.4869
11.380000 89.689 72.4333
11.500000 89.761 71.6706
11.720000 89.900 70.1262
11.800000 89.950 69.5015
12.060000 90.111 67.2668
12.200000 90.184 65.9382
12.410000 90.273 63.8047
12.500000 90.299 62.8696
12.650000 90.325 61.2609
12.800000 90.331 59.6567
13.150000 90.258 56.0776
13.200000 90.240 55.6078
13.400000 90.146 53.8295
13.600000 90.034 52.2873
13.800000 89.907 51.0135
14.000000 89.783 50.0046
14.300000 89.617 48.9627
14.500000 89.534 48.5222
14.750000 89.472 48.1244
15.000000 89.459 47.8199
15.250000 89.494 47.4664
15.500000 89.562 46.9917
15.750000 89.654 46.3543
16.000000 89.754 45.5232
16.250000 89.850 44.5154
16.500000 89.935 43.3512
16.750000 90.002 42.0652
17.000000 90.044 40.7211
17.250000 90.061 39.3655
17.500000 90.051 38.0551
17.750000 90.018 36.8628
18.000000 89.967 35.8212
18.250000 89.906 34.9653
18.500000 89.847 34.3018
18.750000 89.800 33.8003
19.000000 89.773 33.4307
19.250000 89.771 33.1105
19.500000 89.793 32.7756
19.750000 89.836 32.3741
20.000000 89.891 31.8454
20.299999 89.959 31.0340
20.600000 90.019 30.0456
20.900000 90.058 28.9332
21.200001 90.073 27.7765
21.400000 90.070 27.0256
21.799999 90.042 25.6255
22.000000 90.023 24.9928
22.400000 89.984 23.8566
22.700001 89.962 23.0817
23.000000 89.946 22.3339
23.299999 89.934 21.5953
23.600000 89.924 20.8674
24.000000 89.911 19.9316
24.299999 89.904 19.2684
24.700001 89.902 18.4247
25.000000 89.905 17.7905
25.400000 89.909 16.8961
25.799999 89.898 15.9446
26.200001 89.854 15.0369
26.500000 89.800 14.4969
26.900000 89.713 14.0949
27.200001 89.660 14.0613
27.600000 89.635 14.2809
28.000000 89.681 14.5339
28.500000 89.818 14.4320
29.000000 89.966 13.6042
29.500000 90.056 12.1927
30.000000 90.061 10.5260
30.400000 90.005 9.1766
30.700001 89.929 8.2124
31.100000 89.784 7.0975
31.500000 89.600 6.3351
32.000000 89.360 6.0967
32.500000 89.203 6.5565
33.000000 89.191 7.0886
33.500000 89.283 7.0151
34.000000 89.371 6.1578
34.500000 89.383 4.9512
35.000000 89.327 3.9175
35.500000 89.256 3.2559
36.000000 89.207 2.8055
36.500000 89.175 2.3881
37.000000 89.141 2.0086
37.500000 89.108 1.7469
38.200001 89.093 1.4688
38.700001 89.095 1.1416
39.500000 89.061 0.4230
40.000000 89.017 0.0731
40.599998 88.980 -0.2211
41.200001 88.973 -0.6552
41.799999 88.958 -1.3846
42.500000 88.888 -2.3239
43.099998 88.806 -2.8575
43.700001 88.756 -3.1642
44.400002 88.746 -3.5605
45.000000 88.746 -4.0468
45.500000 88.735 -4.4460
46.200001 88.716 -4.8381
46.799999 88.713 -5.0462
47.500000 88.726 -5.2900
48.200001 88.739 -5.5950
48.700001 88.744 -5.8591
49.400002 88.741 -6.3578
50.000000 88.712 -6.9400
50.799999 88.609 -7.7603
51.500000 88.473 -8.2332
52.200001 88.345 -8.4057
53.000000 88.250 -8.4974
53.799999 88.200 -8.7536
54.500000 88.169 -9.1080
55.200001 88.144 -9.4925
56.000000 88.126 -9.9346
57.000000 88.109 -10.4733
58.000000 88.091 -10.9648
59.000000 88.057 -11.4980
60.000000 87.982 -11.9771
60.799999 87.910 -12.2235
61.500000 87.853 -12.4053
62.200001 87.802 -12.6137
63.000000 87.752 -12.8933
64.000000 87.702 -13.3195
65.000000 87.658 -13.7792
66.000000 87.622 -14.1438
67.000000 87.602 -14.4457
68.000000 87.583 -14.7456
69.000000 87.554 -15.0554
70.000000 87.505 -15.3883
71.000000 87.432 -15.6943
72.000000 87.347 -15.9116
73.000000 87.279 -16.0438
74.000000 87.242 -16.2815
75.000000 87.204 -16.6897
76.199997 87.149 -17.1113
77.500000 87.104 -17.5006
78.800003 87.043 -17.9268
80.000000 86.972 -18.1504
81.199997 86.915 -18.3673
82.500000 86.842 -18.7006
83.800003 86.775 -18.9641
85.000000 86.728 -19.2863
86.199997 86.670 -19.6196
87.500000 86.610 -19.7982
88.500000 86.582 -19.9382
90.000000 86.526 -20.2605
91.199997 86.469 -20.4639
92.500000 86.414 -20.6869
93.800003 86.352 -20.9705
95.000000 86.287 -21.1509
96.199997 86.233 -21.2698
97.500000 86.178 -21.3987
98.800003 86.129 -21.5120
100.000000 86.084 -21.6780
101.500000 86.014 -21.8830
103.000000 85.946 -22.0331
104.400002 85.890 -22.1661
106.000000 85.828 -22.3167
107.500000 85.772 -22.4325
109.000000 85.713 -22.6072
110.599998 85.633 -22.7726
112.000000 85.571 -22.8477
113.800003 85.503 -23.0372
115.000000 85.453 -23.1357
117.199997 85.374 -23.2252
118.000000 85.347 -23.2827
120.599998 85.231 -23.5223
122.000000 85.166 -23.5536
124.099998 85.100 -23.6299
125.000000 85.076 -23.7090
126.500000 85.027 -23.8470
128.000000 84.971 -23.9225
131.500000 84.841 -23.9028
132.000000 84.824 -23.9048
134.000000 84.760 -23.9598
136.000000 84.694 -24.0414
138.000000 84.630 -24.0934
140.000000 84.571 -24.1281
143.000000 84.488 -24.2155
145.000000 84.426 -24.2651
147.500000 84.344 -24.1942
150.000000 84.268 -24.0626
152.500000 84.192 -24.0063
155.000000 84.122 -24.0132
157.500000 84.055 -24.0156
160.000000 83.986 -23.9579
162.500000 83.912 -23.8782
165.000000 83.843 -23.8127
167.500000 83.780 -23.7493
170.000000 83.719 -23.6598
172.500000 83.651 -23.5623
175.000000 83.580 -23.4603
177.500000 83.513 -23.3518
180.000000 83.449 -23.2518
182.500000 83.385 -23.1301
185.000000 83.322 -22.9935
187.500000 83.258 -22.8477
190.000000 83.194 -22.6979
192.500000 83.136 -22.5511
195.000000 83.085 -22.4283
197.500000 83.031 -22.3171
200.000000 82.972 -22.1715
203.000000 82.904 -21.9481
206.000000 82.844 -21.7209
209.000000 82.790 -21.5166
212.000000 82.737 -21.3091
214.000000 82.700 -21.1680
218.000000 82.623 -20.9261
220.000000 82.587 -20.8118
224.000000 82.527 -20.4930
227.000000 82.483 -20.2087
230.000000 82.436 -19.9640
233.000000 82.388 -19.7371
236.000000 82.342 -19.5021
240.000000 82.280 -19.2079
243.000000 82.237 -18.9832
247.000000 82.185 -18.6273
250.000000 82.146 -18.3682
254.000000 82.096 -18.0747
258.000000 82.047 -17.7706
262.000000 82.000 -17.4566
265.000000 81.967 -17.2054
269.000000 81.929 -16.8502
272.000000 81.898 -16.5935
276.000000 81.858 -16.2666
280.000000 81.826 -15.9741
285.000000 81.791 -15.6411
290.000000 81.751 -15.2665
295.000000 81.708 -14.8726
300.000000 81.668 -14.5231
304.000000 81.648 -14.2518
307.000000 81.635 -14.0329
311.000000 81.615 -13.7218
315.000000 81.590 -13.4147
320.000000 81.557 -13.0171
325.000000 81.530 -12.6133
330.000000 81.503 -12.2431
335.000000 81.473 -11.8931
340.000000 81.447 -11.5172
345.000000 81.425 -11.0956
350.000000 81.402 -10.7318
355.000000 81.375 -10.3724
360.000000 81.344 -9.9310
365.000000 81.319 -9.4426
370.000000 81.314 -8.9421
375.000000 81.329 -8.4331
382.000000 81.363 -7.7936
387.000000 81.392 -7.4980
395.000000 81.428 -7.2767
400.000000 81.439 -7.1857
406.000000 81.438 -7.0573
412.000000 81.424 -6.8928
418.000000 81.408 -6.6487
425.000000 81.392 -6.3586
431.000000 81.379 -6.1462
437.000000 81.369 -5.8757
444.000000 81.357 -5.5407
450.000000 81.345 -5.3031
455.000000 81.336 -5.0922
462.000000 81.326 -4.7594
468.000000 81.321 -4.5161
475.000000 81.320 -4.2826
482.000000 81.312 -4.0442
487.000000 81.297 -3.8680
494.000000 81.280 -3.6234
500.000000 81.280 -3.4379
508.000000 81.287 -3.2030
515.000000 81.288 -2.9357
522.000000 81.286 -2.6466
530.000000 81.281 -2.3562
538.000000 81.267 -2.0461
545.000000 81.255 -1.7648
552.000000 81.249 -1.5478
560.000000 81.249 -1.2979
570.000000 81.245 -0.8928
580.000000 81.246 -0.5907
590.000000 81.243 -0.2892
600.000000 81.238 0.1112
608.000000 81.240 0.3588
615.000000 81.235 0.5728
622.000000 81.224 0.8244
630.000000 81.212 1.1116
640.000000 81.209 1.4596
650.000000 81.199 1.7490
660.000000 81.174 1.9558
670.000000 81.156 2.1975
680.000000 81.151 2.5266
690.000000 81.141 2.8915
700.000000 81.121 3.2830
710.000000 81.108 3.6471
720.000000 81.103 3.9895
730.000000 81.088 4.3925
740.000000 81.074 4.8105
750.000000 81.074 5.1855
762.000000 81.065 5.6526
775.000000 81.046 6.1988
788.000000 81.040 6.7369
800.000000 81.023 7.2526
812.000000 81.006 7.7850
825.000000 81.008 8.3397
838.000000 80.999 8.9167
850.000000 80.991 9.4707
862.000000 80.999 10.0145
875.000000 81.003 10.6003
885.000000 81.000 11.0531
900.000000 81.015 11.7377
912.000000 81.035 12.2817
925.000000 81.041 12.7572
938.000000 81.040 13.1305
950.000000 81.046 13.5607
962.000000 81.064 14.0921
975.000000 81.084 14.6854
988.000000 81.087 15.2648
1000.000000 81.096 15.7919
1015.000000 81.132 16.4388
1030.000000 81.163 17.0566
1044.000000 81.186 17.6193
1060.000000 81.231 18.2819
1075.000000 81.266 18.9011
1090.000000 81.291 19.4899
1106.000000 81.345 20.1292
1120.000000 81.405 20.6873
1138.000000 81.462 21.3445
1150.000000 81.503 21.7944
1172.000000 81.603 22.6729
1180.000000 81.634 22.9709
1206.000000 81.737 23.8920
1220.000000 81.813 24.4302
1241.000000 81.911 25.2200
1250.000000 81.946 25.5391
1265.000000 82.018 26.0854
1280.000000 82.111 26.6509
1315.000000 82.308 27.5975
1320.000000 82.334 27.6794
1340.000000 82.433 28.0615
1360.000000 82.539 28.6638
1380.000000 82.655 29.3342
1400.000000 82.766 29.8983
1430.000000 82.964 30.7389
1450.000000 83.111 31.2873
1475.000000 83.273 31.8008
1500.000000 83.458 32.3654
1525.000000 83.640 32.8639
1550.000000 83.802 33.1892
1575.000000 83.990 33.5851
1600.000000 84.163 33.8712
1625.000000 84.320 34.0229
1650.000000 84.505 34.2515
1675.000000 84.677 34.3702
1700.000000 84.831 34.3341
1725.000000 85.004 34.3970
1750.000000 85.164 34.3964
1775.000000 85.296 34.2193
1800.000000 85.441 34.1327
1825.000000 85.592 34.0583
1850.000000 85.719 33.7949
1875.000000 85.846 33.5350
1900.000000 85.991 33.3893
1925.000000 86.117 33.1241
1950.000000 86.222 32.7377
1975.000000 86.339 32.4739
2000.000000 86.461 32.2425
2030.000000 86.580 31.6292
2060.000000 86.685 30.6859
2090.000000 86.788 29.8613
2120.000000 86.903 29.4267
2140.000000 86.980 29.2069
2180.000000 87.097 28.4808
2200.000000 87.155 28.1076
2240.000000 87.294 27.5814
2270.000000 87.374 27.0178
2300.000000 87.439 26.3512
2330.000000 87.522 25.8606
2360.000000 87.600 25.3381
2400.000000 87.661 24.3177
2430.000000 87.708 23.6776
2470.000000 87.770 22.9378
2500.000000 87.788 22.0533
2540.000000 87.790 20.5626
2580.000000 87.780 19.3766
2620.000000 87.788 18.8195
2650.000000 87.793 18.4673
2690.000000 87.774 17.7656
2720.000000 87.765 17.3668
2760.000000 87.771 17.1033
2800.000000 87.749 16.6204
2850.000000 87.708 16.0126
2900.000000 87.699 15.7859
2950.000000 87.658 15.1909
3000.000000 87.628 14.8331
3040.000000 87.615 14.7302
3070.000000 87.589 14.4583
3110.000000 87.548 14.0413
3150.000000 87.533 13.9423
3200.000000 87.516 13.7983
3250.000000 87.471 13.2850
3300.000000 87.447 13.1356
3350.000000 87.423 12.9706
3400.000000 87.372 12.1106
3450.000000 87.319 10.9896
3500.000000 87.270 10.3480
3550.000000 87.237 10.3742
3600.000000 87.187 10.2977
3650.000000 87.111 9.9575
3700.000000 87.055 10.0189
3750.000000 87.004 10.2540
3820.000000 86.885 10.1024
3870.000000 86.806 10.3679
3950.000000 86.675 11.1245
4000.000000 86.571 11.3392
4060.000000 86.477 12.1781
4120.000000 86.400 13.4064
4180.000000 86.315 14.3552
4250.000000 86.283 16.1163
4310.000000 86.329 18.1010
4370.000000 86.418 19.6797
4440.000000 86.643 21.6051
4500.000000 86.950 23.3144
4550.000000 87.239 23.9817
4620.000000 87.677 23.7898
4680.000000 88.063 23.2814
4750.000000 88.431 21.6907
4820.000000 88.657 18.5488
4870.000000 88.741 15.9131
4940.000000 88.770 12.6916
5000.000000 88.750 10.9067
5080.000000 88.668 9.1106
5150.000000 88.536 7.2507
5220.000000 88.398 5.9639
5300.000000 88.261 5.2999
5380.000000 88.099 4.2197
5450.000000 87.964 3.4506
5520.000000 87.865 3.3478
5600.000000 87.758 2.9395
5700.000000 87.613 1.9247
5800.000000 87.515 1.7880
5900.000000 87.396 0.8683
6000.000000 87.267 -0.0952
6080.000000 87.171 -0.2729
6150.000000 87.053 -0.8574
6220.000000 86.910 -1.7355
6300.000000 86.754 -2.1062
6400.000000 86.557 -2.0618
6500.000000 86.315 -2.7505
6600.000000 86.071 -2.7020
6700.000000 85.830 -1.7481
6800.000000 85.670 -1.1865
6900.000000 85.779 -2.1155
7000.000000 85.804 -3.9005
7100.000000 85.798 -3.6381
7200.000000 85.877 -3.5446
7300.000000 85.857 -4.7775
7400.000000 85.812 -5.3088
7500.000000 85.804 -5.1008
7620.000000 85.807 -5.9960
7750.000000 85.843 -7.1892
7880.000000 85.821 -8.0013
8000.000000 85.669 -10.2535
8120.000000 85.421 -12.2277
8250.000000 85.067 -13.2867
8380.000000 84.605 -14.9958
8500.000000 84.149 -15.7378
8620.000000 83.703 -15.2284
8750.000000 83.194 -15.2994
8850.000000 82.802 -15.2356
9000.000000 82.293 -13.3830
9120.000000 81.929 -12.2213
9250.000000 81.553 -11.6980
9380.000000 81.230 -10.1526
9500.000000 80.954 -8.7740
9620.000000 80.663 -9.0005
9750.000000 80.336 -10.3918
9880.000000 79.999 -11.3438
10000.000000 79.693 -10.6342
10150.000000 79.325 -8.3662
10300.000000 78.936 -7.0951
10440.000000 78.579 -5.7398
10600.000000 78.231 -2.5992
10750.000000 77.926 -0.4153
10900.000000 77.645 1.2495
11060.000000 77.415 4.5730
11200.000000 77.243 7.3204
11380.000000 77.038 9.3558
11500.000000 76.947 11.3699
11720.000000 76.868 15.7549
11800.000000 76.844 16.6165
12060.000000 76.815 19.5440
12200.000000 76.837 22.0472
12410.000000 76.845 23.7312
12500.000000 76.849 24.1032
12650.000000 76.883 25.6516
12800.000000 76.934 27.5499
13150.000000 77.009 25.4935
13200.000000 77.016 24.7607
13400.000000 77.038 22.6833
13600.000000 77.079 23.3177
13800.000000 77.128 24.1622
14000.000000 77.167 23.0589
14300.000000 77.293 23.3726
14500.000000 77.405 23.0172
14750.000000 77.621 20.4151
15000.000000 77.973 18.1288
15250.000000 78.091 12.0084
15500.000000 77.906 4.3452
15750.000000 77.538 -0.6917
16000.000000 77.099 -7.9815
16250.000000 76.568 -19.0227
16500.000000 75.939 -30.2521
16750.000000 75.143 -40.0520
17000.000000 73.905 -50.7872
17250.000000 72.083 -62.2704
17500.000000 69.851 -67.9119
17750.000000 67.398 -67.4335
18000.000000 64.753 -65.2561
18250.000000 61.987 -59.9086
18500.000000 59.248 -50.0970
18750.000000 56.619 -39.6920
19000.000000 54.123 -28.9224
19250.000000 51.727 -15.6241
19500.000000 49.343 -10.5499
19750.000000 46.984 -79.4586
20000.000000 44.724 -103.1046
20300.000000 42.290 108.4080
20600.000000 40.577 -171.0479
20900.000000 39.977 171.2793
21200.000000 40.376 -156.4365
21400.000000 40.626 48.1152
21800.000000 39.526 13.0508
22000.000000 37.825 60.4766
22400.000000 31.599 39.1172
22700.000000 24.598 169.1895
23000.000000 16.799 17.7188
23300.000000 11.321 141.5078
23600.000000 9.634 41.6367
24000.000000 8.896 64.6250
