* Measurement data measured by REW V5.20.13
* Source: Headset (DS by VECLAN.COM), no input selected, L, volume: 0.720. Timing signal peak level -15.5 dBFS, measurement signal peak level -14.0 dBFS
* Format: 2M Log Swept Sine, 1 sweep at -12.0 dBFS using an acoustic timing reference
* Dated: Nov 24, 2023 1:39:46 PM
* REW Settings:
*  C-weighting compensation: Off
*  Target level: 75.0 dB
* Note: ; Delay 0.1451 ms (50 mm, 1.96 in) using estimated IR delay relative to Acoustic reference played from HEADPHONE R with no timing offset Clock adjustment: -804.9 ppm
* Measurement: SOUNDPEATS Life R
* Smoothing: 1/24 octave
* Frequency Step: 1/48 octave
* Start Frequency: 1.000 Hz
*
* Freq(Hz) SPL(dB) Phase(degrees)
1.000000 49.857 126.8914
1.015000 50.044 125.6979
1.030000 50.234 124.5253
1.044000 50.413 123.4529
1.060000 50.620 122.2574
1.075000 50.815 121.1694
1.090000 51.012 120.1170
1.106000 51.223 119.0349
1.120000 51.413 118.1089
1.138000 51.663 116.9412
1.150000 51.834 116.1764
1.172000 52.155 114.8005
1.180000 52.274 114.3082
1.206000 52.668 112.7351
1.220000 52.884 111.9038
1.241000 53.213 110.6755
1.250000 53.355 110.1553
1.265000 53.594 109.2959
1.280000 53.835 108.4451
1.315000 54.400 106.4878
1.320000 54.481 106.2108
1.340000 54.805 105.1083
1.360000 55.129 104.0123
1.380000 55.452 102.9207
1.400000 55.772 101.8311
1.430000 56.246 100.1953
1.450000 56.556 99.1005
1.475000 56.938 97.7245
1.500000 57.319 96.3502
1.525000 57.701 94.9815
1.550000 58.084 93.6195
1.575000 58.466 92.2655
1.600000 58.849 90.9207
1.625000 59.229 89.5865
1.650000 59.608 88.2639
1.675000 59.985 86.9544
1.700000 60.359 85.6590
1.725000 60.729 84.3791
1.750000 61.094 83.1159
1.775000 61.455 81.8706
1.800000 61.811 80.6445
1.825000 62.160 79.4388
1.850000 62.504 78.2558
1.875000 62.844 77.0975
1.900000 63.180 75.9619
1.925000 63.512 74.8468
1.950000 63.841 73.7501
1.975000 64.165 72.6695
2.000000 64.486 71.6029
2.030000 64.866 70.3384
2.060000 65.240 69.0872
2.090000 65.609 67.8455
2.120000 65.972 66.6096
2.140000 66.211 65.7870
2.180000 66.681 64.1402
2.200000 66.913 63.3137
2.240000 67.367 61.6654
2.270000 67.701 60.4375
2.300000 68.029 59.2170
2.330000 68.351 58.0039
2.360000 68.667 56.7986
2.400000 69.081 55.2037
2.430000 69.385 54.0170
2.470000 69.784 52.4477
2.500000 70.077 51.2807
2.540000 70.462 49.7382
2.580000 70.839 48.2115
2.620000 71.207 46.6991
2.650000 71.477 45.5742
2.690000 71.829 44.0870
2.720000 72.087 42.9814
2.760000 72.425 41.5206
2.800000 72.755 40.0753
2.850000 73.158 38.2913
2.900000 73.552 36.5330
2.950000 73.937 34.8016
3.000000 74.310 33.1001
3.040000 74.600 31.7592
3.070000 74.814 30.7645
3.110000 75.092 29.4516
3.150000 75.365 28.1525
3.200000 75.698 26.5459
3.250000 76.023 24.9557
3.300000 76.342 23.3789
3.350000 76.653 21.8158
3.400000 76.955 20.2686
3.450000 77.248 18.7389
3.500000 77.534 17.2280
3.550000 77.813 15.7374
3.600000 78.086 14.2685
3.650000 78.354 12.8227
3.700000 78.616 11.4028
3.750000 78.872 10.0103
3.820000 79.219 8.1002
3.870000 79.459 6.7590
3.950000 79.834 4.6429
4.000000 80.063 3.3333
4.060000 80.332 1.7706
4.120000 80.594 0.2246
4.180000 80.848 -1.3034
4.250000 81.137 -3.0636
4.310000 81.378 -4.5532
4.370000 81.614 -6.0252
4.440000 81.883 -7.7189
4.500000 82.107 -9.1476
4.550000 82.289 -10.3240
4.620000 82.537 -11.9527
4.680000 82.745 -13.3351
4.750000 82.981 -14.9362
4.820000 83.211 -16.5262
4.870000 83.370 -17.6529
4.940000 83.588 -19.2169
5.000000 83.769 -20.5445
5.080000 84.004 -22.2953
5.150000 84.203 -23.8083
5.220000 84.396 -25.3038
5.300000 84.609 -26.9920
5.380000 84.814 -28.6583
5.450000 84.989 -30.0988
5.520000 85.158 -31.5230
5.600000 85.345 -33.1294
5.700000 85.570 -35.1071
5.800000 85.785 -37.0537
5.900000 85.993 -38.9711
6.000000 86.193 -40.8547
6.080000 86.347 -42.3406
6.150000 86.478 -43.6288
6.220000 86.606 -44.9088
6.300000 86.749 -46.3588
6.400000 86.921 -48.1491
6.500000 87.087 -49.9242
6.600000 87.246 -51.6943
6.700000 87.399 -53.4590
6.800000 87.546 -55.2154
6.900000 87.685 -56.9658
7.000000 87.815 -58.7132
7.100000 87.937 -60.4612
7.200000 88.050 -62.2021
7.300000 88.153 -63.9269
7.400000 88.245 -65.6363
7.500000 88.327 -67.3385
7.620000 88.412 -69.3416
7.750000 88.485 -71.4307
7.880000 88.539 -73.4582
8.000000 88.576 -75.2394
8.120000 88.602 -76.8983
8.250000 88.615 -78.5770
8.380000 88.622 -80.1142
8.500000 88.630 -81.3844
8.620000 88.634 -82.5143
8.750000 88.645 -83.6154
8.850000 88.665 -84.3864
9.000000 88.707 -85.3870
9.120000 88.757 -86.1370
9.250000 88.830 -86.9489
9.380000 88.923 -87.7280
9.500000 89.020 -88.4979
9.620000 89.126 -89.3567
9.750000 89.252 -90.3560
9.880000 89.376 -91.4550
10.000000 89.484 -92.5830
10.150000 89.614 -94.1167
10.300000 89.718 -95.7220
10.440000 89.793 -97.3129
10.600000 89.850 -99.1309
10.750000 89.870 -100.7693
10.900000 89.860 -102.3447
11.060000 89.826 -103.8098
11.200000 89.773 -104.9260
11.380000 89.699 -106.0767
11.500000 89.646 -106.6329
11.720000 89.564 -107.3210
11.800000 89.547 -107.4752
12.060000 89.533 -107.6938
12.200000 89.562 -107.7890
12.410000 89.648 -107.9310
12.500000 89.692 -108.0712
12.650000 89.782 -108.3891
12.800000 89.874 -108.8262
13.150000 90.053 -110.3780
13.200000 90.071 -110.6284
13.400000 90.118 -111.7272
13.600000 90.128 -112.7906
13.800000 90.096 -113.7601
14.000000 90.040 -114.5184
14.300000 89.923 -115.2187
14.500000 89.849 -115.3740
14.750000 89.777 -115.3486
15.000000 89.738 -115.1568
15.250000 89.732 -114.9821
15.500000 89.741 -114.8967
15.750000 89.755 -114.9268
16.000000 89.757 -115.0507
16.250000 89.745 -115.1814
16.500000 89.719 -115.2741
16.750000 89.686 -115.2702
17.000000 89.655 -115.1706
17.250000 89.633 -114.9945
17.500000 89.624 -114.7735
17.750000 89.629 -114.5536
18.000000 89.647 -114.3499
18.250000 89.675 -114.1778
18.500000 89.713 -114.0409
18.750000 89.762 -113.9459
19.000000 89.820 -113.8999
19.250000 89.886 -113.9236
19.500000 89.956 -114.0243
19.750000 90.027 -114.2048
20.000000 90.092 -114.4470
20.299999 90.157 -114.7560
20.600000 90.207 -115.0076
20.900000 90.249 -115.1181
21.200001 90.296 -115.0286
21.400000 90.338 -114.8618
21.799999 90.466 -114.3569
22.000000 90.554 -114.0796
22.400000 90.773 -113.6215
22.700001 90.961 -113.4428
23.000000 91.151 -113.4257
23.299999 91.331 -113.5212
23.600000 91.498 -113.6654
24.000000 91.701 -113.8385
24.299999 91.847 -113.9191
24.700001 92.041 -113.9848
25.000000 92.187 -114.0477
25.400000 92.376 -114.1907
25.799999 92.546 -114.3727
26.200001 92.696 -114.5022
26.500000 92.805 -114.5242
26.900000 92.959 -114.4749
27.200001 93.087 -114.4468
27.600000 93.268 -114.5247
28.000000 93.444 -114.7758
28.500000 93.634 -115.1932
29.000000 93.811 -115.4832
29.500000 94.024 -115.6690
30.000000 94.285 -116.1130
30.400000 94.495 -116.8498
30.700001 94.629 -117.5969
31.100000 94.762 -118.6556
31.500000 94.855 -119.5636
32.000000 94.963 -120.3229
32.500000 95.111 -120.8431
33.000000 95.296 -121.4645
33.500000 95.480 -122.2879
34.000000 95.643 -123.1560
34.500000 95.798 -123.9271
35.000000 95.960 -124.6339
35.500000 96.130 -125.3612
36.000000 96.298 -126.1018
36.500000 96.472 -126.8233
37.000000 96.662 -127.6039
37.500000 96.856 -128.5818
38.200001 97.080 -130.2711
38.700001 97.191 -131.4550
39.500000 97.342 -132.9245
40.000000 97.456 -133.7014
40.599998 97.609 -134.7109
41.200001 97.756 -135.8497
41.799999 97.888 -137.0434
42.500000 98.024 -138.4312
43.099998 98.129 -139.5790
43.700001 98.231 -140.6757
44.400002 98.355 -141.9444
45.000000 98.458 -143.0647
45.500000 98.540 -144.0034
46.200001 98.654 -145.2998
46.799999 98.753 -146.4314
47.500000 98.861 -147.8095
48.200001 98.954 -149.1749
48.700001 99.016 -150.1019
49.400002 99.105 -151.3583
50.000000 99.182 -152.4380
50.799999 99.281 -153.8874
51.500000 99.363 -155.1677
52.200001 99.438 -156.4806
53.000000 99.508 -157.9979
53.799999 99.565 -159.4974
54.500000 99.607 -160.7978
55.200001 99.641 -162.0688
56.000000 99.680 -163.4752
57.000000 99.739 -165.2748
58.000000 99.793 -167.1711
59.000000 99.831 -169.0736
60.000000 99.858 -170.8785
60.799999 99.882 -172.2339
61.500000 99.905 -173.4186
62.200001 99.919 -174.6021
63.000000 99.926 -175.8895
64.000000 99.934 -177.4439
65.000000 99.936 -179.0498
66.000000 99.925 179.2726
67.000000 99.886 177.5694
68.000000 99.831 176.0836
69.000000 99.812 174.7563
70.000000 99.815 173.2461
71.000000 99.783 171.6278
72.000000 99.718 170.2081
73.000000 99.653 168.9707
74.000000 99.591 167.6825
75.000000 99.514 166.3015
76.199997 99.405 164.4818
77.500000 99.232 162.6084
78.800003 99.138 161.3678
80.000000 99.159 159.7464
81.199997 99.119 157.8250
82.500000 99.032 156.1512
83.800003 98.939 154.6788
85.000000 98.840 153.3331
86.199997 98.729 151.9152
87.500000 98.598 150.3807
88.500000 98.510 149.2531
90.000000 98.392 147.6030
91.199997 98.299 146.4245
92.500000 98.194 145.2328
93.800003 98.068 144.0632
95.000000 97.935 142.9799
96.199997 97.800 141.8477
97.500000 97.652 140.5848
98.800003 97.512 139.4220
100.000000 97.396 138.4461
101.500000 97.246 137.2638
103.000000 97.061 136.0698
104.400002 96.853 134.9955
106.000000 96.637 133.8958
107.500000 96.497 132.6132
109.000000 96.345 131.1945
110.599998 96.152 130.1154
112.000000 95.977 129.2839
113.800003 95.618 128.3766
115.000000 95.346 128.3057
117.199997 95.008 128.2338
118.000000 94.922 127.8828
120.599998 94.591 126.0430
122.000000 94.410 124.9083
124.099998 94.132 123.0333
125.000000 94.021 122.2771
126.500000 93.833 121.0949
128.000000 93.615 120.3370
131.500000 93.167 119.4739
132.000000 93.106 119.2792
134.000000 92.851 118.3114
136.000000 92.577 117.6918
138.000000 92.330 117.7509
140.000000 92.080 117.9545
143.000000 91.607 117.5723
145.000000 91.273 116.9206
147.500000 90.878 116.2639
150.000000 90.455 116.3741
152.500000 90.025 116.9501
155.000000 89.627 117.5479
157.500000 89.295 118.0154
160.000000 88.948 118.2692
162.500000 88.558 118.7661
165.000000 88.205 119.7698
167.500000 87.847 121.2499
170.000000 87.451 122.6838
172.500000 87.025 123.6678
175.000000 86.648 124.9141
177.500000 86.427 126.7847
180.000000 86.295 128.7940
182.500000 86.157 131.4305
185.000000 85.942 135.0344
187.500000 85.616 139.3887
190.000000 85.380 142.6209
192.500000 85.224 144.2285
195.000000 85.170 145.8214
197.500000 85.066 146.6187
200.000000 84.797 146.3035
203.000000 84.614 147.1037
206.000000 84.983 151.3395
209.000000 85.376 155.5121
212.000000 85.414 156.8001
214.000000 85.369 156.6021
218.000000 85.538 157.6127
220.000000 85.674 159.1221
224.000000 85.837 163.0818
227.000000 85.965 165.0616
230.000000 86.066 165.8477
233.000000 86.201 166.1916
236.000000 86.391 166.8424
240.000000 86.623 168.1734
243.000000 86.778 168.6121
247.000000 87.018 168.6824
250.000000 87.259 169.7053
254.000000 87.685 171.2533
258.000000 87.927 171.4189
262.000000 88.012 171.0064
265.000000 88.154 170.7622
269.000000 88.407 170.7534
272.000000 88.511 170.7625
276.000000 88.588 170.1735
280.000000 88.717 169.4462
285.000000 88.929 169.4534
290.000000 89.112 169.4219
295.000000 89.242 168.6022
300.000000 89.297 167.0324
304.000000 89.376 166.0510
307.000000 89.463 165.4803
311.000000 89.548 165.2133
315.000000 89.619 165.1273
320.000000 89.714 164.4735
325.000000 89.793 163.5971
330.000000 89.845 162.6785
335.000000 89.901 162.0651
340.000000 89.958 161.6685
345.000000 89.973 161.0631
350.000000 89.985 160.4474
355.000000 90.021 160.0006
360.000000 90.068 159.5431
365.000000 90.097 158.8579
370.000000 90.080 157.9005
375.000000 90.042 157.2000
382.000000 89.985 156.8297
387.000000 89.979 156.5479
395.000000 89.996 155.6474
400.000000 90.020 155.4067
406.000000 90.043 155.1419
412.000000 90.016 154.4559
418.000000 90.002 153.6113
425.000000 89.997 152.9542
431.000000 90.017 152.5840
437.000000 90.038 152.1163
444.000000 90.053 151.5697
450.000000 90.029 151.1093
455.000000 90.008 150.7491
462.000000 89.981 150.4351
468.000000 89.953 150.0374
475.000000 89.947 149.2566
482.000000 89.960 148.5032
487.000000 89.985 148.1245
494.000000 89.972 147.6683
500.000000 89.871 147.1671
508.000000 89.784 146.4996
515.000000 89.769 145.9422
522.000000 89.738 145.4897
530.000000 89.730 144.6612
538.000000 89.707 143.7888
545.000000 89.652 143.2407
552.000000 89.590 142.6997
560.000000 89.539 142.0330
570.000000 89.438 141.2141
580.000000 89.338 140.5244
590.000000 89.287 139.9100
600.000000 89.184 139.4288
608.000000 89.075 139.0855
615.000000 88.997 138.7992
622.000000 88.935 138.5695
630.000000 88.882 138.3860
640.000000 88.811 137.9138
650.000000 88.686 137.3101
660.000000 88.571 136.9391
670.000000 88.503 136.7841
680.000000 88.432 136.7400
690.000000 88.301 136.6628
700.000000 88.189 136.5552
710.000000 88.115 136.6331
720.000000 88.003 136.7074
730.000000 87.902 136.8615
740.000000 87.847 137.0087
750.000000 87.799 137.1805
762.000000 87.720 137.4132
775.000000 87.674 137.4194
788.000000 87.618 137.5813
800.000000 87.538 138.0848
812.000000 87.515 138.6278
825.000000 87.533 138.9728
838.000000 87.519 139.4355
850.000000 87.484 139.9639
862.000000 87.461 140.2788
875.000000 87.459 140.6942
885.000000 87.459 141.3478
900.000000 87.526 142.1594
912.000000 87.594 142.4728
925.000000 87.628 142.9046
938.000000 87.678 143.3087
950.000000 87.736 143.6138
962.000000 87.786 143.8876
975.000000 87.803 144.0577
988.000000 87.866 144.2497
1000.000000 88.014 144.7563
1015.000000 88.191 145.2171
1030.000000 88.325 145.2301
1044.000000 88.450 145.2985
1060.000000 88.605 145.6281
1075.000000 88.739 146.0798
1090.000000 88.881 146.4708
1106.000000 89.042 146.8031
1120.000000 89.175 146.9651
1138.000000 89.364 146.9578
1150.000000 89.521 147.0338
1172.000000 89.850 147.4234
1180.000000 89.960 147.4692
1206.000000 90.285 147.4260
1220.000000 90.489 147.4683
1241.000000 90.826 147.4708
1250.000000 90.976 147.3630
1265.000000 91.235 147.0126
1280.000000 91.511 146.5555
1315.000000 92.223 145.3069
1320.000000 92.330 145.1087
1340.000000 92.756 144.1710
1360.000000 93.177 142.8585
1380.000000 93.592 141.1674
1400.000000 94.010 139.2036
1430.000000 94.626 136.0352
1450.000000 94.986 133.7994
1475.000000 95.400 130.7782
1500.000000 95.793 127.5307
1525.000000 96.147 124.1890
1550.000000 96.452 120.7340
1575.000000 96.732 117.2696
1600.000000 96.983 113.8510
1625.000000 97.196 110.4380
1650.000000 97.389 107.0406
1675.000000 97.572 103.6879
1700.000000 97.733 100.3379
1725.000000 97.875 97.0858
1750.000000 98.007 93.9163
1775.000000 98.130 90.7729
1800.000000 98.248 87.6884
1825.000000 98.359 84.6510
1850.000000 98.454 81.5862
1875.000000 98.545 78.5085
1900.000000 98.636 75.4652
1925.000000 98.726 72.4304
1950.000000 98.812 69.3867
1975.000000 98.889 66.3451
2000.000000 98.956 63.3002
2030.000000 99.027 59.6571
2060.000000 99.096 55.9885
2090.000000 99.153 52.3210
2120.000000 99.194 48.6417
2140.000000 99.214 46.1859
2180.000000 99.246 41.2870
2200.000000 99.251 38.8393
2240.000000 99.237 33.9640
2270.000000 99.204 30.3579
2300.000000 99.159 26.7992
2330.000000 99.106 23.2909
2360.000000 99.043 19.8513
2400.000000 98.938 15.3872
2430.000000 98.846 12.1489
2470.000000 98.707 7.9237
2500.000000 98.597 4.8378
2540.000000 98.447 0.9124
2580.000000 98.294 -2.8418
2620.000000 98.138 -6.4492
2650.000000 98.021 -9.0625
2690.000000 97.861 -12.4052
2720.000000 97.743 -14.8022
2760.000000 97.595 -17.8809
2800.000000 97.458 -20.8457
2850.000000 97.298 -24.3894
2900.000000 97.149 -27.7526
2950.000000 97.016 -30.9503
3000.000000 96.906 -33.9913
3040.000000 96.840 -36.3400
3070.000000 96.808 -38.0689
3110.000000 96.789 -40.3548
3150.000000 96.791 -42.6490
3200.000000 96.812 -45.5477
3250.000000 96.846 -48.4697
3300.000000 96.896 -51.2993
3350.000000 96.973 -53.9937
3400.000000 97.066 -56.7698
3450.000000 97.177 -59.6884
3500.000000 97.308 -62.6650
3550.000000 97.462 -65.6959
3600.000000 97.644 -68.7996
3650.000000 97.856 -71.9949
3700.000000 98.094 -75.2993
3750.000000 98.357 -78.7371
3820.000000 98.761 -83.8276
3870.000000 99.074 -87.6982
3950.000000 99.627 -94.4358
4000.000000 100.005 -99.0661
4060.000000 100.475 -105.1374
4120.000000 100.943 -111.8445
4180.000000 101.389 -119.2820
4250.000000 101.845 -128.9683
4310.000000 102.137 -138.1385
4370.000000 102.295 -148.0663
4440.000000 102.257 -160.5402
4500.000000 102.014 -171.5399
4550.000000 101.673 179.7070
4620.000000 101.017 168.7924
4680.000000 100.315 160.8015
4750.000000 99.393 153.0303
4820.000000 98.434 146.9108
4870.000000 97.767 143.5132
4940.000000 96.904 140.0078
5000.000000 96.269 138.0121
5080.000000 95.636 136.4561
5150.000000 95.325 135.7283
5220.000000 95.258 135.1165
5300.000000 95.474 133.9279
5380.000000 95.946 131.6006
5450.000000 96.497 128.2662
5520.000000 97.101 123.5503
5600.000000 97.764 116.4633
5700.000000 98.422 105.3780
5800.000000 98.783 92.6284
5900.000000 98.807 79.3572
6000.000000 98.530 66.6246
6080.000000 98.146 57.2932
6150.000000 97.737 49.8831
6220.000000 97.293 43.2218
6300.000000 96.778 36.6165
6400.000000 96.180 29.8488
6500.000000 95.660 23.8461
6600.000000 95.239 18.0995
6700.000000 94.934 12.6884
6800.000000 94.730 7.3316
6900.000000 94.626 1.9893
7000.000000 94.627 -3.3176
7100.000000 94.745 -8.6797
7200.000000 94.997 -14.2370
7300.000000 95.387 -20.1620
7400.000000 95.921 -26.6594
7500.000000 96.603 -34.0117
7620.000000 97.616 -44.5929
7750.000000 98.876 -59.5089
7880.000000 100.004 -79.6337
8000.000000 100.480 -102.9547
8120.000000 100.087 -128.0526
8250.000000 98.700 -152.4407
8380.000000 96.710 -171.3245
8500.000000 94.750 175.6006
8620.000000 92.914 165.3494
8750.000000 91.150 156.1910
8850.000000 89.949 149.9907
9000.000000 88.357 141.5374
9120.000000 87.235 135.2482
9250.000000 86.148 128.7302
9380.000000 85.175 122.4144
9500.000000 84.361 116.7080
9620.000000 83.616 111.0879
9750.000000 82.883 105.0623
9880.000000 82.220 99.0686
10000.000000 81.663 93.5282
10150.000000 81.031 86.5352
10300.000000 80.463 79.4011
10440.000000 79.983 72.5615
10600.000000 79.478 64.5099
10750.000000 79.028 56.6903
10900.000000 78.579 48.3596
11060.000000 78.084 38.6871
11200.000000 77.655 30.3285
11380.000000 77.135 20.5592
11500.000000 76.805 14.3771
11720.000000 76.233 3.3029
11800.000000 76.034 -0.6543
12060.000000 75.435 -13.1947
12200.000000 75.150 -19.6395
12410.000000 74.784 -29.2388
12500.000000 74.649 -33.4597
12650.000000 74.453 -40.5775
12800.000000 74.289 -47.7339
13150.000000 74.009 -64.4541
13200.000000 73.983 -66.8386
13400.000000 73.934 -76.3623
13600.000000 73.983 -85.8514
13800.000000 74.147 -95.3549
14000.000000 74.455 -104.9867
14300.000000 75.314 -120.1455
14500.000000 76.270 -131.5583
14750.000000 77.907 -150.0350
15000.000000 79.523 -178.2098
15250.000000 80.073 143.6643
15500.000000 78.909 106.5441
15750.000000 76.447 79.4004
16000.000000 73.679 61.4458
16250.000000 71.293 48.6631
16500.000000 69.462 38.3314
16750.000000 68.135 29.0798
17000.000000 67.322 20.2502
17250.000000 67.117 11.4906
17500.000000 67.445 2.5310
17750.000000 68.005 -6.8920
18000.000000 68.623 -17.2175
18250.000000 69.367 -29.5304
18500.000000 70.190 -45.1641
18750.000000 70.770 -64.6880
19000.000000 70.821 -86.1990
19250.000000 70.390 -106.5223
19500.000000 69.792 -124.3844
19750.000000 69.298 -140.9087
20000.000000 68.916 -157.3929
20300.000000 68.385 -177.2739
20600.000000 67.654 162.9399
20900.000000 66.790 143.4081
21200.000000 65.820 120.1093
21400.000000 65.024 93.3707
21800.000000 62.702 0.0361
22000.000000 61.075 78.1432
22400.000000 56.332 102.4534
22700.000000 51.515 -13.7703
23000.000000 45.967 124.7974
23300.000000 39.691 -144.8574
23600.000000 33.030 -31.7817
24000.000000 27.491 -49.8320
