* Measurement data measured by REW V5.20.13
* Source: Headset (DS by VECLAN.COM), MICROPHONE (Master Volume), L, volume: 0.930. Timing signal peak level -12.5 dBFS, measurement signal peak level -9.1 dBFS
* Format: 2M Log Swept Sine, 1 sweep at -12.0 dBFS using an acoustic timing reference
* Dated: Oct 5, 2023 5:27:41 PM
* REW Settings:
*  C-weighting compensation: Off
*  Target level: 75.0 dB
* Note: ; Delay -0.2262 ms (-78 mm, -3.05 in) using estimated IR delay relative to Acoustic reference played from HEADPHONE L with no timing offset Clock adjustment: 22.4 ppm
* Measurement: SOUNDPEATS Truengine SE L
* Smoothing: 1/24 octave
* Frequency Step: 1/48 octave
* Start Frequency: 1.000 Hz
*
* Freq(Hz) SPL(dB) Phase(degrees)
1.000000 49.450 158.9996
1.015000 49.584 158.4094
1.030000 49.724 157.8071
1.044000 49.862 157.2342
1.060000 50.026 156.5669
1.075000 50.187 155.9294
1.090000 50.355 155.2804
1.106000 50.543 154.5744
1.120000 50.718 153.9375
1.138000 50.956 153.0918
1.150000 51.122 152.5123
1.172000 51.443 151.4196
1.180000 51.564 151.0132
1.206000 51.972 149.6619
1.220000 52.201 148.9167
1.241000 52.553 147.7789
1.250000 52.708 147.2845
1.265000 52.969 146.4528
1.280000 53.234 145.6123
1.315000 53.865 143.6245
1.320000 53.956 143.3381
1.340000 54.322 142.1886
1.360000 54.689 141.0350
1.380000 55.056 139.8802
1.400000 55.421 138.7273
1.430000 55.962 137.0079
1.450000 56.315 135.8729
1.475000 56.747 134.4677
1.500000 57.182 133.0458
1.525000 57.624 131.6028
1.550000 58.070 130.1430
1.575000 58.519 128.6708
1.600000 58.971 127.1906
1.625000 59.423 125.7069
1.650000 59.876 124.2239
1.675000 60.327 122.7462
1.700000 60.775 121.2780
1.725000 61.219 119.8238
1.750000 61.659 118.3880
1.775000 62.092 116.9749
1.800000 62.517 115.5889
1.825000 62.934 114.2345
1.850000 63.343 112.9118
1.875000 63.748 111.6121
1.900000 64.149 110.3334
1.925000 64.546 109.0739
1.950000 64.938 107.8318
1.975000 65.327 106.6055
2.000000 65.711 105.3933
2.030000 66.165 103.9547
2.060000 66.614 102.5309
2.090000 67.055 101.1188
2.120000 67.489 99.7155
2.140000 67.775 98.7834
2.180000 68.337 96.9234
2.200000 68.613 95.9938
2.240000 69.154 94.1458
2.270000 69.551 92.7730
2.300000 69.941 91.4110
2.330000 70.324 90.0596
2.360000 70.701 88.7183
2.400000 71.192 86.9449
2.430000 71.553 85.6258
2.470000 72.026 83.8807
2.500000 72.374 82.5817
2.540000 72.830 80.8621
2.580000 73.276 79.1563
2.620000 73.712 77.4676
2.650000 74.030 76.2123
2.690000 74.446 74.5528
2.720000 74.751 73.3184
2.760000 75.149 71.6853
2.800000 75.538 70.0660
2.850000 76.013 68.0600
2.900000 76.475 66.0722
2.950000 76.926 64.1016
3.000000 77.363 62.1522
3.040000 77.702 60.6080
3.070000 77.951 59.4584
3.110000 78.275 57.9363
3.150000 78.592 56.4260
3.200000 78.978 54.5536
3.250000 79.354 52.6972
3.300000 79.721 50.8555
3.350000 80.077 49.0274
3.400000 80.421 47.2138
3.450000 80.754 45.4163
3.500000 81.077 43.6366
3.550000 81.391 41.8761
3.600000 81.697 40.1365
3.650000 81.994 38.4195
3.700000 82.284 36.7256
3.750000 82.565 35.0532
3.820000 82.942 32.7469
3.870000 83.201 31.1239
3.950000 83.601 28.5678
4.000000 83.843 26.9950
4.060000 84.126 25.1317
4.120000 84.398 23.2937
4.180000 84.659 21.4826
4.250000 84.952 19.4061
4.310000 85.195 17.6597
4.370000 85.431 15.9461
4.440000 85.699 13.9903
4.500000 85.919 12.3506
4.550000 86.096 11.0087
4.620000 86.337 9.1656
4.680000 86.538 7.6171
4.750000 86.766 5.8447
4.820000 86.989 4.1101
4.870000 87.143 2.8966
4.940000 87.352 1.2308
5.000000 87.527 -0.1684
5.080000 87.756 -1.9966
5.150000 87.952 -3.5638
5.220000 88.144 -5.0933
5.300000 88.357 -6.7985
5.380000 88.566 -8.4666
5.450000 88.745 -9.9027
5.520000 88.923 -11.3218
5.600000 89.122 -12.9122
5.700000 89.366 -14.8581
5.800000 89.605 -16.7709
5.900000 89.839 -18.6634
6.000000 90.068 -20.5275
6.080000 90.248 -21.9995
6.150000 90.402 -23.2762
6.220000 90.553 -24.5446
6.300000 90.722 -25.9852
6.400000 90.928 -27.7693
6.500000 91.127 -29.5318
6.600000 91.320 -31.2690
6.700000 91.505 -32.9857
6.800000 91.684 -34.6796
6.900000 91.856 -36.3408
7.000000 92.021 -37.9611
7.100000 92.180 -39.5472
7.200000 92.332 -41.0956
7.300000 92.480 -42.5994
7.400000 92.624 -44.0540
7.500000 92.763 -45.4625
7.620000 92.926 -47.0956
7.750000 93.100 -48.7961
7.880000 93.272 -50.4178
8.000000 93.429 -51.8644
8.120000 93.587 -53.2789
8.250000 93.759 -54.7616
8.380000 93.930 -56.2176
8.500000 94.087 -57.5578
8.620000 94.243 -58.8846
8.750000 94.407 -60.3150
8.850000 94.529 -61.4178
9.000000 94.705 -63.0750
9.120000 94.838 -64.3855
9.250000 94.972 -65.7837
9.380000 95.098 -67.1656
9.500000 95.203 -68.3933
9.620000 95.296 -69.5623
9.750000 95.385 -70.7737
9.880000 95.464 -71.8987
10.000000 95.525 -72.8454
10.150000 95.588 -73.9209
10.300000 95.654 -74.8886
10.440000 95.714 -75.6757
10.600000 95.793 -76.5092
10.750000 95.887 -77.2610
10.900000 95.996 -77.9905
11.060000 96.127 -78.8576
11.200000 96.256 -79.6760
11.380000 96.423 -80.8761
11.500000 96.535 -81.7908
11.720000 96.727 -83.6624
11.800000 96.789 -84.4073
12.060000 96.958 -87.0211
12.200000 97.020 -88.4800
12.410000 97.075 -90.7068
12.500000 97.083 -91.6193
12.650000 97.077 -93.1120
12.800000 97.051 -94.5058
13.150000 96.934 -97.2179
13.200000 96.916 -97.5406
13.400000 96.837 -98.6509
13.600000 96.771 -99.5466
13.800000 96.726 -100.2352
14.000000 96.708 -100.8456
14.300000 96.729 -101.6937
14.500000 96.770 -102.3273
14.750000 96.837 -103.2358
15.000000 96.913 -104.2871
15.250000 96.987 -105.4461
15.500000 97.055 -106.6557
15.750000 97.117 -107.8834
16.000000 97.172 -109.0903
16.250000 97.226 -110.2749
16.500000 97.280 -111.4394
16.750000 97.336 -112.5941
17.000000 97.391 -113.7436
17.250000 97.445 -114.8835
17.500000 97.496 -116.0065
17.750000 97.544 -117.0959
18.000000 97.588 -118.1452
18.250000 97.629 -119.1475
18.500000 97.671 -120.1049
18.750000 97.713 -121.0227
19.000000 97.755 -121.9055
19.250000 97.798 -122.7595
19.500000 97.840 -123.5856
19.750000 97.881 -124.3850
20.000000 97.920 -125.1580
20.299999 97.966 -126.0539
20.600000 98.009 -126.9204
20.900000 98.050 -127.7635
21.200001 98.088 -128.5880
21.400000 98.111 -129.1272
21.799999 98.152 -130.1784
22.000000 98.171 -130.6899
22.400000 98.206 -131.6869
22.700001 98.232 -132.4206
23.000000 98.258 -133.1540
23.299999 98.283 -133.8957
23.600000 98.307 -134.6481
24.000000 98.333 -135.6614
24.299999 98.349 -136.4156
24.700001 98.365 -137.3910
25.000000 98.375 -138.0862
25.400000 98.390 -138.9580
25.799999 98.413 -139.7827
26.200001 98.446 -140.6003
26.500000 98.476 -141.2375
26.900000 98.517 -142.1410
27.200001 98.545 -142.8531
27.600000 98.570 -143.8123
28.000000 98.583 -144.7214
28.500000 98.593 -145.7304
29.000000 98.611 -146.6411
29.500000 98.637 -147.5615
30.000000 98.652 -148.5285
30.400000 98.649 -149.2731
30.700001 98.640 -149.7706
31.100000 98.628 -150.3326
31.500000 98.628 -150.8166
32.000000 98.647 -151.4305
32.500000 98.673 -152.1493
33.000000 98.689 -152.9426
33.500000 98.693 -153.7152
34.000000 98.696 -154.4281
34.500000 98.705 -155.1269
35.000000 98.715 -155.8518
35.500000 98.717 -156.5784
36.000000 98.713 -157.2558
36.500000 98.711 -157.8769
37.000000 98.714 -158.4809
37.500000 98.718 -159.0996
38.200001 98.718 -159.9755
38.700001 98.714 -160.5833
39.500000 98.705 -161.5231
40.000000 98.697 -162.0930
40.599998 98.687 -162.7516
41.200001 98.678 -163.3909
41.799999 98.671 -164.0288
42.500000 98.662 -164.7672
43.099998 98.655 -165.3828
43.700001 98.650 -165.9980
44.400002 98.643 -166.7311
45.000000 98.631 -167.3454
45.500000 98.620 -167.8253
46.200001 98.608 -168.4702
46.799999 98.599 -169.0378
47.500000 98.581 -169.7019
48.200001 98.559 -170.2965
48.700001 98.546 -170.6753
49.400002 98.537 -171.2028
50.000000 98.531 -171.6841
50.799999 98.517 -172.3247
51.500000 98.504 -172.8544
52.200001 98.491 -173.3827
53.000000 98.473 -173.9919
53.799999 98.449 -174.5743
54.500000 98.427 -175.0663
55.200001 98.404 -175.5504
56.000000 98.380 -176.0937
57.000000 98.354 -176.8081
58.000000 98.319 -177.5485
59.000000 98.280 -178.1978
60.000000 98.250 -178.7879
60.799999 98.230 -179.2523
61.500000 98.213 -179.6501
62.200001 98.196 179.9479
63.000000 98.172 179.4883
64.000000 98.135 178.9585
65.000000 98.099 178.4434
66.000000 98.059 177.9146
67.000000 98.017 177.4023
68.000000 97.976 176.8846
69.000000 97.935 176.3772
70.000000 97.897 175.8849
71.000000 97.860 175.4034
72.000000 97.823 174.9389
73.000000 97.783 174.4863
74.000000 97.740 174.0731
75.000000 97.697 173.6933
76.199997 97.647 173.2352
77.500000 97.592 172.7327
78.800003 97.537 172.2337
80.000000 97.487 171.7847
81.199997 97.438 171.3579
82.500000 97.388 170.9290
83.800003 97.339 170.4958
85.000000 97.292 170.1009
86.199997 97.245 169.7246
87.500000 97.197 169.3087
88.500000 97.159 168.9968
90.000000 97.103 168.5494
91.199997 97.060 168.2059
92.500000 97.013 167.8380
93.800003 96.963 167.4649
95.000000 96.913 167.1270
96.199997 96.863 166.7984
97.500000 96.811 166.4299
98.800003 96.757 166.0728
100.000000 96.709 165.7911
101.500000 96.654 165.4825
103.000000 96.600 165.1769
104.400002 96.542 164.8743
106.000000 96.462 164.5319
107.500000 96.386 164.2433
109.000000 96.317 163.9391
110.599998 96.248 163.5950
112.000000 96.190 163.3093
113.800003 96.116 162.9691
115.000000 96.065 162.7689
117.199997 95.977 162.4095
118.000000 95.947 162.2728
120.599998 95.845 161.7999
122.000000 95.784 161.6185
124.099998 95.697 161.4251
125.000000 95.662 161.3329
126.500000 95.608 161.1281
128.000000 95.557 160.8403
131.500000 95.416 160.1788
132.000000 95.397 160.1250
134.000000 95.322 159.8799
136.000000 95.231 159.6663
138.000000 95.146 159.5070
140.000000 95.069 159.3336
143.000000 94.950 159.0468
145.000000 94.868 158.8681
147.500000 94.769 158.5842
150.000000 94.666 158.3074
152.500000 94.560 158.0564
155.000000 94.450 157.7952
157.500000 94.338 157.5225
160.000000 94.218 157.2747
162.500000 94.091 157.0420
165.000000 93.955 156.8042
167.500000 93.825 156.6048
170.000000 93.690 156.3239
172.500000 93.520 156.0828
175.000000 93.334 155.9973
177.500000 93.154 155.9424
180.000000 92.962 155.8966
182.500000 92.751 155.9846
185.000000 92.520 156.2484
187.500000 92.274 156.7606
190.000000 92.031 157.5295
192.500000 91.799 158.5760
195.000000 91.597 159.8980
197.500000 91.439 161.4818
200.000000 91.348 163.2324
203.000000 91.305 165.1472
206.000000 91.304 166.9684
209.000000 91.401 168.3756
212.000000 91.481 169.2058
214.000000 91.525 169.9144
218.000000 91.705 170.9290
220.000000 91.766 170.9279
224.000000 91.801 170.9937
227.000000 91.825 171.1635
230.000000 91.844 171.2524
233.000000 91.846 171.2747
236.000000 91.837 171.3153
240.000000 91.814 171.4008
243.000000 91.790 171.4689
247.000000 91.747 171.5931
250.000000 91.709 171.6904
254.000000 91.656 171.8265
258.000000 91.599 171.9946
262.000000 91.539 172.1732
265.000000 91.493 172.3192
269.000000 91.434 172.5522
272.000000 91.391 172.7279
276.000000 91.327 172.9601
280.000000 91.256 173.2415
285.000000 91.182 173.6791
290.000000 91.114 174.0160
295.000000 91.013 174.3282
300.000000 90.921 174.9866
304.000000 90.875 175.4991
307.000000 90.840 175.7554
311.000000 90.783 176.0356
315.000000 90.718 176.3873
320.000000 90.637 176.9067
325.000000 90.558 177.4348
330.000000 90.485 177.9628
335.000000 90.417 178.5002
340.000000 90.348 179.0479
345.000000 90.276 179.5989
350.000000 90.205 -179.8298
355.000000 90.134 -179.2542
360.000000 90.065 -178.6645
365.000000 89.993 -178.0298
370.000000 89.930 -177.3574
375.000000 89.871 -176.7544
382.000000 89.760 -175.9171
387.000000 89.682 -175.2943
395.000000 89.583 -174.2804
400.000000 89.522 -173.6132
406.000000 89.453 -172.8225
412.000000 89.386 -172.0399
418.000000 89.308 -171.2504
425.000000 89.219 -170.2772
431.000000 89.153 -169.4896
437.000000 89.089 -168.7512
444.000000 89.027 -167.8538
450.000000 88.976 -167.0326
455.000000 88.927 -166.3270
462.000000 88.852 -165.3534
468.000000 88.789 -164.5700
475.000000 88.726 -163.6679
482.000000 88.674 -162.6852
487.000000 88.637 -161.9498
494.000000 88.585 -160.9283
500.000000 88.537 -160.0544
508.000000 88.474 -158.9694
515.000000 88.432 -157.9884
522.000000 88.382 -156.9866
530.000000 88.320 -155.8647
538.000000 88.269 -154.7441
545.000000 88.232 -153.8218
552.000000 88.192 -152.9815
560.000000 88.141 -151.9128
570.000000 88.095 -150.1868
580.000000 88.055 -148.5985
590.000000 88.014 -147.1011
600.000000 87.974 -145.6330
608.000000 87.941 -144.4868
615.000000 87.914 -143.4782
622.000000 87.887 -142.4498
630.000000 87.856 -141.2713
640.000000 87.822 -139.8186
650.000000 87.790 -138.3772
660.000000 87.765 -136.9527
670.000000 87.740 -135.4944
680.000000 87.718 -134.0221
690.000000 87.704 -132.5334
700.000000 87.692 -131.0645
710.000000 87.683 -129.6147
720.000000 87.680 -128.1659
730.000000 87.680 -126.7045
740.000000 87.684 -125.2313
750.000000 87.690 -123.7686
762.000000 87.701 -122.0245
775.000000 87.719 -120.1414
788.000000 87.742 -118.2757
800.000000 87.766 -116.5665
812.000000 87.795 -114.8638
825.000000 87.831 -113.0345
838.000000 87.876 -111.2259
850.000000 87.921 -109.5805
862.000000 87.968 -107.9598
875.000000 88.023 -106.2370
885.000000 88.069 -104.9355
900.000000 88.142 -103.0149
912.000000 88.205 -101.4970
925.000000 88.275 -99.8780
938.000000 88.348 -98.2807
950.000000 88.419 -96.8198
962.000000 88.490 -95.3801
975.000000 88.569 -93.8571
988.000000 88.649 -92.3655
1000.000000 88.724 -91.0121
1015.000000 88.819 -89.3539
1030.000000 88.915 -87.7384
1044.000000 89.005 -86.2709
1060.000000 89.110 -84.6304
1075.000000 89.209 -83.1305
1090.000000 89.314 -81.6712
1106.000000 89.434 -80.1413
1120.000000 89.541 -78.8220
1138.000000 89.682 -77.1698
1150.000000 89.776 -76.1032
1172.000000 89.946 -74.1588
1180.000000 90.007 -73.4593
1206.000000 90.202 -71.2789
1220.000000 90.307 -70.1293
1241.000000 90.465 -68.4336
1250.000000 90.534 -67.7227
1265.000000 90.648 -66.5542
1280.000000 90.760 -65.4017
1315.000000 91.014 -62.7838
1320.000000 91.050 -62.4197
1340.000000 91.186 -60.9874
1360.000000 91.302 -59.5898
1380.000000 91.413 -58.2240
1400.000000 91.532 -56.8879
1430.000000 91.708 -54.9050
1450.000000 91.817 -53.5756
1475.000000 91.946 -51.8785
1500.000000 92.074 -50.1073
1525.000000 92.206 -48.2615
1550.000000 92.345 -46.3821
1575.000000 92.497 -44.5191
1600.000000 92.661 -42.7055
1625.000000 92.834 -40.9672
1650.000000 93.012 -39.3401
1675.000000 93.192 -37.8157
1700.000000 93.372 -36.3717
1725.000000 93.551 -35.0070
1750.000000 93.729 -33.7047
1775.000000 93.904 -32.4631
1800.000000 94.075 -31.2753
1825.000000 94.243 -30.1416
1850.000000 94.409 -29.0671
1875.000000 94.572 -28.0461
1900.000000 94.731 -27.0665
1925.000000 94.885 -26.1379
1950.000000 95.033 -25.2555
1975.000000 95.177 -24.4142
2000.000000 95.315 -23.6161
2030.000000 95.476 -22.7103
2060.000000 95.629 -21.8626
2090.000000 95.773 -21.0586
2120.000000 95.907 -20.2971
2140.000000 95.993 -19.8153
2180.000000 96.153 -18.9017
2200.000000 96.225 -18.4643
2240.000000 96.354 -17.6315
2270.000000 96.440 -17.0395
2300.000000 96.516 -16.4683
2330.000000 96.582 -15.9177
2360.000000 96.639 -15.3747
2400.000000 96.701 -14.6724
2430.000000 96.736 -14.1505
2470.000000 96.767 -13.4654
2500.000000 96.779 -12.9476
2540.000000 96.780 -12.2521
2580.000000 96.764 -11.5415
2620.000000 96.731 -10.8093
2650.000000 96.696 -10.2362
2690.000000 96.633 -9.4367
2720.000000 96.575 -8.8040
2760.000000 96.483 -7.9155
2800.000000 96.377 -6.9654
2850.000000 96.226 -5.6755
2900.000000 96.055 -4.2508
2950.000000 95.867 -2.6805
3000.000000 95.665 -0.9442
3040.000000 95.493 0.5793
3070.000000 95.361 1.8000
3110.000000 95.183 3.5339
3150.000000 95.000 5.4017
3200.000000 94.769 7.9274
3250.000000 94.546 10.6552
3300.000000 94.334 13.6084
3350.000000 94.137 16.8035
3400.000000 93.961 20.2050
3450.000000 93.814 23.7657
3500.000000 93.699 27.4502
3550.000000 93.615 31.2228
3600.000000 93.562 35.0570
3650.000000 93.542 38.9217
3700.000000 93.550 42.7948
3750.000000 93.589 46.6434
3820.000000 93.696 51.9524
3870.000000 93.807 55.6580
3950.000000 94.041 61.3583
4000.000000 94.221 64.7253
4060.000000 94.468 68.4891
4120.000000 94.740 71.9082
4180.000000 95.032 74.9890
4250.000000 95.389 78.1724
4310.000000 95.701 80.5238
4370.000000 96.002 82.5097
4440.000000 96.333 84.3602
4500.000000 96.593 85.5675
4550.000000 96.788 86.3254
4620.000000 97.017 87.0320
4680.000000 97.166 87.3435
4750.000000 97.277 87.4500
4820.000000 97.324 87.4471
4870.000000 97.323 87.4712
4940.000000 97.278 87.6125
5000.000000 97.204 87.8393
5080.000000 97.071 88.2756
5150.000000 96.930 88.7677
5220.000000 96.774 89.3280
5300.000000 96.583 89.9871
5380.000000 96.380 90.5894
5450.000000 96.188 91.0250
5520.000000 95.973 91.3600
5600.000000 95.688 91.6306
5700.000000 95.253 91.9032
5800.000000 94.719 92.3070
5900.000000 94.086 93.1062
6000.000000 93.370 94.5224
6080.000000 92.756 96.2083
6150.000000 92.208 98.1293
6220.000000 91.666 100.4804
6300.000000 91.074 103.6602
6400.000000 90.404 108.2688
6500.000000 89.833 113.3866
6600.000000 89.382 118.8006
6700.000000 89.056 124.2977
6800.000000 88.862 129.6481
6900.000000 88.797 134.7112
7000.000000 88.848 139.3956
7100.000000 89.003 143.6115
7200.000000 89.269 147.2657
7300.000000 89.654 150.2559
7400.000000 90.156 152.3882
7500.000000 90.781 153.4043
7620.000000 91.688 152.7090
7750.000000 92.747 148.6771
7880.000000 93.576 140.3142
8000.000000 93.859 129.0430
8120.000000 93.475 116.5022
8250.000000 92.328 104.9175
8380.000000 90.708 97.5723
8500.000000 89.110 94.5443
8620.000000 87.616 94.2397
8750.000000 86.208 96.0736
8850.000000 85.287 98.6355
9000.000000 84.164 103.9556
9120.000000 83.470 109.2211
9250.000000 82.910 115.6917
9380.000000 82.533 122.7293
9500.000000 82.336 129.6062
9620.000000 82.273 136.7707
9750.000000 82.361 144.7494
9880.000000 82.610 152.8464
10000.000000 82.979 160.2977
10150.000000 83.631 169.3668
10300.000000 84.513 177.8705
10440.000000 85.557 -175.1890
10600.000000 86.990 -169.3965
10750.000000 88.430 -167.3245
10900.000000 89.655 -169.7474
11060.000000 90.284 -177.0112
11200.000000 90.025 175.4203
11380.000000 88.679 169.4635
11500.000000 87.405 169.3289
11720.000000 84.965 175.8896
11800.000000 84.149 179.8071
12060.000000 81.898 -164.1153
12200.000000 80.940 -154.1382
12410.000000 79.775 -138.2341
12500.000000 79.355 -131.1261
12650.000000 78.769 -119.0931
12800.000000 78.316 -106.8745
13150.000000 77.703 -77.7109
13200.000000 77.655 -73.4927
13400.000000 77.592 -56.5907
13600.000000 77.768 -39.8374
13800.000000 78.168 -23.3243
14000.000000 78.804 -7.1169
14300.000000 80.343 16.0607
14500.000000 81.929 29.7361
14750.000000 84.579 42.1456
15000.000000 87.222 43.3747
15250.000000 88.297 30.7469
15500.000000 86.996 18.4179
15750.000000 84.250 19.1776
16000.000000 81.394 30.3812
16250.000000 79.066 47.3649
16500.000000 77.411 66.8397
16750.000000 76.330 87.3431
17000.000000 75.825 108.2424
17250.000000 75.997 127.8544
17500.000000 76.801 127.8079
17750.000000 77.978 -16.4865
18000.000000 79.432 73.1266
18250.000000 81.257 -21.2732
18500.000000 83.113 145.6287
18750.000000 84.110 -30.8799
19000.000000 83.516 124.1494
19250.000000 81.321 -178.7822
19500.000000 78.168 100.7842
19750.000000 74.847 104.4863
20000.000000 71.746 40.8340
20300.000000 68.332 -122.3477
20600.000000 65.363 47.4102
20900.000000 62.846 24.3555
21200.000000 60.596 7.4258
21400.000000 59.182 6.4258
21800.000000 56.395 -81.7734
22000.000000 54.903 -161.4102
22400.000000 50.530 -44.6875
22700.000000 45.705 -48.7305
23000.000000 39.741 59.8867
23300.000000 32.651 164.0078
23600.000000 24.517 174.6504
24000.000000 14.362 -46.8711
