* Measurement data measured by REW V5.20.13
* Source: Microphone (Realtek(R) Audio), MICROPHONE (Master Volume), L, volume: 0.710. Timing signal peak level -37.8 dBFS, measurement signal peak level -33.1 dBFS
* Format: 2M Log Swept Sine, 1 sweep at -12.0 dBFS using an acoustic timing reference
* Dated: Aug 11, 2023 9:34:14 AM
* REW Settings:
*  C-weighting compensation: Off
*  Target level: 75.0 dB
* Note: ; Delay -0.0463 ms (-16 mm, -0.63 in) using estimated IR delay relative to Acoustic reference played from HEADPHONE L with no timing offset Clock adjustment: -17.0 ppm
* Measurement: Space Travel Monitor L
* Smoothing: 1/24 octave
* Frequency Step: 1/48 octave
* Start Frequency: 1.000 Hz
*
* Freq(Hz) SPL(dB) Phase(degrees)
1.000000 69.668 -17.4450
1.015000 69.916 -20.3832
1.030000 70.162 -23.2306
1.044000 70.391 -25.7965
1.060000 70.650 -28.6089
1.075000 70.890 -31.1178
1.090000 71.128 -33.4919
1.106000 71.378 -35.8669
1.120000 71.598 -37.8286
1.138000 71.882 -40.2063
1.150000 72.073 -41.7070
1.172000 72.424 -44.2976
1.180000 72.552 -45.1918
1.206000 72.969 -47.9406
1.220000 73.194 -49.3310
1.241000 73.533 -51.3157
1.250000 73.678 -52.1337
1.265000 73.919 -53.4595
1.280000 74.160 -54.7452
1.315000 74.720 -57.6316
1.320000 74.799 -58.0350
1.340000 75.116 -59.6380
1.360000 75.431 -61.2370
1.380000 75.743 -62.8501
1.400000 76.052 -64.4952
1.430000 76.508 -67.0623
1.450000 76.806 -68.8663
1.475000 77.173 -71.2464
1.500000 77.536 -73.6898
1.525000 77.896 -76.1664
1.550000 78.252 -78.6659
1.575000 78.605 -81.1782
1.600000 78.953 -83.6930
1.625000 79.298 -86.2003
1.650000 79.639 -88.6897
1.675000 79.976 -91.1512
1.700000 80.309 -93.5745
1.725000 80.638 -95.9495
1.750000 80.962 -98.2659
1.775000 81.282 -100.5135
1.800000 81.597 -102.6823
1.825000 81.908 -104.7619
1.850000 82.214 -106.7454
1.875000 82.515 -108.6400
1.900000 82.811 -110.4547
1.925000 83.103 -112.1986
1.950000 83.390 -113.8803
1.975000 83.673 -115.5090
2.000000 83.951 -117.0934
2.030000 84.281 -118.9489
2.060000 84.604 -120.7688
2.090000 84.922 -122.5686
2.120000 85.236 -124.3637
2.140000 85.442 -125.5654
2.180000 85.848 -128.0012
2.200000 86.048 -129.2442
2.240000 86.440 -131.7361
2.270000 86.728 -133.5930
2.300000 87.010 -135.4389
2.330000 87.287 -137.2729
2.360000 87.559 -139.0942
2.400000 87.913 -141.5019
2.430000 88.174 -143.2911
2.470000 88.515 -145.6530
2.500000 88.765 -147.4059
2.540000 89.094 -149.7168
2.580000 89.415 -151.9969
2.620000 89.729 -154.2509
2.650000 89.959 -155.9247
2.690000 90.258 -158.1331
2.720000 90.477 -159.7716
2.760000 90.764 -161.9315
2.800000 91.043 -164.0624
2.850000 91.383 -166.6835
2.900000 91.714 -169.2558
2.950000 92.037 -171.7747
3.000000 92.348 -174.2224
3.040000 92.590 -176.1347
3.070000 92.767 -177.5472
3.110000 92.998 -179.4076
3.150000 93.223 178.7512
3.200000 93.496 176.4651
3.250000 93.761 174.1825
3.300000 94.019 171.8883
3.350000 94.268 169.5770
3.400000 94.509 167.2597
3.450000 94.740 164.9491
3.500000 94.964 162.6576
3.550000 95.181 160.3977
3.600000 95.390 158.1818
3.650000 95.593 156.0225
3.700000 95.790 153.9294
3.750000 95.979 151.8962
3.820000 96.231 149.1298
3.870000 96.403 147.1960
3.950000 96.665 144.1448
4.000000 96.822 142.2477
4.060000 97.004 139.9654
4.120000 97.176 137.6848
4.180000 97.340 135.4195
4.250000 97.521 132.8123
4.310000 97.669 130.6227
4.370000 97.810 128.4877
4.440000 97.967 126.0790
4.500000 98.094 124.0779
4.550000 98.194 122.4484
4.620000 98.328 120.2151
4.680000 98.436 118.3361
4.750000 98.557 116.1730
4.820000 98.671 114.0364
4.870000 98.748 112.5324
4.940000 98.850 110.4609
5.000000 98.932 108.7194
5.080000 99.036 106.4504
5.150000 99.123 104.5187
5.220000 99.204 102.6404
5.300000 99.290 100.5533
5.380000 99.371 98.5208
5.450000 99.437 96.7799
5.520000 99.501 95.0691
5.600000 99.570 93.1603
5.700000 99.649 90.8406
5.800000 99.722 88.5831
5.900000 99.790 86.3776
6.000000 99.853 84.2318
6.080000 99.900 82.5560
6.150000 99.938 81.1160
6.220000 99.974 79.6981
6.300000 100.012 78.1067
6.400000 100.056 76.1646
6.500000 100.095 74.2656
6.600000 100.129 72.3999
6.700000 100.159 70.5661
6.800000 100.184 68.7683
6.900000 100.204 67.0078
7.000000 100.219 65.2859
7.100000 100.230 63.6028
7.200000 100.236 61.9572
7.300000 100.238 60.3478
7.400000 100.235 58.7730
7.500000 100.228 57.2330
7.620000 100.214 55.4353
7.750000 100.193 53.5547
7.880000 100.165 51.7429
8.000000 100.136 50.1296
8.120000 100.103 48.5729
8.250000 100.063 46.9515
8.380000 100.021 45.3933
8.500000 99.980 44.0093
8.620000 99.938 42.6800
8.750000 99.892 41.2922
8.850000 99.856 40.2573
9.000000 99.803 38.7648
9.120000 99.761 37.6108
9.250000 99.717 36.3931
9.380000 99.675 35.2139
9.500000 99.635 34.1503
9.620000 99.594 33.1064
9.750000 99.548 32.0014
9.880000 99.496 30.9167
10.000000 99.440 29.9306
10.150000 99.361 28.7214
10.300000 99.276 27.5389
10.440000 99.188 26.4581
10.600000 99.083 25.2545
10.750000 98.985 24.1591
10.900000 98.885 23.0957
11.060000 98.779 22.0032
11.200000 98.687 21.0822
11.380000 98.568 19.9458
11.500000 98.488 19.2192
11.720000 98.345 17.9456
11.800000 98.294 17.4999
12.060000 98.135 16.1144
12.200000 98.053 15.4009
12.410000 97.935 14.3727
12.500000 97.885 13.9448
12.650000 97.802 13.2492
12.800000 97.721 12.5753
13.150000 97.532 11.0845
13.200000 97.506 10.8812
13.400000 97.402 10.0928
13.600000 97.301 9.3416
13.800000 97.204 8.6277
14.000000 97.109 7.9427
14.300000 96.972 6.9639
14.500000 96.883 6.3336
14.750000 96.773 5.5654
15.000000 96.666 4.8179
15.250000 96.559 4.0958
15.500000 96.453 3.4106
15.750000 96.347 2.7687
16.000000 96.240 2.1787
16.250000 96.135 1.6368
16.500000 96.034 1.1372
16.750000 95.937 0.6688
17.000000 95.845 0.2179
17.250000 95.756 -0.2195
17.500000 95.669 -0.6475
17.750000 95.583 -1.0590
18.000000 95.496 -1.4479
18.250000 95.409 -1.8071
18.500000 95.323 -2.1316
18.750000 95.241 -2.4247
19.000000 95.163 -2.6895
19.250000 95.090 -2.9366
19.500000 95.022 -3.1724
19.750000 94.957 -3.4017
20.000000 94.894 -3.6277
20.299999 94.820 -3.8917
20.600000 94.747 -4.1453
20.900000 94.676 -4.3853
21.200001 94.605 -4.6105
21.400000 94.558 -4.7529
21.799999 94.465 -5.0187
22.000000 94.418 -5.1410
22.400000 94.326 -5.3608
22.700001 94.258 -5.5020
23.000000 94.192 -5.6238
23.299999 94.128 -5.7311
23.600000 94.066 -5.8288
24.000000 93.987 -5.9491
24.299999 93.930 -6.0310
24.700001 93.856 -6.1248
25.000000 93.803 -6.1829
25.400000 93.737 -6.2512
25.799999 93.675 -6.3234
26.200001 93.616 -6.4077
26.500000 93.572 -6.4736
26.900000 93.514 -6.5505
27.200001 93.473 -6.5925
27.600000 93.423 -6.6308
28.000000 93.379 -6.6708
28.500000 93.330 -6.7550
29.000000 93.279 -6.8663
29.500000 93.223 -6.9506
30.000000 93.168 -6.9772
30.400000 93.128 -6.9790
30.700001 93.099 -6.9862
31.100000 93.059 -7.0048
31.500000 93.014 -7.0077
32.000000 92.954 -6.9352
32.500000 92.904 -6.7781
33.000000 92.871 -6.6346
33.500000 92.845 -6.6001
34.000000 92.809 -6.6567
34.500000 92.758 -6.6832
35.000000 92.706 -6.5999
35.500000 92.669 -6.4570
36.000000 92.650 -6.3779
36.500000 92.634 -6.4172
37.000000 92.607 -6.5122
37.500000 92.571 -6.5696
38.200001 92.528 -6.5557
38.700001 92.507 -6.5405
39.500000 92.477 -6.5414
40.000000 92.460 -6.5145
40.599998 92.448 -6.4691
41.200001 92.439 -6.4717
41.799999 92.422 -6.5042
42.500000 92.390 -6.4780
43.099998 92.366 -6.3931
43.700001 92.346 -6.3115
44.400002 92.324 -6.2433
45.000000 92.305 -6.2056
45.500000 92.290 -6.2090
46.200001 92.266 -6.2693
46.799999 92.239 -6.3181
47.500000 92.212 -6.3236
48.200001 92.197 -6.3004
48.700001 92.193 -6.2828
49.400002 92.195 -6.2704
50.000000 92.198 -6.2772
50.799999 92.194 -6.2570
51.500000 92.186 -6.1711
52.200001 92.176 -6.0633
53.000000 92.154 -5.9342
53.799999 92.126 -5.8164
54.500000 92.096 -5.7794
55.200001 92.064 -5.7990
56.000000 92.036 -5.9684
57.000000 91.997 -6.4420
58.000000 92.000 -7.0417
59.000000 91.988 -8.5480
60.000000 91.730 -9.3481
60.799999 91.598 -8.0929
61.500000 91.697 -6.9146
62.200001 91.847 -6.5865
63.000000 91.935 -6.6281
64.000000 91.984 -6.4503
65.000000 92.005 -6.2974
66.000000 91.986 -6.1605
67.000000 91.946 -6.0568
68.000000 91.900 -5.9814
69.000000 91.865 -5.9631
70.000000 91.846 -5.9784
71.000000 91.851 -6.0422
72.000000 91.859 -6.2064
73.000000 91.852 -6.3216
74.000000 91.843 -6.3240
75.000000 91.836 -6.2897
76.199997 91.823 -6.2786
77.500000 91.801 -6.2883
78.800003 91.775 -6.2777
80.000000 91.761 -6.2320
81.199997 91.755 -6.2322
82.500000 91.746 -6.2313
83.800003 91.742 -6.2505
85.000000 91.731 -6.3218
86.199997 91.717 -6.3613
87.500000 91.703 -6.4139
88.500000 91.688 -6.4234
90.000000 91.677 -6.3619
91.199997 91.678 -6.3711
92.500000 91.670 -6.4677
93.800003 91.650 -6.5630
95.000000 91.633 -6.6226
96.199997 91.617 -6.6850
97.500000 91.600 -6.7198
98.800003 91.589 -6.7107
100.000000 91.577 -6.6912
101.500000 91.551 -6.5941
103.000000 91.529 -6.3911
104.400002 91.524 -6.2722
106.000000 91.525 -6.3162
107.500000 91.515 -6.4247
109.000000 91.503 -6.4006
110.599998 91.497 -6.2684
112.000000 91.482 -6.1255
113.800003 91.454 -5.9757
115.000000 91.437 -6.0140
117.199997 91.421 -6.3099
118.000000 91.429 -6.4702
120.599998 91.416 -6.9384
122.000000 91.382 -6.6142
124.099998 91.369 -5.9593
125.000000 91.357 -5.7638
126.500000 91.333 -5.5173
128.000000 91.321 -5.4121
131.500000 91.308 -5.4315
132.000000 91.305 -5.4155
134.000000 91.295 -5.3055
136.000000 91.293 -5.2400
138.000000 91.288 -5.2280
140.000000 91.280 -5.1115
143.000000 91.271 -4.9268
145.000000 91.257 -4.9041
147.500000 91.249 -4.8976
150.000000 91.246 -4.8141
152.500000 91.228 -4.6888
155.000000 91.215 -4.5549
157.500000 91.229 -4.5054
160.000000 91.240 -4.4771
162.500000 91.220 -4.3939
165.000000 91.203 -4.2390
167.500000 91.209 -4.1794
170.000000 91.209 -4.1390
172.500000 91.207 -4.0538
175.000000 91.211 -3.9907
177.500000 91.210 -3.8553
180.000000 91.206 -3.6528
182.500000 91.181 -3.6638
185.000000 91.141 -3.7112
187.500000 91.121 -3.6969
190.000000 91.111 -3.6193
192.500000 91.109 -3.5687
195.000000 91.108 -3.5624
197.500000 91.103 -3.4785
200.000000 91.088 -3.3262
203.000000 91.081 -3.2229
206.000000 91.095 -3.2655
209.000000 91.106 -3.2432
212.000000 91.099 -3.1603
214.000000 91.094 -3.1209
218.000000 91.104 -3.1453
220.000000 91.107 -3.1512
224.000000 91.109 -3.0726
227.000000 91.117 -3.0460
230.000000 91.115 -3.0509
233.000000 91.104 -3.0685
236.000000 91.095 -3.0399
240.000000 91.108 -2.8029
243.000000 91.098 -2.6825
247.000000 91.064 -2.6690
250.000000 91.063 -2.7317
254.000000 91.056 -2.7050
258.000000 91.042 -2.5759
262.000000 91.060 -2.5646
265.000000 91.074 -2.5859
269.000000 91.079 -2.6106
272.000000 91.081 -2.6013
276.000000 91.093 -2.5647
280.000000 91.094 -2.5529
285.000000 91.067 -2.6508
290.000000 91.061 -2.6403
295.000000 91.075 -2.6473
300.000000 91.060 -2.6451
304.000000 91.067 -2.5202
307.000000 91.077 -2.3773
311.000000 91.083 -2.2479
315.000000 91.090 -2.1930
320.000000 91.108 -2.1442
325.000000 91.120 -2.1386
330.000000 91.124 -2.1273
335.000000 91.135 -2.1335
340.000000 91.155 -2.1760
345.000000 91.174 -2.2141
350.000000 91.183 -2.2867
355.000000 91.193 -2.4037
360.000000 91.206 -2.5718
365.000000 91.190 -2.6672
370.000000 91.169 -2.7101
375.000000 91.154 -2.7605
382.000000 91.137 -2.8775
387.000000 91.125 -2.9294
395.000000 91.085 -2.9624
400.000000 91.061 -2.9827
406.000000 91.043 -3.0024
412.000000 91.028 -3.0312
418.000000 91.011 -2.9236
425.000000 90.988 -2.8346
431.000000 90.965 -2.9293
437.000000 90.941 -2.9722
444.000000 90.915 -2.9038
450.000000 90.896 -2.8080
455.000000 90.882 -2.7589
462.000000 90.863 -2.7114
468.000000 90.844 -2.5732
475.000000 90.824 -2.2941
482.000000 90.806 -1.9521
487.000000 90.794 -1.7229
494.000000 90.776 -1.4568
500.000000 90.763 -1.2314
508.000000 90.744 -0.8325
515.000000 90.727 -0.4166
522.000000 90.717 -0.0227
530.000000 90.709 0.3685
538.000000 90.706 0.8049
545.000000 90.696 1.1826
552.000000 90.678 1.5305
560.000000 90.660 1.9478
570.000000 90.652 2.4590
580.000000 90.635 3.0214
590.000000 90.625 3.6054
600.000000 90.617 4.1719
608.000000 90.613 4.6219
615.000000 90.616 4.9984
622.000000 90.615 5.3568
630.000000 90.608 5.7357
640.000000 90.597 6.1583
650.000000 90.581 6.4586
660.000000 90.571 6.6556
670.000000 90.574 6.9277
680.000000 90.573 7.2467
690.000000 90.562 7.5562
700.000000 90.552 7.8522
710.000000 90.549 8.1736
720.000000 90.546 8.4924
730.000000 90.544 8.7462
740.000000 90.547 8.9902
750.000000 90.553 9.2675
762.000000 90.556 9.6373
775.000000 90.556 10.0815
788.000000 90.562 10.4919
800.000000 90.561 10.8611
812.000000 90.557 11.2656
825.000000 90.559 11.6669
838.000000 90.574 12.0598
850.000000 90.588 12.4803
862.000000 90.598 12.9055
875.000000 90.610 13.3529
885.000000 90.622 13.7040
900.000000 90.644 14.2398
912.000000 90.671 14.6312
925.000000 90.704 15.0012
938.000000 90.731 15.3944
950.000000 90.760 15.7794
962.000000 90.790 16.1812
975.000000 90.827 16.5911
988.000000 90.868 16.9470
1000.000000 90.904 17.2583
1015.000000 90.950 17.6493
1030.000000 91.001 18.0241
1044.000000 91.052 18.3203
1060.000000 91.105 18.6025
1075.000000 91.155 18.8795
1090.000000 91.214 19.1469
1106.000000 91.288 19.3773
1120.000000 91.357 19.5466
1138.000000 91.445 19.7419
1150.000000 91.504 19.8667
1172.000000 91.606 20.0686
1180.000000 91.641 20.1266
1206.000000 91.757 20.3192
1220.000000 91.816 20.4043
1241.000000 91.901 20.4921
1250.000000 91.939 20.5112
1265.000000 92.005 20.5400
1280.000000 92.070 20.5977
1315.000000 92.217 20.7686
1320.000000 92.236 20.7887
1340.000000 92.299 20.8652
1360.000000 92.338 20.9369
1380.000000 92.381 21.0175
1400.000000 92.437 21.0997
1430.000000 92.526 21.2623
1450.000000 92.582 21.3849
1475.000000 92.654 21.5474
1500.000000 92.733 21.7348
1525.000000 92.812 21.9814
1550.000000 92.888 22.2156
1575.000000 92.962 22.4200
1600.000000 93.040 22.6489
1625.000000 93.120 22.9240
1650.000000 93.202 23.1905
1675.000000 93.294 23.4662
1700.000000 93.394 23.7420
1725.000000 93.496 23.9993
1750.000000 93.602 24.2205
1775.000000 93.711 24.4384
1800.000000 93.821 24.6593
1825.000000 93.941 24.8604
1850.000000 94.071 25.0277
1875.000000 94.204 25.1526
1900.000000 94.338 25.2672
1925.000000 94.476 25.3573
1950.000000 94.620 25.3637
1975.000000 94.765 25.3071
2000.000000 94.913 25.2343
2030.000000 95.091 25.1019
2060.000000 95.271 24.9630
2090.000000 95.458 24.9188
2120.000000 95.643 24.9503
2140.000000 95.760 24.9683
2180.000000 95.986 24.9149
2200.000000 96.096 24.8444
2240.000000 96.306 24.6751
2270.000000 96.455 24.5204
2300.000000 96.598 24.3141
2330.000000 96.735 24.0690
2360.000000 96.864 23.8152
2400.000000 97.026 23.4720
2430.000000 97.143 23.2190
2470.000000 97.294 22.8738
2500.000000 97.406 22.6254
2540.000000 97.553 22.2932
2580.000000 97.699 21.9258
2620.000000 97.842 21.5235
2650.000000 97.947 21.1918
2690.000000 98.080 20.7094
2720.000000 98.173 20.3115
2760.000000 98.291 19.6560
2800.000000 98.401 18.7341
2850.000000 98.519 17.2435
2900.000000 98.624 15.6102
2950.000000 98.709 13.9471
3000.000000 98.775 12.2738
3040.000000 98.816 10.9398
3070.000000 98.840 9.9463
3110.000000 98.865 8.6375
3150.000000 98.884 7.3534
3200.000000 98.897 5.7863
3250.000000 98.900 4.2575
3300.000000 98.893 2.7665
3350.000000 98.876 1.3362
3400.000000 98.852 -0.0187
3450.000000 98.828 -1.2783
3500.000000 98.812 -2.4393
3550.000000 98.808 -3.5341
3600.000000 98.819 -4.6183
3650.000000 98.842 -5.7718
3700.000000 98.868 -7.0256
3750.000000 98.887 -8.3726
3820.000000 98.888 -10.3549
3870.000000 98.873 -11.7770
3950.000000 98.823 -14.0182
4000.000000 98.783 -15.4003
4060.000000 98.731 -17.0437
4120.000000 98.672 -18.6799
4180.000000 98.604 -20.3094
4250.000000 98.512 -22.1779
4310.000000 98.423 -23.7633
4370.000000 98.321 -25.3439
4440.000000 98.188 -27.1908
4500.000000 98.062 -28.7676
4550.000000 97.949 -30.0669
4620.000000 97.777 -31.8681
4680.000000 97.617 -33.3883
4750.000000 97.412 -35.1072
4820.000000 97.187 -36.7482
4870.000000 97.016 -37.8622
4940.000000 96.760 -39.3156
5000.000000 96.531 -40.4461
5080.000000 96.214 -41.7522
5150.000000 95.933 -42.6655
5220.000000 95.655 -43.3567
5300.000000 95.353 -43.8716
5380.000000 95.084 -44.1514
5450.000000 94.885 -44.2885
5520.000000 94.717 -44.4243
5600.000000 94.553 -44.6468
5700.000000 94.370 -45.0513
5800.000000 94.205 -45.5734
5900.000000 94.048 -46.1628
6000.000000 93.896 -46.8069
6080.000000 93.777 -47.3362
6150.000000 93.675 -47.7906
6220.000000 93.576 -48.2258
6300.000000 93.467 -48.6932
6400.000000 93.342 -49.2602
6500.000000 93.232 -49.8337
6600.000000 93.135 -50.4147
6700.000000 93.052 -50.9998
6800.000000 92.991 -51.6094
6900.000000 92.962 -52.2568
7000.000000 92.970 -52.9454
7100.000000 93.005 -53.6539
7200.000000 93.064 -54.3942
7300.000000 93.154 -55.1954
7400.000000 93.279 -56.0911
7500.000000 93.448 -57.1668
7620.000000 93.739 -58.8975
7750.000000 94.168 -61.8044
7880.000000 94.561 -66.6178
8000.000000 94.731 -73.2258
8120.000000 94.526 -81.1833
8250.000000 93.796 -89.1017
8380.000000 92.705 -94.2944
8500.000000 91.625 -96.5034
8620.000000 90.644 -96.9989
8750.000000 89.748 -96.5020
8850.000000 89.168 -95.7646
9000.000000 88.436 -94.2393
9120.000000 87.940 -92.0921
9250.000000 87.481 -88.1478
9380.000000 87.079 -83.1409
9500.000000 86.748 -78.2015
9620.000000 86.461 -73.1487
9750.000000 86.208 -67.6353
9880.000000 86.029 -62.1334
10000.000000 85.930 -57.1202
10150.000000 85.874 -51.1142
10300.000000 85.879 -45.6381
10440.000000 85.913 -41.1538
10600.000000 85.931 -36.8469
10750.000000 85.862 -33.5297
10900.000000 85.661 -30.5902
11060.000000 85.278 -27.3207
11200.000000 84.819 -23.9026
11380.000000 84.127 -18.4142
11500.000000 83.644 -14.0453
11720.000000 82.785 -4.8103
11800.000000 82.486 -1.1279
12060.000000 81.552 11.7153
12200.000000 81.072 18.6952
12410.000000 80.371 27.7916
12500.000000 80.088 31.3724
12650.000000 79.695 37.7356
12800.000000 79.480 44.9981
13150.000000 80.163 64.1326
13200.000000 80.423 66.7379
13400.000000 81.788 75.7482
13600.000000 83.498 81.8281
13800.000000 85.386 84.8025
14000.000000 87.391 84.8641
14300.000000 90.650 79.1042
14500.000000 92.873 69.4398
14750.000000 94.919 46.5993
15000.000000 94.975 14.7629
15250.000000 92.777 -10.4362
15500.000000 89.395 -21.2262
15750.000000 86.110 -21.7128
16000.000000 83.512 -16.5894
16250.000000 81.680 -8.4586
16500.000000 80.592 1.0975
16750.000000 80.209 10.9094
17000.000000 80.431 19.7716
17250.000000 81.207 25.7407
17500.000000 82.576 13.8237
17750.000000 84.464 -93.9016
18000.000000 86.476 -19.5862
18250.000000 88.033 96.4253
18500.000000 88.651 10.8837
18750.000000 87.962 -18.6492
19000.000000 86.119 -34.3728
19250.000000 83.691 -42.0948
19500.000000 81.159 -45.9681
19750.000000 78.839 -57.8922
20000.000000 76.740 -116.5774
20300.000000 74.082 54.9797
20600.000000 70.970 166.6549
20900.000000 67.745 -83.6255
21200.000000 64.467 -64.6323
21400.000000 62.147 115.0164
21800.000000 57.373 116.7256
22000.000000 55.506 -4.6709
22400.000000 53.786 12.9551
22700.000000 53.009 110.8809
23000.000000 52.056 136.2344
23300.000000 51.325 177.2891
23600.000000 51.063 -176.3828
24000.000000 50.925 78.8828
