* Measurement data measured by REW V5.20.13
* Source: Input device not selected, no input selected, L, volume: no control. Timing signal peak level -37.4 dBFS, measurement signal peak level -27.9 dBFS
* Format: 2M Log Swept Sine, 1 sweep at -12.0 dBFS using an acoustic timing reference
* Dated: Aug 9, 2023 4:58:21 PM
* REW Settings:
*  C-weighting compensation: Off
*  Target level: 75.0 dB
* Note: ; Delay -0.0536 ms (-18 mm, -0.72 in) using estimated IR delay relative to Acoustic reference played from HEADPHONE L with no timing offset Clock adjustment: -17.2 ppm
* Measurement: Space Travel Basshead L
* Smoothing: 1/24 octave
* Frequency Step: 1/48 octave
* Start Frequency: 1.000 Hz
*
* Freq(Hz) SPL(dB) Phase(degrees)
1.000000 54.177 -58.3377
1.015000 54.335 -59.6861
1.030000 54.494 -61.0128
1.044000 54.645 -62.2280
1.060000 54.819 -63.5850
1.075000 54.984 -64.8225
1.090000 55.150 -66.0222
1.106000 55.329 -67.2589
1.120000 55.489 -68.3206
1.138000 55.701 -69.6638
1.150000 55.845 -70.5462
1.172000 56.115 -72.1386
1.180000 56.214 -72.7100
1.206000 56.545 -74.5406
1.220000 56.726 -75.5107
1.241000 57.002 -76.9475
1.250000 57.121 -77.5569
1.265000 57.322 -78.5649
1.280000 57.524 -79.5641
1.315000 57.999 -81.8656
1.320000 58.068 -82.1915
1.340000 58.342 -83.4889
1.360000 58.616 -84.7780
1.380000 58.890 -86.0610
1.400000 59.163 -87.3399
1.430000 59.570 -89.2548
1.450000 59.838 -90.5322
1.475000 60.170 -92.1324
1.500000 60.503 -93.7292
1.525000 60.839 -95.3193
1.550000 61.177 -96.9009
1.575000 61.516 -98.4727
1.600000 61.856 -100.0328
1.625000 62.196 -101.5797
1.650000 62.536 -103.1118
1.675000 62.874 -104.6274
1.700000 63.211 -106.1250
1.725000 63.546 -107.6029
1.750000 63.877 -109.0595
1.775000 64.205 -110.4932
1.800000 64.528 -111.9024
1.825000 64.847 -113.2855
1.850000 65.161 -114.6393
1.875000 65.472 -115.9609
1.900000 65.782 -117.2531
1.925000 66.089 -118.5187
1.950000 66.393 -119.7608
1.975000 66.695 -120.9823
2.000000 66.995 -122.1861
2.030000 67.350 -123.6114
2.060000 67.701 -125.0206
2.090000 68.048 -126.4188
2.120000 68.390 -127.8110
2.140000 68.615 -128.7383
2.180000 69.060 -130.5978
2.200000 69.279 -131.5329
2.240000 69.710 -133.3970
2.270000 70.028 -134.7840
2.300000 70.341 -136.1620
2.330000 70.650 -137.5313
2.360000 70.955 -138.8922
2.400000 71.354 -140.6944
2.430000 71.648 -142.0372
2.470000 72.034 -143.8166
2.500000 72.319 -145.1432
2.540000 72.692 -146.9024
2.580000 73.058 -148.6509
2.620000 73.416 -150.3870
2.650000 73.680 -151.6808
2.690000 74.024 -153.3949
2.720000 74.278 -154.6722
2.760000 74.610 -156.3645
2.800000 74.935 -158.0446
2.850000 75.332 -160.1277
2.900000 75.720 -162.1922
2.950000 76.098 -164.2376
3.000000 76.466 -166.2599
3.040000 76.752 -167.8619
3.070000 76.962 -169.0552
3.110000 77.237 -170.6362
3.150000 77.506 -172.2074
3.200000 77.834 -174.1594
3.250000 78.154 -176.1009
3.300000 78.466 -178.0347
3.350000 78.770 -179.9629
3.400000 79.064 178.1164
3.450000 79.349 176.2065
3.500000 79.626 174.3108
3.550000 79.895 172.4324
3.600000 80.157 170.5746
3.650000 80.413 168.7408
3.700000 80.661 166.9328
3.750000 80.902 165.1483
3.820000 81.226 162.6853
3.870000 81.450 160.9486
3.950000 81.794 158.2037
4.000000 82.002 156.5061
4.060000 82.245 154.4842
4.120000 82.478 152.4797
4.180000 82.702 150.4955
4.250000 82.953 148.2102
4.310000 83.160 146.2803
4.370000 83.361 144.3803
4.440000 83.588 142.2045
4.500000 83.774 140.3730
4.550000 83.923 138.8688
4.620000 84.125 136.7937
4.680000 84.292 135.0414
4.750000 84.480 133.0244
4.820000 84.662 131.0365
4.870000 84.787 129.6363
4.940000 84.955 127.7033
5.000000 85.093 126.0716
5.080000 85.272 123.9316
5.150000 85.423 122.0923
5.220000 85.568 120.2869
5.300000 85.726 118.2631
5.380000 85.877 116.2772
5.450000 86.005 114.5675
5.520000 86.128 112.8814
5.600000 86.264 110.9882
5.700000 86.425 108.6704
5.800000 86.577 106.4006
5.900000 86.723 104.1735
6.000000 86.861 101.9933
6.080000 86.965 100.2816
6.150000 87.054 98.8056
6.220000 87.139 97.3484
6.300000 87.232 95.7071
6.400000 87.342 93.6931
6.500000 87.446 91.7173
6.600000 87.545 89.7761
6.700000 87.638 87.8695
6.800000 87.724 85.9987
6.900000 87.806 84.1625
7.000000 87.882 82.3599
7.100000 87.954 80.5924
7.200000 88.020 78.8586
7.300000 88.082 77.1563
7.400000 88.140 75.4847
7.500000 88.193 73.8450
7.620000 88.251 71.9178
7.750000 88.309 69.8775
7.880000 88.360 67.8883
8.000000 88.402 66.0946
8.120000 88.440 64.3386
8.250000 88.476 62.4808
8.380000 88.506 60.6668
8.500000 88.531 59.0292
8.620000 88.551 57.4283
8.750000 88.568 55.7332
8.850000 88.579 54.4561
9.000000 88.591 52.5854
9.120000 88.597 51.1258
9.250000 88.601 49.5806
9.380000 88.600 48.0736
9.500000 88.597 46.7142
9.620000 88.592 45.3846
9.750000 88.584 43.9785
9.880000 88.573 42.6046
10.000000 88.562 41.3641
10.150000 88.544 39.8513
10.300000 88.524 38.3756
10.440000 88.503 37.0323
10.600000 88.475 35.5350
10.750000 88.447 34.1656
10.900000 88.416 32.8302
11.060000 88.380 31.4425
11.200000 88.345 30.2592
11.380000 88.298 28.7813
11.500000 88.265 27.8234
11.720000 88.199 26.1240
11.800000 88.175 25.5246
12.060000 88.091 23.6432
12.200000 88.044 22.6708
12.410000 87.972 21.2643
12.500000 87.941 20.6782
12.650000 87.888 19.7252
12.800000 87.834 18.7983
13.150000 87.706 16.7291
13.200000 87.688 16.4436
13.400000 87.612 15.3266
13.600000 87.535 14.2500
13.800000 87.456 13.2137
14.000000 87.376 12.2194
14.300000 87.253 10.8071
14.500000 87.171 9.9186
14.750000 87.068 8.8625
15.000000 86.966 7.8638
15.250000 86.865 6.9138
15.500000 86.764 6.0075
15.750000 86.665 5.1422
16.000000 86.565 4.3163
16.250000 86.466 3.5325
16.500000 86.367 2.7917
16.750000 86.269 2.0958
17.000000 86.172 1.4424
17.250000 86.078 0.8281
17.500000 85.986 0.2487
17.750000 85.896 -0.3022
18.000000 85.809 -0.8264
18.250000 85.723 -1.3258
18.500000 85.639 -1.7992
18.750000 85.556 -2.2450
19.000000 85.475 -2.6620
19.250000 85.395 -3.0499
19.500000 85.318 -3.4111
19.750000 85.244 -3.7475
20.000000 85.172 -4.0630
20.299999 85.089 -4.4163
20.600000 85.010 -4.7436
20.900000 84.934 -5.0452
21.200001 84.861 -5.3217
21.400000 84.815 -5.4941
21.799999 84.728 -5.8176
22.000000 84.687 -5.9724
22.400000 84.610 -6.2749
22.700001 84.555 -6.4962
23.000000 84.502 -6.7094
23.299999 84.451 -6.9118
23.600000 84.403 -7.1047
24.000000 84.343 -7.3557
24.299999 84.302 -7.5489
24.700001 84.250 -7.8206
25.000000 84.211 -8.0314
25.400000 84.159 -8.3080
25.799999 84.107 -8.5634
26.200001 84.059 -8.7957
26.500000 84.026 -8.9636
26.900000 83.986 -9.1915
27.200001 83.958 -9.3686
27.600000 83.923 -9.6078
28.000000 83.889 -9.8428
28.500000 83.851 -10.1368
29.000000 83.819 -10.4600
29.500000 83.784 -10.8177
30.000000 83.743 -11.1628
30.400000 83.709 -11.3961
30.700001 83.687 -11.5472
31.100000 83.664 -11.7456
31.500000 83.647 -11.9745
32.000000 83.626 -12.3234
32.500000 83.597 -12.7004
33.000000 83.563 -13.0452
33.500000 83.531 -13.3539
34.000000 83.505 -13.6711
34.500000 83.480 -14.0223
35.000000 83.450 -14.3861
35.500000 83.417 -14.7318
36.000000 83.385 -15.0602
36.500000 83.355 -15.3904
37.000000 83.323 -15.7256
37.500000 83.291 -16.0524
38.200001 83.248 -16.4946
38.700001 83.218 -16.8171
39.500000 83.168 -17.3364
40.000000 83.136 -17.6437
40.599998 83.102 -18.0116
41.200001 83.069 -18.4111
41.799999 83.030 -18.8259
42.500000 82.978 -19.2709
43.099998 82.934 -19.6116
43.700001 82.892 -19.9378
44.400002 82.844 -20.3092
45.000000 82.805 -20.6248
45.500000 82.772 -20.8953
46.200001 82.723 -21.2779
46.799999 82.679 -21.5881
47.500000 82.630 -21.9404
48.200001 82.583 -22.3230
48.700001 82.547 -22.6132
49.400002 82.490 -23.0018
50.000000 82.439 -23.2891
50.799999 82.376 -23.6070
51.500000 82.330 -23.8610
52.200001 82.290 -24.1320
53.000000 82.243 -24.4766
53.799999 82.186 -24.8362
54.500000 82.127 -25.1190
55.200001 82.064 -25.3467
56.000000 81.995 -25.5851
57.000000 81.913 -25.9309
58.000000 81.830 -26.4500
59.000000 81.696 -27.0505
60.000000 81.547 -27.0717
60.799999 81.512 -26.9257
61.500000 81.516 -27.1204
62.200001 81.497 -27.5195
63.000000 81.449 -27.8900
64.000000 81.390 -28.1890
65.000000 81.333 -28.4362
66.000000 81.274 -28.6564
67.000000 81.207 -28.8926
68.000000 81.131 -29.0885
69.000000 81.058 -29.2720
70.000000 80.988 -29.4963
71.000000 80.916 -29.7473
72.000000 80.842 -29.9754
73.000000 80.772 -30.1670
74.000000 80.709 -30.3629
75.000000 80.644 -30.5770
76.199997 80.560 -30.8207
77.500000 80.466 -31.0367
78.800003 80.378 -31.2249
80.000000 80.302 -31.4149
81.199997 80.226 -31.6073
82.500000 80.144 -31.8059
83.800003 80.058 -31.9882
85.000000 79.980 -32.1164
86.199997 79.905 -32.2531
87.500000 79.823 -32.4240
88.500000 79.757 -32.5493
90.000000 79.658 -32.6813
91.199997 79.586 -32.7391
92.500000 79.515 -32.8042
93.800003 79.445 -32.8979
95.000000 79.375 -33.0154
96.199997 79.298 -33.1176
97.500000 79.215 -33.1957
98.800003 79.137 -33.2631
100.000000 79.070 -33.3276
101.500000 78.990 -33.4202
103.000000 78.906 -33.5156
104.400002 78.820 -33.5320
106.000000 78.730 -33.5128
107.500000 78.647 -33.5579
109.000000 78.561 -33.6269
110.599998 78.476 -33.6360
112.000000 78.412 -33.6222
113.800003 78.328 -33.5972
115.000000 78.267 -33.5714
117.199997 78.133 -33.6475
118.000000 78.074 -33.7025
120.599998 77.895 -33.6252
122.000000 77.854 -33.5873
124.099998 77.790 -33.6928
125.000000 77.755 -33.6718
126.500000 77.692 -33.5582
128.000000 77.626 -33.4169
131.500000 77.459 -33.2157
132.000000 77.437 -33.1883
134.000000 77.355 -33.0889
136.000000 77.277 -33.0437
138.000000 77.189 -33.0112
140.000000 77.100 -32.9223
143.000000 76.986 -32.7213
145.000000 76.909 -32.5873
147.500000 76.803 -32.4025
150.000000 76.698 -32.2373
152.500000 76.602 -32.0612
155.000000 76.521 -31.8588
157.500000 76.446 -31.6787
160.000000 76.367 -31.4684
162.500000 76.278 -31.1887
165.000000 76.191 -30.8666
167.500000 76.109 -30.6510
170.000000 76.027 -30.4441
172.500000 75.935 -30.2083
175.000000 75.836 -29.9955
177.500000 75.751 -29.9514
180.000000 75.669 -29.9042
182.500000 75.606 -29.5229
185.000000 75.563 -29.1286
187.500000 75.504 -28.8752
190.000000 75.442 -28.6611
192.500000 75.381 -28.4582
195.000000 75.316 -28.2239
197.500000 75.257 -27.9659
200.000000 75.205 -27.6691
203.000000 75.143 -27.2377
206.000000 75.077 -26.8787
209.000000 75.004 -26.5989
212.000000 74.941 -26.2473
214.000000 74.905 -25.9994
218.000000 74.828 -25.5166
220.000000 74.791 -25.2937
224.000000 74.726 -24.8759
227.000000 74.683 -24.5347
230.000000 74.628 -24.1608
233.000000 74.557 -23.7665
236.000000 74.493 -23.4180
240.000000 74.432 -22.9885
243.000000 74.397 -22.6115
247.000000 74.349 -22.2012
250.000000 74.316 -21.8640
254.000000 74.266 -21.3058
258.000000 74.202 -20.8269
262.000000 74.150 -20.3951
265.000000 74.122 -20.0412
269.000000 74.089 -19.5356
272.000000 74.061 -19.1476
276.000000 74.016 -18.6481
280.000000 73.980 -18.1605
285.000000 73.937 -17.5816
290.000000 73.886 -17.1160
295.000000 73.839 -16.5498
300.000000 73.801 -16.0490
304.000000 73.770 -15.6494
307.000000 73.752 -15.2762
311.000000 73.725 -14.7827
315.000000 73.687 -14.3879
320.000000 73.652 -13.9323
325.000000 73.634 -13.4893
330.000000 73.621 -13.0193
335.000000 73.610 -12.5770
340.000000 73.589 -12.1423
345.000000 73.576 -11.6755
350.000000 73.568 -11.2545
355.000000 73.564 -10.9254
360.000000 73.565 -10.5892
365.000000 73.561 -10.2424
370.000000 73.551 -9.9861
375.000000 73.539 -9.7302
382.000000 73.521 -9.3427
387.000000 73.512 -9.1324
395.000000 73.495 -8.7881
400.000000 73.488 -8.5560
406.000000 73.474 -8.2429
412.000000 73.455 -7.9310
418.000000 73.429 -7.6082
425.000000 73.402 -7.2602
431.000000 73.387 -7.0218
437.000000 73.372 -6.7701
444.000000 73.355 -6.4642
450.000000 73.340 -6.1946
455.000000 73.327 -5.9411
462.000000 73.314 -5.5850
468.000000 73.301 -5.3200
475.000000 73.282 -5.0043
482.000000 73.275 -4.6904
487.000000 73.269 -4.5137
494.000000 73.250 -4.2727
500.000000 73.235 -4.0179
508.000000 73.219 -3.6838
515.000000 73.204 -3.3714
522.000000 73.187 -3.0483
530.000000 73.169 -2.7278
538.000000 73.150 -2.4108
545.000000 73.134 -2.1223
552.000000 73.119 -1.8358
560.000000 73.101 -1.5156
570.000000 73.079 -1.1201
580.000000 73.066 -0.7244
590.000000 73.055 -0.2614
600.000000 73.037 0.1452
608.000000 73.024 0.3992
615.000000 73.009 0.6219
622.000000 72.993 0.8932
630.000000 72.976 1.2336
640.000000 72.954 1.6130
650.000000 72.928 2.0228
660.000000 72.907 2.4993
670.000000 72.888 2.8484
680.000000 72.869 3.1776
690.000000 72.856 3.5657
700.000000 72.843 4.0084
710.000000 72.829 4.4756
720.000000 72.819 4.8994
730.000000 72.805 5.3043
740.000000 72.793 5.7136
750.000000 72.783 6.1497
762.000000 72.773 6.7236
775.000000 72.764 7.3405
788.000000 72.756 7.9354
800.000000 72.749 8.4829
812.000000 72.742 9.0474
825.000000 72.743 9.6805
838.000000 72.754 10.3188
850.000000 72.766 10.9009
862.000000 72.779 11.4539
875.000000 72.788 12.0465
885.000000 72.800 12.5157
900.000000 72.835 13.2145
912.000000 72.865 13.7795
925.000000 72.896 14.4012
938.000000 72.926 15.0284
950.000000 72.953 15.5719
962.000000 72.987 16.0717
975.000000 73.031 16.5938
988.000000 73.073 17.1199
1000.000000 73.114 17.6210
1015.000000 73.174 18.2947
1030.000000 73.240 19.0549
1044.000000 73.304 19.7902
1060.000000 73.371 20.5867
1075.000000 73.432 21.2845
1090.000000 73.498 21.9282
1106.000000 73.578 22.5868
1120.000000 73.648 23.1432
1138.000000 73.728 23.8232
1150.000000 73.780 24.2572
1172.000000 73.876 25.0405
1180.000000 73.909 25.3191
1206.000000 74.009 26.2290
1220.000000 74.065 26.6942
1241.000000 74.145 27.3807
1250.000000 74.179 27.6686
1265.000000 74.236 28.1421
1280.000000 74.288 28.6093
1315.000000 74.396 29.7310
1320.000000 74.412 29.8914
1340.000000 74.474 30.4803
1360.000000 74.533 30.9221
1380.000000 74.589 31.2758
1400.000000 74.643 31.6233
1430.000000 74.726 32.1392
1450.000000 74.781 32.5148
1475.000000 74.852 33.0221
1500.000000 74.923 33.5516
1525.000000 74.996 34.0531
1550.000000 75.075 34.5743
1575.000000 75.157 35.1393
1600.000000 75.240 35.7090
1625.000000 75.326 36.2856
1650.000000 75.420 36.8954
1675.000000 75.522 37.5159
1700.000000 75.628 38.1302
1725.000000 75.738 38.7602
1750.000000 75.857 39.3904
1775.000000 75.984 40.0012
1800.000000 76.118 40.5958
1825.000000 76.262 41.1843
1850.000000 76.415 41.7568
1875.000000 76.573 42.2972
1900.000000 76.739 42.7916
1925.000000 76.915 43.2627
1950.000000 77.102 43.7082
1975.000000 77.297 44.0984
2000.000000 77.499 44.4254
2030.000000 77.750 44.7543
2060.000000 78.013 44.9872
2090.000000 78.285 45.0975
2120.000000 78.566 45.0925
2140.000000 78.757 45.0183
2180.000000 79.142 44.6664
2200.000000 79.334 44.3917
2240.000000 79.719 43.6642
2270.000000 80.005 42.9637
2300.000000 80.285 42.1324
2330.000000 80.558 41.1660
2360.000000 80.825 40.0496
2400.000000 81.164 38.3063
2430.000000 81.399 36.8254
2470.000000 81.673 34.6786
2500.000000 81.847 32.9869
2540.000000 82.041 30.6850
2580.000000 82.197 28.3825
2620.000000 82.316 26.1097
2650.000000 82.385 24.4455
2690.000000 82.451 22.2950
2720.000000 82.485 20.7439
2760.000000 82.514 18.7648
2800.000000 82.529 16.8780
2850.000000 82.529 14.6343
2900.000000 82.511 12.5237
2950.000000 82.477 10.5641
3000.000000 82.437 8.7332
3040.000000 82.403 7.3325
3070.000000 82.377 6.3138
3110.000000 82.340 5.0062
3150.000000 82.303 3.7507
3200.000000 82.254 2.2393
3250.000000 82.203 0.7747
3300.000000 82.150 -0.6434
3350.000000 82.097 -2.0125
3400.000000 82.043 -3.3359
3450.000000 81.986 -4.6252
3500.000000 81.928 -5.8826
3550.000000 81.866 -7.0993
3600.000000 81.800 -8.2645
3650.000000 81.732 -9.3694
3700.000000 81.666 -10.4108
3750.000000 81.607 -11.3872
3820.000000 81.543 -12.7130
3870.000000 81.513 -13.6949
3950.000000 81.475 -15.4017
4000.000000 81.448 -16.5522
4060.000000 81.411 -17.9971
4120.000000 81.366 -19.5062
4180.000000 81.308 -21.0615
4250.000000 81.222 -22.8987
4310.000000 81.133 -24.4385
4370.000000 81.026 -25.8029
4440.000000 80.893 -26.6699
4500.000000 80.781 -26.5985
4550.000000 80.680 -26.2314
4620.000000 80.528 -25.5842
4680.000000 80.384 -24.9722
4750.000000 80.203 -24.1704
4820.000000 80.005 -23.2626
4870.000000 79.853 -22.5389
4940.000000 79.628 -21.3917
5000.000000 79.427 -20.2759
5080.000000 79.151 -18.6003
5150.000000 78.905 -16.9154
5220.000000 78.655 -14.9843
5300.000000 78.380 -12.4505
5380.000000 78.134 -9.6069
5450.000000 77.953 -6.9341
5520.000000 77.809 -4.1716
5600.000000 77.685 -1.0182
5700.000000 77.572 2.8019
5800.000000 77.488 6.4135
5900.000000 77.420 9.5562
6000.000000 77.345 11.3379
6080.000000 77.275 11.7936
6150.000000 77.216 11.9424
6220.000000 77.157 12.0470
6300.000000 77.086 12.1729
6400.000000 76.996 12.3501
6500.000000 76.910 12.5814
6600.000000 76.832 12.8820
6700.000000 76.770 13.2146
6800.000000 76.728 13.5709
6900.000000 76.707 13.9457
7000.000000 76.711 14.3146
7100.000000 76.746 14.6639
7200.000000 76.820 14.9706
7300.000000 76.939 15.1808
7400.000000 77.111 15.2181
7500.000000 77.345 14.9683
7620.000000 77.724 13.9769
7750.000000 78.235 11.3692
7880.000000 78.719 6.2466
8000.000000 78.908 -0.9749
8120.000000 78.632 -9.3492
8250.000000 77.771 -17.0975
8380.000000 76.553 -21.6505
8500.000000 75.382 -23.1051
8620.000000 74.329 -22.7982
8750.000000 73.373 -21.3765
8850.000000 72.759 -19.9146
9000.000000 71.988 -17.5063
9120.000000 71.469 -15.5029
9250.000000 70.982 -13.3125
9380.000000 70.563 -11.1381
9500.000000 70.227 -9.1648
9620.000000 69.935 -7.2374
9750.000000 69.667 -5.2444
9880.000000 69.445 -3.3757
10000.000000 69.277 -1.7880
10150.000000 69.107 -0.0910
10300.000000 68.973 1.2113
10440.000000 68.856 2.0179
10600.000000 68.704 2.4330
10750.000000 68.515 2.4097
10900.000000 68.254 2.1577
11060.000000 67.879 1.8622
11200.000000 67.474 1.8409
11380.000000 66.875 2.3618
11500.000000 66.442 3.1016
11720.000000 65.626 5.3679
11800.000000 65.328 6.4974
12060.000000 64.354 11.1699
12200.000000 63.832 14.4006
12410.000000 63.080 20.6007
12500.000000 62.786 23.8593
12650.000000 62.381 30.1864
12800.000000 62.153 37.6336
13150.000000 62.850 57.4014
13200.000000 63.121 60.1067
13400.000000 64.551 69.4983
13600.000000 66.350 75.8293
13800.000000 68.339 78.9178
14000.000000 70.459 78.8497
14300.000000 73.866 72.0274
14500.000000 76.076 60.7854
14750.000000 77.861 35.5844
15000.000000 77.509 3.8391
15250.000000 75.049 -18.8419
15500.000000 71.648 -27.7595
15750.000000 68.432 -27.6328
16000.000000 65.862 -22.5598
16250.000000 64.003 -14.7701
16500.000000 62.828 -5.5950
16750.000000 62.309 3.8741
17000.000000 62.433 12.6620
17250.000000 63.155 19.9503
17500.000000 64.411 24.7229
17750.000000 66.114 25.2732
18000.000000 67.955 19.5345
18250.000000 69.266 5.8928
18500.000000 69.439 -13.9818
18750.000000 68.311 -32.9799
19000.000000 66.203 -45.5983
19250.000000 63.679 -51.4836
19500.000000 61.150 -52.2386
19750.000000 58.771 -48.8724
20000.000000 56.517 -42.7099
20300.000000 53.843 -33.8208
20600.000000 51.077 -24.5977
20900.000000 48.049 -17.3148
21200.000000 44.580 -35.0657
21400.000000 41.984 -138.2153
21800.000000 36.248 149.4707
22000.000000 33.420 77.1519
22400.000000 29.764 -101.7744
22700.000000 28.631 -159.4629
23000.000000 27.727 122.0195
23300.000000 27.098 -39.3672
23600.000000 26.980 -24.4453
24000.000000 27.034 139.5508
