* Measurement data measured by REW V5.20.13
* Source: Microphone (Realtek(R) Audio), MICROPHONE (Master Volume), L, volume: 0.710. Timing signal peak level -40.6 dBFS, measurement signal peak level -32.5 dBFS
* Format: 2M Log Swept Sine, 1 sweep at -12.0 dBFS using an acoustic timing reference
* Dated: Aug 11, 2023 9:03:42 AM
* REW Settings:
*  C-weighting compensation: Off
*  Target level: 75.0 dB
* Note: ; Delay -0.0363 ms (-12 mm, -0.49 in) using estimated IR delay relative to Acoustic reference played from HEADPHONE R with no timing offset Clock adjustment: -12.5 ppm
* Measurement: Space Travel R
* Smoothing: 1/24 octave
* Frequency Step: 1/48 octave
* Start Frequency: 1.000 Hz
*
* Freq(Hz) SPL(dB) Phase(degrees)
1.000000 64.892 -13.7456
1.015000 65.135 -15.8020
1.030000 65.378 -17.8148
1.044000 65.604 -19.6483
1.060000 65.862 -21.6832
1.075000 66.104 -23.5253
1.090000 66.346 -25.2972
1.106000 66.603 -27.1064
1.120000 66.829 -28.6420
1.138000 67.120 -30.5608
1.150000 67.315 -31.8074
1.172000 67.673 -34.0299
1.180000 67.804 -34.8191
1.206000 68.228 -37.3207
1.220000 68.457 -38.6309
1.241000 68.801 -40.5536
1.250000 68.948 -41.3633
1.265000 69.193 -42.6961
1.280000 69.438 -44.0100
1.315000 70.008 -47.0167
1.320000 70.089 -47.4409
1.340000 70.414 -49.1279
1.360000 70.737 -50.8039
1.380000 71.058 -52.4751
1.400000 71.378 -54.1475
1.430000 71.853 -56.6715
1.450000 72.167 -58.3733
1.475000 72.556 -60.5294
1.500000 72.944 -62.6940
1.525000 73.331 -64.8571
1.550000 73.716 -67.0146
1.575000 74.101 -69.1624
1.600000 74.483 -71.2964
1.625000 74.863 -73.4126
1.650000 75.240 -75.5067
1.675000 75.614 -77.5749
1.700000 75.985 -79.6130
1.725000 76.352 -81.6169
1.750000 76.715 -83.5825
1.775000 77.073 -85.5058
1.800000 77.426 -87.3826
1.825000 77.773 -89.2090
1.850000 78.115 -90.9798
1.875000 78.454 -92.6935
1.900000 78.787 -94.3551
1.925000 79.117 -95.9699
1.950000 79.443 -97.5432
1.975000 79.765 -99.0801
2.000000 80.082 -100.5860
2.030000 80.459 -102.3595
2.060000 80.829 -104.1049
2.090000 81.194 -105.8313
2.120000 81.554 -107.5479
2.140000 81.791 -108.6912
2.180000 82.258 -110.9876
2.200000 82.488 -112.1459
2.240000 82.940 -114.4532
2.270000 83.272 -116.1655
2.300000 83.598 -117.8628
2.330000 83.919 -119.5453
2.360000 84.234 -121.2136
2.400000 84.647 -123.4167
2.430000 84.950 -125.0536
2.470000 85.348 -127.2164
2.500000 85.641 -128.8242
2.540000 86.025 -130.9499
2.580000 86.401 -133.0554
2.620000 86.769 -135.1381
2.650000 87.038 -136.6849
2.690000 87.391 -138.7274
2.720000 87.649 -140.2447
2.760000 87.987 -142.2485
2.800000 88.318 -144.2309
2.850000 88.721 -146.6794
2.900000 89.114 -149.0962
2.950000 89.497 -151.4805
3.000000 89.869 -153.8214
3.040000 90.158 -155.6650
3.070000 90.369 -157.0331
3.110000 90.646 -158.8407
3.150000 90.916 -160.6328
3.200000 91.246 -162.8565
3.250000 91.566 -165.0687
3.300000 91.879 -167.2766
3.350000 92.182 -169.4826
3.400000 92.475 -171.6811
3.450000 92.759 -173.8665
3.500000 93.034 -176.0330
3.550000 93.300 -178.1749
3.600000 93.560 179.7135
3.650000 93.812 177.6380
3.700000 94.057 175.6028
3.750000 94.294 173.6051
3.820000 94.611 170.8618
3.870000 94.830 168.9339
3.950000 95.165 165.8906
4.000000 95.367 164.0068
4.060000 95.602 161.7577
4.120000 95.826 159.5244
4.180000 96.042 157.3130
4.250000 96.282 154.7686
4.310000 96.479 152.6249
4.370000 96.670 150.5217
4.440000 96.885 148.1253
4.500000 97.060 146.1174
4.550000 97.200 144.4734
4.620000 97.388 142.2115
4.680000 97.543 140.3048
4.750000 97.717 138.1121
4.820000 97.884 135.9516
4.870000 97.998 134.4314
4.940000 98.151 132.3361
5.000000 98.277 130.5709
5.080000 98.439 128.2622
5.150000 98.575 126.2851
5.220000 98.705 124.3518
5.300000 98.846 122.1924
5.380000 98.980 120.0800
5.450000 99.093 118.2650
5.520000 99.203 116.4774
5.600000 99.323 114.4758
5.700000 99.464 112.0324
5.800000 99.599 109.6444
5.900000 99.727 107.3032
6.000000 99.848 105.0155
6.080000 99.939 103.2218
6.150000 100.016 101.6759
6.220000 100.090 100.1494
6.300000 100.172 98.4300
6.400000 100.267 96.3216
6.500000 100.357 94.2530
6.600000 100.441 92.2180
6.700000 100.519 90.2159
6.800000 100.591 88.2492
6.900000 100.657 86.3185
7.000000 100.718 84.4245
7.100000 100.773 82.5669
7.200000 100.822 80.7455
7.300000 100.866 78.9604
7.400000 100.906 77.2112
7.500000 100.940 75.4977
7.620000 100.974 73.4904
7.750000 101.006 71.3785
7.880000 101.030 69.3320
8.000000 101.047 67.4981
8.120000 101.061 65.7151
8.250000 101.070 63.8435
8.380000 101.076 62.0280
8.500000 101.079 60.3981
8.620000 101.079 58.8156
8.750000 101.077 57.1460
8.850000 101.073 55.8892
9.000000 101.066 54.0540
9.120000 101.057 52.6219
9.250000 101.048 51.1011
9.380000 101.037 49.6151
9.500000 101.023 48.2711
9.620000 101.005 46.9515
9.750000 100.981 45.5510
9.880000 100.948 44.1812
10.000000 100.907 42.9432
10.150000 100.845 41.4326
10.300000 100.774 39.9683
10.440000 100.697 38.6426
10.600000 100.604 37.1787
10.750000 100.516 35.8589
10.900000 100.427 34.5887
11.060000 100.332 33.2878
11.200000 100.249 32.1968
11.380000 100.144 30.8486
11.500000 100.074 29.9843
11.720000 99.950 28.4597
11.800000 99.906 27.9209
12.060000 99.770 26.2260
12.200000 99.700 25.3375
12.410000 99.597 24.0370
12.500000 99.553 23.4889
12.650000 99.479 22.5875
12.800000 99.404 21.7048
13.150000 99.222 19.7247
13.200000 99.195 19.4540
13.400000 99.088 18.4003
13.600000 98.980 17.4048
13.800000 98.871 16.4727
14.000000 98.764 15.6022
14.300000 98.608 14.4064
14.500000 98.509 13.6691
14.750000 98.393 12.7881
15.000000 98.285 11.9377
15.250000 98.184 11.0925
15.500000 98.087 10.2489
15.750000 97.989 9.4084
16.000000 97.887 8.5833
16.250000 97.779 7.7966
16.500000 97.668 7.0618
16.750000 97.556 6.3969
17.000000 97.446 5.8051
17.250000 97.342 5.2804
17.500000 97.245 4.8128
17.750000 97.157 4.3759
18.000000 97.077 3.9532
18.250000 97.003 3.5270
18.500000 96.934 3.0836
18.750000 96.867 2.6250
19.000000 96.800 2.1538
19.250000 96.730 1.6873
19.500000 96.658 1.2419
19.750000 96.583 0.8308
20.000000 96.506 0.4708
20.299999 96.417 0.1077
20.600000 96.334 -0.1879
20.900000 96.259 -0.4363
21.200001 96.193 -0.6669
21.400000 96.153 -0.8248
21.799999 96.078 -1.1597
22.000000 96.040 -1.3351
22.400000 95.962 -1.6819
22.700001 95.902 -1.9154
23.000000 95.841 -2.1108
23.299999 95.783 -2.2715
23.600000 95.731 -2.4123
24.000000 95.668 -2.5986
24.299999 95.624 -2.7541
24.700001 95.565 -2.9807
25.000000 95.517 -3.1460
25.400000 95.450 -3.3280
25.799999 95.385 -3.4462
26.200001 95.330 -3.5179
26.500000 95.296 -3.5708
26.900000 95.261 -3.6793
27.200001 95.238 -3.8064
27.600000 95.206 -4.0345
28.000000 95.165 -4.2945
28.500000 95.103 -4.5854
29.000000 95.037 -4.7708
29.500000 94.981 -4.8555
30.000000 94.941 -4.9131
30.400000 94.919 -4.9930
30.700001 94.904 -5.0842
31.100000 94.883 -5.2361
31.500000 94.858 -5.3973
32.000000 94.823 -5.5743
32.500000 94.791 -5.7184
33.000000 94.762 -5.8578
33.500000 94.736 -6.0131
34.000000 94.708 -6.1718
34.500000 94.681 -6.3090
35.000000 94.659 -6.4264
35.500000 94.642 -6.5570
36.000000 94.625 -6.7250
36.500000 94.603 -6.9128
37.000000 94.577 -7.0767
37.500000 94.551 -7.1973
38.200001 94.524 -7.3530
38.700001 94.509 -7.5086
39.500000 94.473 -7.8073
40.000000 94.445 -7.9604
40.599998 94.414 -8.0920
41.200001 94.393 -8.2189
41.799999 94.379 -8.3877
42.500000 94.363 -8.6337
43.099998 94.350 -8.8586
43.700001 94.336 -9.0820
44.400002 94.320 -9.3225
45.000000 94.308 -9.4949
45.500000 94.300 -9.6185
46.200001 94.293 -9.7883
46.799999 94.286 -9.9465
47.500000 94.271 -10.1370
48.200001 94.246 -10.3056
48.700001 94.224 -10.3989
49.400002 94.192 -10.5034
50.000000 94.166 -10.6083
50.799999 94.134 -10.8077
51.500000 94.109 -11.0398
52.200001 94.086 -11.3357
53.000000 94.061 -11.7046
53.799999 94.047 -12.0435
54.500000 94.043 -12.3466
55.200001 94.036 -12.5701
56.000000 94.043 -12.6150
57.000000 94.070 -12.6254
58.000000 94.084 -12.1692
59.000000 94.253 -11.7222
60.000000 94.360 -13.1230
60.799999 94.198 -14.2158
61.500000 94.012 -14.2391
62.200001 93.906 -13.9760
63.000000 93.839 -13.9855
64.000000 93.759 -14.2402
65.000000 93.705 -14.5977
66.000000 93.663 -15.0234
67.000000 93.633 -15.3848
68.000000 93.611 -15.6650
69.000000 93.590 -15.8677
70.000000 93.561 -16.0335
71.000000 93.524 -16.1569
72.000000 93.484 -16.2715
73.000000 93.447 -16.4296
74.000000 93.410 -16.6469
75.000000 93.375 -16.8842
76.199997 93.338 -17.1900
77.500000 93.293 -17.5348
78.800003 93.239 -17.8268
80.000000 93.180 -18.0400
81.199997 93.127 -18.1526
82.500000 93.089 -18.3140
83.800003 93.056 -18.5713
85.000000 93.016 -18.8350
86.199997 92.970 -19.0238
87.500000 92.921 -19.1803
88.500000 92.883 -19.2911
90.000000 92.831 -19.5006
91.199997 92.786 -19.7249
92.500000 92.738 -19.9717
93.800003 92.688 -20.1985
95.000000 92.643 -20.3323
96.199997 92.604 -20.4219
97.500000 92.561 -20.5488
98.800003 92.506 -20.7025
100.000000 92.446 -20.8392
101.500000 92.372 -20.9644
103.000000 92.314 -21.1344
104.400002 92.261 -21.3163
106.000000 92.205 -21.3704
107.500000 92.169 -21.3545
109.000000 92.131 -21.4336
110.599998 92.070 -21.6447
112.000000 92.006 -21.8718
113.800003 91.939 -22.1296
115.000000 91.909 -22.1874
117.199997 91.904 -21.8851
118.000000 91.921 -21.7435
120.599998 91.874 -22.1052
122.000000 91.736 -22.1831
124.099998 91.571 -22.0769
125.000000 91.528 -22.0537
126.500000 91.490 -22.0422
128.000000 91.473 -22.0933
131.500000 91.370 -22.1375
132.000000 91.351 -22.1277
134.000000 91.277 -22.1281
136.000000 91.217 -22.1526
138.000000 91.169 -22.1704
140.000000 91.106 -22.1630
143.000000 91.014 -22.0144
145.000000 90.970 -21.9891
147.500000 90.907 -21.9980
150.000000 90.831 -21.8754
152.500000 90.765 -21.6613
155.000000 90.709 -21.5200
157.500000 90.621 -21.4454
160.000000 90.533 -21.3302
162.500000 90.475 -21.1987
165.000000 90.452 -20.9949
167.500000 90.425 -20.7885
170.000000 90.374 -20.6271
172.500000 90.319 -20.5347
175.000000 90.290 -20.3084
177.500000 90.295 -19.9028
180.000000 90.265 -19.7295
182.500000 90.152 -19.6490
185.000000 90.061 -19.5107
187.500000 90.015 -19.3770
190.000000 89.973 -19.1688
192.500000 89.915 -18.9410
195.000000 89.866 -18.7184
197.500000 89.837 -18.4666
200.000000 89.808 -18.1609
203.000000 89.760 -17.7941
206.000000 89.726 -17.4025
209.000000 89.712 -17.0335
212.000000 89.686 -16.7455
214.000000 89.661 -16.5757
218.000000 89.599 -16.1477
220.000000 89.574 -15.9296
224.000000 89.543 -15.5806
227.000000 89.532 -15.2129
230.000000 89.524 -14.9069
233.000000 89.496 -14.7958
236.000000 89.451 -14.6348
240.000000 89.375 -13.9858
243.000000 89.320 -13.3130
247.000000 89.303 -12.9844
250.000000 89.311 -13.2227
254.000000 89.320 -13.3770
258.000000 89.335 -13.0640
262.000000 89.331 -12.6866
265.000000 89.309 -12.4321
269.000000 89.278 -12.1491
272.000000 89.258 -11.9934
276.000000 89.239 -11.8140
280.000000 89.244 -11.6493
285.000000 89.246 -11.4078
290.000000 89.251 -11.0999
295.000000 89.256 -10.6262
300.000000 89.239 -10.3640
304.000000 89.233 -10.3159
307.000000 89.230 -10.2384
311.000000 89.238 -10.0631
315.000000 89.253 -9.8763
320.000000 89.265 -9.6488
325.000000 89.271 -9.3805
330.000000 89.268 -9.1829
335.000000 89.261 -9.0267
340.000000 89.256 -8.8503
345.000000 89.255 -8.7056
350.000000 89.260 -8.5524
355.000000 89.261 -8.3563
360.000000 89.260 -8.2094
365.000000 89.255 -8.1098
370.000000 89.252 -8.0574
375.000000 89.245 -7.9573
382.000000 89.242 -7.7799
387.000000 89.241 -7.6423
395.000000 89.229 -7.4018
400.000000 89.213 -7.2970
406.000000 89.196 -7.2117
412.000000 89.176 -7.1667
418.000000 89.162 -7.1008
425.000000 89.166 -6.8658
431.000000 89.170 -6.6636
437.000000 89.168 -6.5672
444.000000 89.152 -6.4655
450.000000 89.131 -6.3322
455.000000 89.118 -6.2183
462.000000 89.108 -6.0200
468.000000 89.107 -5.8398
475.000000 89.104 -5.7114
482.000000 89.093 -5.5876
487.000000 89.087 -5.4633
494.000000 89.082 -5.2488
500.000000 89.073 -5.0864
508.000000 89.063 -4.9253
515.000000 89.063 -4.7722
522.000000 89.058 -4.5787
530.000000 89.050 -4.3915
538.000000 89.053 -4.2885
545.000000 89.054 -4.1123
552.000000 89.047 -3.8652
560.000000 89.046 -3.6090
570.000000 89.050 -3.4084
580.000000 89.048 -3.1934
590.000000 89.056 -2.8960
600.000000 89.066 -2.6272
608.000000 89.065 -2.5186
615.000000 89.062 -2.3837
622.000000 89.059 -2.1808
630.000000 89.058 -1.9646
640.000000 89.060 -1.7051
650.000000 89.058 -1.4724
660.000000 89.053 -1.2920
670.000000 89.066 -1.0719
680.000000 89.076 -0.8439
690.000000 89.080 -0.6006
700.000000 89.081 -0.3951
710.000000 89.083 -0.1677
720.000000 89.090 0.0988
730.000000 89.105 0.3105
740.000000 89.116 0.5138
750.000000 89.116 0.7498
762.000000 89.115 1.1385
775.000000 89.121 1.6842
788.000000 89.135 2.2498
800.000000 89.151 2.8820
812.000000 89.167 3.5792
825.000000 89.180 4.3863
838.000000 89.191 5.1625
850.000000 89.205 5.8695
862.000000 89.231 6.5984
875.000000 89.265 7.4070
885.000000 89.288 8.0685
900.000000 89.316 9.0366
912.000000 89.340 9.7739
925.000000 89.377 10.5875
938.000000 89.419 11.4148
950.000000 89.461 12.1582
962.000000 89.501 12.8687
975.000000 89.544 13.6599
988.000000 89.583 14.4430
1000.000000 89.629 15.1443
1015.000000 89.702 15.9836
1030.000000 89.772 16.7300
1044.000000 89.827 17.2886
1060.000000 89.882 17.7454
1075.000000 89.946 18.0490
1090.000000 90.020 18.2997
1106.000000 90.100 18.5475
1120.000000 90.175 18.7224
1138.000000 90.277 18.8939
1150.000000 90.344 19.0038
1172.000000 90.461 19.2221
1180.000000 90.501 19.2935
1206.000000 90.635 19.4523
1220.000000 90.709 19.5184
1241.000000 90.813 19.6093
1250.000000 90.856 19.6423
1265.000000 90.928 19.7039
1280.000000 91.001 19.7744
1315.000000 91.162 19.8922
1320.000000 91.184 19.9061
1340.000000 91.265 19.9589
1360.000000 91.323 19.9987
1380.000000 91.374 20.0701
1400.000000 91.440 20.1467
1430.000000 91.549 20.2705
1450.000000 91.618 20.3786
1475.000000 91.701 20.5333
1500.000000 91.786 20.7020
1525.000000 91.880 20.8792
1550.000000 91.971 21.0621
1575.000000 92.055 21.2883
1600.000000 92.136 21.5345
1625.000000 92.225 21.8068
1650.000000 92.324 22.0730
1675.000000 92.422 22.3289
1700.000000 92.520 22.5962
1725.000000 92.627 22.8728
1750.000000 92.739 23.1567
1775.000000 92.856 23.4604
1800.000000 92.981 23.7666
1825.000000 93.115 24.0771
1850.000000 93.261 24.3480
1875.000000 93.408 24.5624
1900.000000 93.558 24.7450
1925.000000 93.716 24.9187
1950.000000 93.881 25.0785
1975.000000 94.054 25.1940
2000.000000 94.235 25.2619
2030.000000 94.462 25.2821
2060.000000 94.694 25.2284
2090.000000 94.938 25.0883
2120.000000 95.191 24.8213
2140.000000 95.364 24.5824
2180.000000 95.720 23.9004
2200.000000 95.900 23.4593
2240.000000 96.254 22.3799
2270.000000 96.510 21.3845
2300.000000 96.756 20.2411
2330.000000 96.989 18.9875
2360.000000 97.210 17.6223
2400.000000 97.482 15.6033
2430.000000 97.664 13.9757
2470.000000 97.878 11.7075
2500.000000 98.015 9.9573
2540.000000 98.164 7.6021
2580.000000 98.280 5.2663
2620.000000 98.370 2.9500
2650.000000 98.419 1.2397
2690.000000 98.462 -0.9810
2720.000000 98.480 -2.6018
2760.000000 98.484 -4.6979
2800.000000 98.472 -6.7111
2850.000000 98.440 -9.1129
2900.000000 98.393 -11.4037
2950.000000 98.333 -13.5926
3000.000000 98.261 -15.6573
3040.000000 98.196 -17.2290
3070.000000 98.143 -18.3721
3110.000000 98.069 -19.8486
3150.000000 97.990 -21.2590
3200.000000 97.884 -22.9389
3250.000000 97.776 -24.5308
3300.000000 97.669 -26.0127
3350.000000 97.559 -27.3362
3400.000000 97.450 -28.3684
3450.000000 97.358 -28.9690
3500.000000 97.288 -29.2708
3550.000000 97.235 -29.4922
3600.000000 97.194 -29.7417
3650.000000 97.161 -30.0450
3700.000000 97.125 -30.3859
3750.000000 97.087 -30.7511
3820.000000 97.026 -31.3160
3870.000000 96.974 -31.7440
3950.000000 96.873 -32.4258
4000.000000 96.799 -32.8304
4060.000000 96.703 -33.2707
4120.000000 96.602 -33.6493
4180.000000 96.501 -33.9734
4250.000000 96.384 -34.2903
4310.000000 96.279 -34.5263
4370.000000 96.169 -34.7620
4440.000000 96.034 -35.0955
4500.000000 95.911 -35.4602
4550.000000 95.801 -35.8986
4620.000000 95.623 -36.9175
4680.000000 95.449 -38.0645
4750.000000 95.230 -39.4424
4820.000000 94.995 -40.7350
4870.000000 94.821 -41.6077
4940.000000 94.563 -42.7566
5000.000000 94.330 -43.6300
5080.000000 94.007 -44.5869
5150.000000 93.721 -45.2014
5220.000000 93.442 -45.5779
5300.000000 93.147 -45.7697
5380.000000 92.883 -45.8041
5450.000000 92.681 -45.7708
5520.000000 92.503 -45.7283
5600.000000 92.325 -45.7273
5700.000000 92.129 -45.8285
5800.000000 91.948 -46.0221
5900.000000 91.769 -46.2808
6000.000000 91.597 -46.6168
6080.000000 91.465 -46.9009
6150.000000 91.352 -47.1211
6220.000000 91.242 -47.3267
6300.000000 91.121 -47.5605
6400.000000 90.975 -47.8385
6500.000000 90.835 -48.1084
6600.000000 90.700 -48.3760
6700.000000 90.576 -48.6178
6800.000000 90.471 -48.8393
6900.000000 90.399 -49.0615
7000.000000 90.367 -49.2553
7100.000000 90.367 -49.4200
7200.000000 90.394 -49.5735
7300.000000 90.453 -49.7537
7400.000000 90.557 -50.0223
7500.000000 90.718 -50.4611
7620.000000 91.018 -51.4738
7750.000000 91.473 -53.7439
7880.000000 91.886 -58.1584
8000.000000 92.032 -64.5829
8120.000000 91.749 -72.2498
8250.000000 90.907 -79.3380
8380.000000 89.732 -83.2400
8500.000000 88.640 -84.1888
8620.000000 87.697 -83.5900
8750.000000 86.866 -82.1180
8850.000000 86.339 -80.7507
9000.000000 85.686 -78.6422
9120.000000 85.249 -77.0081
9250.000000 84.846 -75.3041
9380.000000 84.506 -73.6824
9500.000000 84.240 -72.2775
9620.000000 84.012 -70.9700
9750.000000 83.808 -69.6666
9880.000000 83.650 -68.5217
10000.000000 83.539 -67.6645
10150.000000 83.439 -66.9012
10300.000000 83.362 -66.5018
10440.000000 83.289 -66.5547
10600.000000 83.179 -67.1219
10750.000000 83.028 -68.0594
10900.000000 82.806 -69.2152
11060.000000 82.473 -70.4275
11200.000000 82.101 -71.2919
11380.000000 81.539 -71.8594
11500.000000 81.133 -71.8524
11720.000000 80.353 -71.0217
11800.000000 80.066 -70.4482
12060.000000 79.121 -67.5443
12200.000000 78.607 -65.2961
12410.000000 77.836 -60.6970
12500.000000 77.518 -58.1490
12650.000000 77.050 -52.9478
12800.000000 76.742 -46.5176
13150.000000 77.210 -28.8873
13200.000000 77.440 -26.4409
13400.000000 78.701 -17.9293
13600.000000 80.351 -12.2501
13800.000000 82.220 -9.6426
14000.000000 84.237 -9.9896
14300.000000 87.514 -16.7612
14500.000000 89.706 -27.4116
14750.000000 91.640 -51.4688
15000.000000 91.548 -82.9459
15250.000000 89.249 -105.0695
15500.000000 85.852 -111.5156
15750.000000 82.635 -107.5551
16000.000000 80.194 -98.1357
16250.000000 78.616 -86.0258
16500.000000 77.824 -72.9987
16750.000000 77.686 -60.6411
17000.000000 78.138 -56.2990
17250.000000 79.140 -100.2646
17500.000000 80.753 120.3572
17750.000000 82.820 -5.7700
18000.000000 84.693 -119.1066
18250.000000 85.915 8.9709
18500.000000 86.217 103.6112
18750.000000 85.352 -35.7029
19000.000000 83.547 -72.8235
19250.000000 81.327 -79.8230
19500.000000 79.193 -87.0175
19750.000000 77.596 -145.3618
20000.000000 76.500 -37.8237
20300.000000 74.346 78.6118
20600.000000 70.881 31.8411
20900.000000 67.455 -151.6060
21200.000000 64.305 120.1030
21400.000000 62.145 134.9644
21800.000000 57.828 -13.6738
22000.000000 56.149 -176.7988
22400.000000 54.388 83.0605
22700.000000 53.673 -90.2617
23000.000000 52.925 43.7344
23300.000000 52.374 -132.8359
23600.000000 51.927 142.5938
24000.000000 51.307 30.9531
