* Measurement data measured by REW V5.20.13
* Source: Headset (DS by VECLAN.COM), MICROPHONE (Master Volume), L, volume: 1.000
* Format: 2M Log Swept Sine, 1 sweep at -12.0 dBFS with no timing reference
* Dated: May 18, 2023 5:21:13 PM
* REW Settings:
*  C-weighting compensation: Off
*  Target level: 75.0 dB
* Note: ; 
* Measurement: SSR UC L
* Smoothing: 1/24 octave
* Frequency Step: 1/48 octave
* Start Frequency: 1.000 Hz
*
* Freq(Hz) SPL(dB) Phase(degrees)
1.000000 69.813 -6.7903
1.015000 70.448 -9.1209
1.030000 71.053 -11.3024
1.044000 71.586 -13.1941
1.060000 72.152 -15.1737
1.075000 72.635 -16.8416
1.090000 73.066 -18.3163
1.106000 73.466 -19.6551
1.120000 73.788 -20.5780
1.138000 74.171 -21.4349
1.150000 74.407 -21.8163
1.172000 74.805 -22.1606
1.180000 74.938 -22.1822
1.206000 75.335 -21.9209
1.220000 75.527 -21.5977
1.241000 75.789 -20.9187
1.250000 75.893 -20.5686
1.265000 76.055 -19.9225
1.280000 76.205 -19.2163
1.315000 76.515 -17.4499
1.320000 76.556 -17.1952
1.340000 76.710 -16.2011
1.360000 76.854 -15.2831
1.380000 76.990 -14.4900
1.400000 77.123 -13.8705
1.430000 77.322 -13.3739
1.450000 77.458 -13.4024
1.475000 77.634 -13.9050
1.500000 77.792 -14.7643
1.525000 77.926 -15.8972
1.550000 78.039 -17.2621
1.575000 78.133 -18.8178
1.600000 78.211 -20.5226
1.625000 78.276 -22.3352
1.650000 78.328 -24.2140
1.675000 78.372 -26.1176
1.700000 78.409 -28.0045
1.725000 78.442 -29.8332
1.750000 78.473 -31.5624
1.775000 78.504 -33.1504
1.800000 78.539 -34.5559
1.825000 78.579 -35.7374
1.850000 78.623 -36.6891
1.875000 78.661 -37.4860
1.900000 78.693 -38.1501
1.925000 78.721 -38.7006
1.950000 78.745 -39.1566
1.975000 78.765 -39.5371
2.000000 78.782 -39.8613
2.030000 78.801 -40.2028
2.060000 78.817 -40.5237
2.090000 78.833 -40.8569
2.120000 78.849 -41.2355
2.140000 78.860 -41.5295
2.180000 78.887 -42.2609
2.200000 78.903 -42.7176
2.240000 78.937 -43.7478
2.270000 78.964 -44.5863
2.300000 78.991 -45.4702
2.330000 79.019 -46.3896
2.360000 79.046 -47.3346
2.400000 79.081 -48.6171
2.430000 79.106 -49.5830
2.470000 79.137 -50.8575
2.500000 79.159 -51.7904
2.540000 79.183 -52.9847
2.580000 79.203 -54.1094
2.620000 79.219 -55.2204
2.650000 79.228 -56.0502
2.690000 79.237 -57.1451
2.720000 79.242 -57.9529
2.760000 79.247 -59.0052
2.800000 79.250 -60.0212
2.850000 79.252 -61.2270
2.900000 79.253 -62.3458
2.950000 79.253 -63.3592
3.000000 79.251 -64.2517
3.040000 79.247 -64.8925
3.070000 79.244 -65.3392
3.110000 79.238 -65.9004
3.150000 79.231 -66.4347
3.200000 79.222 -67.0853
3.250000 79.212 -67.7412
3.300000 79.203 -68.4291
3.350000 79.191 -69.1792
3.400000 79.176 -69.9743
3.450000 79.160 -70.7750
3.500000 79.145 -71.5422
3.550000 79.131 -72.2368
3.600000 79.121 -72.8195
3.650000 79.117 -73.2512
3.700000 79.116 -73.4995
3.750000 79.115 -73.5812
3.820000 79.117 -73.4863
3.870000 79.124 -73.3197
3.950000 79.151 -72.9854
4.000000 79.183 -72.7922
4.060000 79.237 -72.6194
4.120000 79.305 -72.4440
4.180000 79.385 -72.2509
4.250000 79.496 -72.0005
4.310000 79.607 -71.7618
4.370000 79.736 -71.4988
4.440000 79.909 -71.1323
4.500000 80.080 -70.7243
4.550000 80.235 -70.3531
4.620000 80.468 -69.8480
4.680000 80.679 -69.4866
4.750000 80.934 -69.2230
4.820000 81.202 -69.1533
4.870000 81.406 -69.1808
4.940000 81.704 -69.3195
5.000000 81.964 -69.5261
5.080000 82.311 -69.9181
5.150000 82.606 -70.3635
5.220000 82.903 -70.9179
5.300000 83.243 -71.6811
5.380000 83.578 -72.5685
5.450000 83.861 -73.4353
5.520000 84.130 -74.3803
5.600000 84.427 -75.5903
5.700000 84.782 -77.2646
5.800000 85.111 -79.0519
5.900000 85.411 -80.8952
6.000000 85.682 -82.8537
6.080000 85.880 -84.4763
6.150000 86.038 -85.9043
6.220000 86.182 -87.3131
6.300000 86.328 -88.9113
6.400000 86.483 -90.9239
6.500000 86.611 -92.9050
6.600000 86.713 -94.8035
6.700000 86.787 -96.6465
6.800000 86.833 -98.4311
6.900000 86.858 -100.0924
7.000000 86.866 -101.5762
7.100000 86.850 -102.9183
7.200000 86.816 -104.1083
7.300000 86.775 -105.1176
7.400000 86.730 -105.9268
7.500000 86.673 -106.5491
7.620000 86.606 -107.0657
7.750000 86.557 -107.3466
7.880000 86.522 -107.2933
8.000000 86.513 -107.0686
8.120000 86.543 -106.7735
8.250000 86.612 -106.2919
8.380000 86.716 -105.7987
8.500000 86.843 -105.4521
8.620000 87.001 -105.1463
8.750000 87.192 -104.9387
8.850000 87.342 -104.9191
9.000000 87.585 -105.0831
9.120000 87.780 -105.3592
9.250000 87.979 -105.8049
9.380000 88.173 -106.4083
9.500000 88.337 -107.0391
9.620000 88.483 -107.7188
9.750000 88.623 -108.5312
9.880000 88.742 -109.3494
10.000000 88.828 -110.0923
10.150000 88.911 -111.0165
10.300000 88.973 -111.8586
10.440000 89.010 -112.5698
10.600000 89.041 -113.2913
10.750000 89.067 -113.8612
10.900000 89.089 -114.3401
11.060000 89.119 -114.7749
11.200000 89.150 -115.0836
11.380000 89.199 -115.4292
11.500000 89.239 -115.6276
11.720000 89.325 -115.9709
11.800000 89.362 -116.1044
12.060000 89.497 -116.5725
12.200000 89.576 -116.8939
12.410000 89.700 -117.4616
12.500000 89.749 -117.7421
12.650000 89.830 -118.2631
12.800000 89.902 -118.8282
13.150000 90.023 -120.2789
13.200000 90.034 -120.4826
13.400000 90.062 -121.3010
13.600000 90.067 -122.0187
13.800000 90.050 -122.6017
14.000000 90.023 -122.9902
14.300000 89.977 -123.1929
14.500000 89.960 -123.0729
14.750000 89.973 -122.7602
15.000000 90.032 -122.3453
15.250000 90.138 -122.0194
15.500000 90.273 -121.8816
15.750000 90.423 -121.9788
16.000000 90.567 -122.3262
16.250000 90.691 -122.8483
16.500000 90.791 -123.4894
16.750000 90.865 -124.1640
17.000000 90.920 -124.8015
17.250000 90.961 -125.3770
17.500000 90.995 -125.8670
17.750000 91.030 -126.2819
18.000000 91.069 -126.6400
18.250000 91.116 -126.9620
18.500000 91.174 -127.2859
18.750000 91.242 -127.6391
19.000000 91.320 -128.0477
19.250000 91.402 -128.5449
19.500000 91.482 -129.1311
19.750000 91.555 -129.8037
20.000000 91.613 -130.5289
20.299999 91.660 -131.3950
20.600000 91.684 -132.1739
20.900000 91.693 -132.7867
21.200001 91.702 -133.1913
21.400000 91.716 -133.3615
21.799999 91.774 -133.5576
22.000000 91.819 -133.6410
22.400000 91.933 -133.8940
22.700001 92.026 -134.1968
23.000000 92.113 -134.5809
23.299999 92.188 -134.9952
23.600000 92.252 -135.3951
24.000000 92.326 -135.8597
24.299999 92.379 -136.1532
24.700001 92.451 -136.5016
25.000000 92.505 -136.7609
25.400000 92.576 -137.1372
25.799999 92.637 -137.5673
26.200001 92.681 -138.0380
26.500000 92.699 -138.3801
26.900000 92.703 -138.7463
27.200001 92.700 -138.9008
27.600000 92.704 -138.9265
28.000000 92.742 -138.8391
28.500000 92.843 -138.8665
29.000000 92.963 -139.3217
29.500000 93.046 -140.1282
30.000000 93.076 -140.9156
30.400000 93.087 -141.3614
30.700001 93.106 -141.6116
31.100000 93.150 -141.9662
31.500000 93.205 -142.4581
32.000000 93.251 -143.2566
32.500000 93.256 -144.0093
33.000000 93.244 -144.4666
33.500000 93.258 -144.6584
34.000000 93.318 -144.8299
34.500000 93.403 -145.1864
35.000000 93.484 -145.7490
35.500000 93.542 -146.4109
36.000000 93.575 -147.0454
36.500000 93.594 -147.5713
37.000000 93.613 -147.9794
37.500000 93.639 -148.3268
38.200001 93.681 -148.8093
38.700001 93.708 -149.1278
39.500000 93.761 -149.5201
40.000000 93.810 -149.7965
40.599998 93.866 -150.2789
41.200001 93.892 -150.8229
41.799999 93.893 -151.2039
42.500000 93.910 -151.3840
43.099998 93.959 -151.5398
43.700001 94.015 -151.8663
44.400002 94.057 -152.3451
45.000000 94.084 -152.6546
45.500000 94.121 -152.8831
46.200001 94.189 -153.4256
46.799999 94.213 -154.1245
47.500000 94.176 -154.7170
48.200001 94.151 -154.7404
48.700001 94.188 -154.6516
49.400002 94.285 -154.8861
50.000000 94.346 -155.4214
50.799999 94.365 -156.0869
51.500000 94.372 -156.4005
52.200001 94.397 -156.6213
53.000000 94.435 -156.9196
53.799999 94.471 -157.2575
54.500000 94.503 -157.5934
55.200001 94.527 -158.0201
56.000000 94.530 -158.5628
57.000000 94.507 -159.0454
58.000000 94.508 -159.3868
59.000000 94.522 -159.8004
60.000000 94.539 -160.1819
60.799999 94.560 -160.4581
61.500000 94.583 -160.6508
62.200001 94.619 -160.8219
63.000000 94.669 -161.0998
64.000000 94.715 -161.5438
65.000000 94.743 -161.9762
66.000000 94.752 -162.3831
67.000000 94.756 -162.7079
68.000000 94.763 -163.0768
69.000000 94.758 -163.4431
70.000000 94.756 -163.7088
71.000000 94.770 -163.9197
72.000000 94.807 -164.1488
73.000000 94.850 -164.5979
74.000000 94.853 -165.1590
75.000000 94.830 -165.4989
76.199997 94.846 -165.7582
77.500000 94.881 -166.4933
78.800003 94.828 -167.2630
80.000000 94.778 -167.3078
81.199997 94.815 -167.2568
82.500000 94.848 -167.5821
83.800003 94.858 -167.7625
85.000000 94.889 -168.0961
86.199997 94.894 -168.6439
87.500000 94.868 -169.1508
88.500000 94.854 -169.2634
90.000000 94.912 -169.3091
91.199997 94.971 -169.5578
92.500000 95.006 -169.8524
93.800003 95.017 -170.1226
95.000000 95.017 -170.3869
96.199997 95.011 -170.7046
97.500000 95.005 -171.0876
98.800003 94.998 -171.4483
100.000000 94.998 -171.6328
101.500000 95.023 -171.7635
103.000000 95.049 -172.0050
104.400002 95.051 -172.2544
106.000000 95.053 -172.5610
107.500000 95.048 -172.9055
109.000000 95.042 -173.1496
110.599998 95.047 -173.4378
112.000000 95.035 -173.7852
113.800003 95.001 -174.2775
115.000000 94.971 -174.6172
117.199997 94.950 -174.9395
118.000000 94.969 -175.0032
120.599998 95.055 -175.4548
122.000000 95.060 -175.7168
124.099998 95.038 -175.9871
125.000000 95.023 -176.1231
126.500000 94.991 -176.4092
128.000000 94.942 -176.6671
131.500000 94.940 -176.7413
132.000000 94.955 -176.8216
134.000000 94.998 -177.3020
136.000000 95.007 -177.7300
138.000000 95.008 -178.0213
140.000000 94.999 -178.2973
143.000000 94.984 -178.6683
145.000000 94.987 -178.9059
147.500000 94.989 -179.2318
150.000000 94.974 -179.5356
152.500000 94.958 -179.7953
155.000000 94.958 179.9620
157.500000 94.962 179.6874
160.000000 94.956 179.4445
162.500000 94.944 179.1490
165.000000 94.916 178.8571
167.500000 94.894 178.6036
170.000000 94.879 178.2632
172.500000 94.856 177.9289
175.000000 94.833 177.6771
177.500000 94.817 177.4808
180.000000 94.810 177.2204
182.500000 94.790 176.9050
185.000000 94.760 176.6710
187.500000 94.734 176.4712
190.000000 94.717 176.2124
192.500000 94.700 175.9615
195.000000 94.686 175.8366
197.500000 94.676 175.7344
200.000000 94.651 175.5674
203.000000 94.613 175.3127
206.000000 94.583 175.0644
209.000000 94.563 174.9031
212.000000 94.539 174.6791
214.000000 94.523 174.5019
218.000000 94.526 174.1675
220.000000 94.515 174.0121
224.000000 94.444 173.8315
227.000000 94.396 173.6861
230.000000 94.368 173.5952
233.000000 94.344 173.5350
236.000000 94.319 173.3957
240.000000 94.285 173.0949
243.000000 94.249 172.8470
247.000000 94.193 172.6058
250.000000 94.160 172.5248
254.000000 94.131 172.3911
258.000000 94.107 172.3968
262.000000 94.081 172.4028
265.000000 94.056 172.1499
269.000000 94.015 171.8315
272.000000 93.980 171.7643
276.000000 93.935 171.7921
280.000000 93.897 171.7525
285.000000 93.839 171.3921
290.000000 93.795 171.0892
295.000000 93.733 170.8687
300.000000 93.673 170.8067
304.000000 93.636 170.8494
307.000000 93.606 170.8799
311.000000 93.575 170.8724
315.000000 93.545 170.7668
320.000000 93.497 170.6083
325.000000 93.448 170.5991
330.000000 93.409 170.6839
335.000000 93.371 170.5920
340.000000 93.308 170.4261
345.000000 93.249 170.3954
350.000000 93.200 170.4114
355.000000 93.154 170.4091
360.000000 93.111 170.4254
365.000000 93.075 170.4556
370.000000 93.031 170.4577
375.000000 92.977 170.4156
382.000000 92.902 170.3798
387.000000 92.841 170.3958
395.000000 92.755 170.4725
400.000000 92.705 170.5410
406.000000 92.651 170.6546
412.000000 92.598 170.7842
418.000000 92.536 170.8732
425.000000 92.472 170.9670
431.000000 92.415 171.0723
437.000000 92.358 171.2152
444.000000 92.282 171.4353
450.000000 92.195 171.6247
455.000000 92.132 171.7087
462.000000 92.077 171.7629
468.000000 92.025 171.8848
475.000000 91.953 172.0981
482.000000 91.887 172.3273
487.000000 91.848 172.4738
494.000000 91.798 172.6728
500.000000 91.753 172.8755
508.000000 91.689 173.2028
515.000000 91.644 173.4145
522.000000 91.603 173.5689
530.000000 91.506 173.9705
538.000000 91.416 174.4312
545.000000 91.356 174.7689
552.000000 91.298 175.1174
560.000000 91.225 175.5339
570.000000 91.141 176.0584
580.000000 91.071 176.5670
590.000000 91.004 177.0842
600.000000 90.939 177.6077
608.000000 90.883 178.0701
615.000000 90.829 178.4886
622.000000 90.773 178.9001
630.000000 90.714 179.3834
640.000000 90.645 -179.9910
650.000000 90.573 -179.3583
660.000000 90.509 -178.7058
670.000000 90.455 -178.0100
680.000000 90.396 -177.3321
690.000000 90.336 -176.6712
700.000000 90.280 -175.9934
710.000000 90.231 -175.2899
720.000000 90.185 -174.5651
730.000000 90.140 -173.7861
740.000000 90.095 -172.9799
750.000000 90.053 -172.1780
762.000000 90.010 -171.2147
775.000000 89.977 -170.1689
788.000000 89.949 -169.1732
800.000000 89.919 -168.2191
812.000000 89.893 -167.2317
825.000000 89.872 -166.1513
838.000000 89.856 -165.0755
850.000000 89.851 -164.0787
862.000000 89.851 -163.0714
875.000000 89.851 -161.9694
885.000000 89.854 -161.1405
900.000000 89.873 -159.9393
912.000000 89.894 -158.9818
925.000000 89.920 -157.9156
938.000000 89.952 -156.8755
950.000000 89.988 -155.9473
962.000000 90.025 -155.0245
975.000000 90.062 -154.0355
988.000000 90.102 -153.0652
1000.000000 90.146 -152.1773
1015.000000 90.211 -151.0906
1030.000000 90.282 -150.0462
1044.000000 90.359 -149.1102
1060.000000 90.455 -148.1148
1075.000000 90.549 -147.2302
1090.000000 90.648 -146.3904
1106.000000 90.764 -145.5646
1120.000000 90.872 -144.8906
1138.000000 91.018 -144.1278
1150.000000 91.113 -143.6874
1172.000000 91.278 -142.9227
1180.000000 91.333 -142.6509
1206.000000 91.506 -141.8424
1220.000000 91.601 -141.4508
1241.000000 91.735 -140.8846
1250.000000 91.790 -140.6438
1265.000000 91.876 -140.2456
1280.000000 91.960 -139.8602
1315.000000 92.147 -138.9651
1320.000000 92.173 -138.8367
1340.000000 92.269 -138.3266
1360.000000 92.345 -137.8154
1380.000000 92.414 -137.2967
1400.000000 92.493 -136.7597
1430.000000 92.614 -135.9377
1450.000000 92.691 -135.3701
1475.000000 92.790 -134.6593
1500.000000 92.891 -133.9444
1525.000000 92.990 -133.1891
1550.000000 93.087 -132.4258
1575.000000 93.186 -131.6561
1600.000000 93.289 -130.8716
1625.000000 93.393 -130.0776
1650.000000 93.499 -129.2754
1675.000000 93.607 -128.4664
1700.000000 93.720 -127.6633
1725.000000 93.837 -126.8810
1750.000000 93.957 -126.1207
1775.000000 94.080 -125.3820
1800.000000 94.206 -124.6509
1825.000000 94.330 -123.9127
1850.000000 94.457 -123.1833
1875.000000 94.590 -122.4688
1900.000000 94.729 -121.7703
1925.000000 94.870 -121.0742
1950.000000 95.015 -120.3830
1975.000000 95.164 -119.7103
2000.000000 95.316 -119.0496
2030.000000 95.503 -118.2771
2060.000000 95.695 -117.5253
2090.000000 95.894 -116.8001
2120.000000 96.103 -116.1234
2140.000000 96.247 -115.6893
2180.000000 96.540 -114.8622
2200.000000 96.688 -114.4775
2240.000000 96.992 -113.7731
2270.000000 97.231 -113.3087
2300.000000 97.481 -112.9144
2330.000000 97.740 -112.5994
2360.000000 98.003 -112.3664
2400.000000 98.362 -112.2082
2430.000000 98.638 -112.2379
2470.000000 99.008 -112.4785
2500.000000 99.282 -112.8191
2540.000000 99.639 -113.4883
2580.000000 99.980 -114.3890
2620.000000 100.302 -115.4977
2650.000000 100.526 -116.4381
2690.000000 100.800 -117.8080
2720.000000 100.984 -118.9024
2760.000000 101.201 -120.4278
2800.000000 101.385 -121.9963
2850.000000 101.582 -124.0072
2900.000000 101.747 -126.0570
2950.000000 101.872 -128.1152
3000.000000 101.956 -130.1609
3040.000000 101.996 -131.7768
3070.000000 102.009 -132.9574
3110.000000 102.009 -134.4745
3150.000000 101.992 -135.9213
3200.000000 101.950 -137.5959
3250.000000 101.886 -139.1056
3300.000000 101.808 -140.4675
3350.000000 101.720 -141.6929
3400.000000 101.623 -142.7915
3450.000000 101.523 -143.7672
3500.000000 101.420 -144.6093
3550.000000 101.313 -145.3096
3600.000000 101.207 -145.8886
3650.000000 101.111 -146.3913
3700.000000 101.024 -146.8520
3750.000000 100.942 -147.2909
3820.000000 100.820 -147.8668
3870.000000 100.721 -148.2205
3950.000000 100.542 -148.6355
4000.000000 100.425 -148.7868
4060.000000 100.284 -148.8562
4120.000000 100.150 -148.8128
4180.000000 100.032 -148.6937
4250.000000 99.911 -148.4762
4310.000000 99.815 -148.2540
4370.000000 99.716 -148.0073
4440.000000 99.606 -147.7126
4500.000000 99.519 -147.4630
4550.000000 99.450 -147.2506
4620.000000 99.359 -146.9535
4680.000000 99.288 -146.7096
4750.000000 99.208 -146.4355
4820.000000 99.127 -146.1772
4870.000000 99.070 -146.0050
4940.000000 98.998 -145.7922
5000.000000 98.943 -145.6341
5080.000000 98.870 -145.4527
5150.000000 98.801 -145.3154
5220.000000 98.727 -145.1938
5300.000000 98.640 -145.0712
5380.000000 98.549 -144.9539
5450.000000 98.466 -144.8502
5520.000000 98.380 -144.7392
5600.000000 98.281 -144.6015
5700.000000 98.154 -144.4050
5800.000000 98.017 -144.1545
5900.000000 97.872 -143.8383
6000.000000 97.719 -143.4346
6080.000000 97.600 -143.0497
6150.000000 97.500 -142.6658
6220.000000 97.403 -142.2338
6300.000000 97.296 -141.6830
6400.000000 97.173 -140.9192
6500.000000 97.068 -140.0889
6600.000000 96.982 -139.2069
6700.000000 96.918 -138.3015
6800.000000 96.883 -137.4005
6900.000000 96.889 -136.5316
7000.000000 96.939 -135.7257
7100.000000 97.025 -135.0168
7200.000000 97.147 -134.4559
7300.000000 97.297 -134.1116
7400.000000 97.464 -134.0600
7500.000000 97.641 -134.3537
7620.000000 97.869 -135.2174
7750.000000 98.113 -136.8486
7880.000000 98.237 -139.2256
8000.000000 98.233 -142.0390
8120.000000 98.113 -145.3078
8250.000000 97.828 -149.0985
8380.000000 97.365 -152.7841
8500.000000 96.787 -155.7692
8620.000000 96.090 -158.1129
8750.000000 95.230 -159.7644
8850.000000 94.522 -160.3694
9000.000000 93.437 -160.2390
9120.000000 92.582 -159.3307
9250.000000 91.684 -157.6599
9380.000000 90.822 -155.3917
9500.000000 90.072 -152.8715
9620.000000 89.373 -150.0177
9750.000000 88.676 -146.6234
9880.000000 88.042 -142.9817
10000.000000 87.503 -139.4481
10150.000000 86.882 -134.8528
10300.000000 86.321 -130.1097
10440.000000 85.852 -125.5829
10600.000000 85.376 -120.3124
10750.000000 84.985 -115.2986
10900.000000 84.645 -110.2415
11060.000000 84.338 -104.8318
11200.000000 84.116 -100.1146
11380.000000 83.892 -94.1089
11500.000000 83.781 -90.1600
11720.000000 83.647 -83.0705
11800.000000 83.621 -80.5531
12060.000000 83.602 -72.6603
12200.000000 83.630 -68.6104
12410.000000 83.720 -62.7840
12500.000000 83.779 -60.3790
12650.000000 83.905 -56.5179
12800.000000 84.062 -52.8733
13150.000000 84.524 -45.3566
13200.000000 84.600 -44.4084
13400.000000 84.927 -40.9571
13600.000000 85.291 -38.0855
13800.000000 85.694 -35.8529
14000.000000 86.125 -34.3367
14300.000000 86.787 -33.5981
14500.000000 87.209 -34.3555
14750.000000 87.631 -37.1166
15000.000000 87.783 -41.8772
15250.000000 87.516 -47.6965
15500.000000 86.808 -52.8574
15750.000000 85.780 -55.7920
16000.000000 84.600 -55.8632
16250.000000 83.444 -53.3098
16500.000000 82.448 -48.7962
16750.000000 81.708 -43.1182
17000.000000 81.292 -37.1683
17250.000000 81.223 -32.0041
17500.000000 81.443 -28.8887
17750.000000 81.746 -29.1604
18000.000000 81.781 -33.4239
18250.000000 81.202 -40.1470
18500.000000 79.911 -45.7803
18750.000000 78.158 -47.3507
19000.000000 76.315 -44.2075
19250.000000 74.520 -37.2095
19500.000000 72.658 -27.4944
19750.000000 70.651 -15.8851
20000.000000 68.485 -2.9265
20300.000000 65.655 13.8410
20600.000000 62.613 31.4486
20900.000000 59.282 48.1759
21200.000000 55.533 49.6747
21400.000000 52.736 -3.8062
21800.000000 46.179 165.4424
22000.000000 42.279 27.6296
22400.000000 32.960 -102.2646
22700.000000 24.722 89.7715
23000.000000 16.420 -178.9648
23300.000000 11.346 -9.4297
23600.000000 10.219 -117.3516
24000.000000 9.869 15.3750
