* Measurement data measured by REW V5.30.2
* Source: Headset (JA3 HIFI AUDIO(CX31993)), MICROPHONE (Master Volume), L, volume: 0.720. Timing signal peak level -20.5 dBFS, measurement signal peak level -13.1 dBFS
* Format: 2M Log Swept Sine, 1 sweep at -12.0 dBFS using an acoustic timing reference
* Dated: Feb 15, 2024 5:04:27 PM
* REW Settings:
*  C-weighting compensation: Off
*  Target level: 75.0 dB
* Note: ; Delay -0.0626 ms (-21 mm, -0.84 in) using estimated IR delay relative to Acoustic reference played from SPEAKER L with no timing offset Clock adjustment: -5.9 ppm
* Measurement: Symphonium Crimson L
* Smoothing: 1/24 octave
* Frequency Step: 1/48 octave
* Start Frequency: 1.000 Hz
*
* Freq(Hz) SPL(dB) Phase(degrees)
1.000000 62.646 48.3916
1.015000 62.685 48.7097
1.030000 62.722 49.0474
1.044000 62.755 49.3816
1.060000 62.791 49.7876
1.075000 62.822 50.1933
1.090000 62.851 50.6246
1.106000 62.878 51.1138
1.120000 62.895 51.5606
1.138000 62.906 52.1588
1.150000 62.908 52.5720
1.172000 62.901 53.3587
1.180000 62.896 53.6539
1.206000 62.871 54.6459
1.220000 62.853 55.2002
1.241000 62.823 56.0570
1.250000 62.810 56.4333
1.265000 62.788 57.0722
1.280000 62.766 57.7255
1.315000 62.724 59.3032
1.320000 62.719 59.5345
1.340000 62.705 60.4736
1.360000 62.700 61.4345
1.380000 62.706 62.4161
1.400000 62.727 63.4173
1.430000 62.787 64.9540
1.450000 62.851 66.0001
1.475000 62.959 67.3401
1.500000 63.091 68.7940
1.525000 63.244 70.3611
1.550000 63.416 72.0184
1.575000 63.605 73.7432
1.600000 63.809 75.5126
1.625000 64.028 77.3038
1.650000 64.259 79.0940
1.675000 64.502 80.8602
1.700000 64.753 82.5796
1.725000 65.013 84.2295
1.750000 65.278 85.7869
1.775000 65.549 87.2291
1.800000 65.822 88.5331
1.825000 66.097 89.6761
1.850000 66.377 90.6653
1.875000 66.672 91.5619
1.900000 66.981 92.3718
1.925000 67.302 93.0978
1.950000 67.632 93.7427
1.975000 67.970 94.3095
2.000000 68.314 94.8010
2.030000 68.730 95.2954
2.060000 69.147 95.6905
2.090000 69.561 95.9913
2.120000 69.969 96.2027
2.140000 70.236 96.2964
2.180000 70.751 96.3771
2.200000 70.998 96.3667
2.240000 71.482 96.1780
2.270000 71.840 95.8829
2.300000 72.194 95.4724
2.330000 72.544 94.9606
2.360000 72.889 94.3622
2.400000 73.342 93.4543
2.430000 73.675 92.7095
2.470000 74.110 91.6590
2.500000 74.430 90.8465
2.540000 74.846 89.7579
2.580000 75.251 88.6829
2.620000 75.643 87.5454
2.650000 75.929 86.6425
2.690000 76.302 85.3802
2.720000 76.574 84.3950
2.760000 76.929 83.0378
2.800000 77.276 81.6398
2.850000 77.699 79.8499
2.900000 78.111 78.0307
2.950000 78.513 76.1940
3.000000 78.902 74.2941
3.040000 79.203 72.7286
3.070000 79.424 71.5334
3.110000 79.712 69.9181
3.150000 79.994 68.2856
3.200000 80.338 66.2334
3.250000 80.674 64.1834
3.300000 81.003 62.1514
3.350000 81.324 60.1225
3.400000 81.635 58.0814
3.450000 81.937 56.0325
3.500000 82.231 53.9801
3.550000 82.518 51.9284
3.600000 82.798 49.8819
3.650000 83.074 47.8447
3.700000 83.344 45.8142
3.750000 83.607 43.7790
3.820000 83.963 40.9315
3.870000 84.211 38.9066
3.950000 84.596 35.6986
4.000000 84.831 33.7224
4.060000 85.108 31.3861
4.120000 85.378 29.0748
4.180000 85.640 26.7883
4.250000 85.937 24.1560
4.310000 86.186 21.9331
4.370000 86.431 19.7439
4.440000 86.710 17.2333
4.500000 86.942 15.1137
4.550000 87.132 13.3713
4.620000 87.392 10.9709
4.680000 87.610 8.9518
4.750000 87.861 6.6438
4.820000 88.106 4.3885
4.870000 88.277 2.8085
4.940000 88.512 0.6388
5.000000 88.709 -1.1825
5.080000 88.968 -3.5570
5.150000 89.190 -5.5851
5.220000 89.408 -7.5633
5.300000 89.652 -9.7647
5.380000 89.891 -11.9078
5.450000 90.096 -13.7392
5.520000 90.299 -15.5321
5.600000 90.526 -17.5273
5.700000 90.804 -19.9446
5.800000 91.076 -22.2874
5.900000 91.342 -24.5646
6.000000 91.602 -26.7667
6.080000 91.806 -28.4789
6.150000 91.982 -29.9461
6.220000 92.155 -31.3887
6.300000 92.349 -33.0058
6.400000 92.586 -34.9743
6.500000 92.818 -36.8911
6.600000 93.043 -38.7641
6.700000 93.263 -40.5910
6.800000 93.477 -42.3709
6.900000 93.685 -44.1094
7.000000 93.887 -45.8114
7.100000 94.083 -47.4735
7.200000 94.273 -49.0969
7.300000 94.457 -50.6843
7.400000 94.635 -52.2366
7.500000 94.807 -53.7522
7.620000 95.007 -55.5253
7.750000 95.214 -57.3934
7.880000 95.412 -59.2046
8.000000 95.587 -60.8290
8.120000 95.756 -62.4105
8.250000 95.931 -64.0729
8.380000 96.098 -65.6875
8.500000 96.248 -67.1386
8.620000 96.391 -68.5495
8.750000 96.540 -70.0389
8.850000 96.651 -71.1600
9.000000 96.812 -72.7974
9.120000 96.936 -74.0756
9.250000 97.067 -75.4328
9.380000 97.195 -76.7585
9.500000 97.307 -77.9607
9.620000 97.414 -79.1447
9.750000 97.524 -80.4046
9.880000 97.625 -81.6464
10.000000 97.706 -82.7782
10.150000 97.796 -84.1722
10.300000 97.875 -85.5481
10.440000 97.939 -86.8157
10.600000 98.006 -88.2458
10.750000 98.065 -89.5697
10.900000 98.122 -90.8769
11.060000 98.179 -92.2532
11.200000 98.226 -93.4422
11.380000 98.283 -94.9500
11.500000 98.318 -95.9420
11.720000 98.380 -97.7338
11.800000 98.402 -98.3770
12.060000 98.472 -100.4364
12.200000 98.510 -101.5266
12.410000 98.565 -103.1373
12.500000 98.588 -103.8189
12.650000 98.625 -104.9432
12.800000 98.661 -106.0529
13.150000 98.740 -108.5859
13.200000 98.752 -108.9416
13.400000 98.797 -110.3484
13.600000 98.843 -111.7333
13.800000 98.889 -113.0967
14.000000 98.935 -114.4437
14.300000 99.003 -116.4362
14.500000 99.046 -117.7500
14.750000 99.097 -119.3734
15.000000 99.146 -120.9733
15.250000 99.191 -122.5390
15.500000 99.233 -124.0580
15.750000 99.270 -125.5223
16.000000 99.304 -126.9222
16.250000 99.337 -128.2602
16.500000 99.369 -129.5416
16.750000 99.403 -130.7766
17.000000 99.440 -131.9805
17.250000 99.478 -133.1599
17.500000 99.515 -134.3220
17.750000 99.550 -135.4650
18.000000 99.581 -136.5852
18.250000 99.610 -137.6783
18.500000 99.637 -138.7411
18.750000 99.663 -139.7779
19.000000 99.689 -140.7927
19.250000 99.716 -141.7971
19.500000 99.742 -142.7968
19.750000 99.765 -143.7956
20.000000 99.785 -144.7923
20.299999 99.804 -145.9751
20.600000 99.817 -147.1329
20.900000 99.826 -148.2576
21.200001 99.832 -149.3501
21.400000 99.837 -150.0681
21.799999 99.844 -151.4962
22.000000 99.847 -152.2125
22.400000 99.848 -153.6516
22.700001 99.842 -154.7218
23.000000 99.831 -155.7634
23.299999 99.817 -156.7634
23.600000 99.804 -157.7226
24.000000 99.791 -158.9562
24.299999 99.786 -159.8703
24.700001 99.781 -161.0971
25.000000 99.776 -162.0245
25.400000 99.765 -163.2557
25.799999 99.748 -164.4571
26.200001 99.728 -165.6165
26.500000 99.712 -166.4587
26.900000 99.689 -167.5445
27.200001 99.670 -168.3253
27.600000 99.645 -169.3110
28.000000 99.624 -170.2347
28.500000 99.610 -171.3508
29.000000 99.605 -172.5163
29.500000 99.596 -173.7718
30.000000 99.566 -175.0499
30.400000 99.529 -176.0134
30.700001 99.498 -176.6812
31.100000 99.458 -177.5127
31.500000 99.425 -178.3169
32.000000 99.389 -179.3403
32.500000 99.349 179.6109
33.000000 99.302 178.5831
33.500000 99.252 177.6058
34.000000 99.207 176.6624
34.500000 99.166 175.7230
35.000000 99.124 174.7845
35.500000 99.080 173.8651
36.000000 99.036 172.9740
36.500000 98.993 172.1044
37.000000 98.949 171.2491
37.500000 98.904 170.4119
38.200001 98.841 169.2803
38.700001 98.796 168.4951
39.500000 98.724 167.2608
40.000000 98.678 166.5054
40.599998 98.622 165.6185
41.200001 98.564 164.7477
41.799999 98.506 163.8906
42.500000 98.436 162.9194
43.099998 98.378 162.1190
43.700001 98.321 161.3396
44.400002 98.257 160.4408
45.000000 98.201 159.6786
45.500000 98.154 159.0565
46.200001 98.087 158.2101
46.799999 98.030 157.5037
47.500000 97.963 156.7044
48.200001 97.896 155.9399
48.700001 97.851 155.4046
49.400002 97.790 154.6396
50.000000 97.733 153.9710
50.799999 97.650 153.1222
51.500000 97.579 152.4416
52.200001 97.514 151.7719
53.000000 97.441 150.9840
53.799999 97.363 150.2046
54.500000 97.292 149.5527
55.200001 97.223 148.9324
56.000000 97.146 148.2516
57.000000 97.056 147.3936
58.000000 96.960 146.5302
59.000000 96.861 145.7103
60.000000 96.763 144.9283
60.799999 96.687 144.3313
61.500000 96.623 143.8203
62.200001 96.560 143.3075
63.000000 96.488 142.7269
64.000000 96.399 142.0217
65.000000 96.309 141.3281
66.000000 96.216 140.6760
67.000000 96.127 140.0583
68.000000 96.038 139.4280
69.000000 95.947 138.8320
70.000000 95.861 138.2567
71.000000 95.776 137.6389
72.000000 95.684 137.0332
73.000000 95.589 136.4892
74.000000 95.500 135.9813
75.000000 95.416 135.4661
76.199997 95.316 134.8247
77.500000 95.204 134.1382
78.800003 95.092 133.4998
80.000000 94.996 132.9557
81.199997 94.903 132.4147
82.500000 94.800 131.8604
83.800003 94.696 131.3045
85.000000 94.595 130.7737
86.199997 94.492 130.2484
87.500000 94.387 129.6469
88.500000 94.307 129.1246
90.000000 94.173 128.4625
91.199997 94.089 128.1414
92.500000 94.024 127.7381
93.800003 93.949 127.3136
95.000000 93.873 126.9816
96.199997 93.798 126.6481
97.500000 93.713 126.2325
98.800003 93.621 125.7911
100.000000 93.533 125.4166
101.500000 93.431 125.0373
103.000000 93.340 124.6599
104.400002 93.252 124.3043
106.000000 93.144 123.9012
107.500000 93.041 123.5259
109.000000 92.939 123.1201
110.599998 92.831 122.6774
112.000000 92.744 122.3544
113.800003 92.651 121.9623
115.000000 92.590 121.6754
117.199997 92.453 121.2252
118.000000 92.399 121.1221
120.599998 92.249 120.7173
122.000000 92.166 120.3145
124.099998 92.028 119.7620
125.000000 91.976 119.5888
126.500000 91.903 119.3166
128.000000 91.831 118.9998
131.500000 91.597 118.5828
132.000000 91.570 118.5818
134.000000 91.497 118.4378
136.000000 91.436 118.0692
138.000000 91.366 117.7355
140.000000 91.288 117.5017
143.000000 91.151 117.3877
145.000000 91.068 117.3081
147.500000 90.962 117.1154
150.000000 90.870 116.7981
152.500000 90.786 116.3275
155.000000 90.708 115.9439
157.500000 90.662 115.4736
160.000000 90.594 115.1360
162.500000 90.521 114.8724
165.000000 90.434 114.8638
167.500000 90.372 114.6718
170.000000 90.275 114.3566
172.500000 90.196 114.1610
175.000000 90.152 113.6378
177.500000 90.064 113.0919
180.000000 89.949 112.8255
182.500000 89.827 112.9855
185.000000 89.767 113.2028
187.500000 89.713 113.1529
190.000000 89.644 113.1923
192.500000 89.603 113.1755
195.000000 89.570 112.7469
197.500000 89.525 112.1570
200.000000 89.488 111.7046
203.000000 89.446 111.3395
206.000000 89.374 110.9408
209.000000 89.285 110.5281
212.000000 89.222 110.3706
214.000000 89.200 110.4088
218.000000 89.169 110.4722
220.000000 89.143 110.4877
224.000000 89.078 110.5036
227.000000 89.024 110.2780
230.000000 88.972 109.9246
233.000000 88.928 109.7575
236.000000 88.899 109.6982
240.000000 88.853 109.4448
243.000000 88.810 109.2278
247.000000 88.760 108.9486
250.000000 88.731 108.7018
254.000000 88.721 108.3688
258.000000 88.724 108.1370
262.000000 88.696 108.0159
265.000000 88.651 107.8492
269.000000 88.575 107.5655
272.000000 88.522 107.3195
276.000000 88.496 106.8603
280.000000 88.528 106.3194
285.000000 88.570 105.7692
290.000000 88.577 105.4633
295.000000 88.532 105.4069
300.000000 88.522 105.2803
304.000000 88.535 105.0174
307.000000 88.542 104.7852
311.000000 88.545 104.5298
315.000000 88.551 104.2737
320.000000 88.548 103.9584
325.000000 88.532 103.6028
330.000000 88.544 103.0988
335.000000 88.566 102.6043
340.000000 88.579 102.2394
345.000000 88.583 101.8659
350.000000 88.583 101.4017
355.000000 88.587 100.9763
360.000000 88.603 100.5843
365.000000 88.613 100.1510
370.000000 88.621 99.7085
375.000000 88.635 99.2928
382.000000 88.653 98.7610
387.000000 88.670 98.2817
395.000000 88.676 97.4863
400.000000 88.684 96.9607
406.000000 88.710 96.4287
412.000000 88.727 95.8870
418.000000 88.741 95.3307
425.000000 88.756 94.6804
431.000000 88.772 94.1107
437.000000 88.790 93.5215
444.000000 88.817 92.8008
450.000000 88.836 92.2261
455.000000 88.834 91.8096
462.000000 88.827 91.1437
468.000000 88.837 90.5287
475.000000 88.852 89.8540
482.000000 88.863 89.1877
487.000000 88.871 88.7087
494.000000 88.883 88.0505
500.000000 88.892 87.4970
508.000000 88.902 86.7618
515.000000 88.911 86.1144
522.000000 88.918 85.4749
530.000000 88.924 84.7598
538.000000 88.929 84.0597
545.000000 88.933 83.4519
552.000000 88.936 82.8494
560.000000 88.939 82.1803
570.000000 88.941 81.3701
580.000000 88.940 80.5830
590.000000 88.936 79.8112
600.000000 88.930 79.0735
608.000000 88.923 78.5082
615.000000 88.916 78.0290
622.000000 88.909 77.5487
630.000000 88.898 77.0020
640.000000 88.884 76.3703
650.000000 88.871 75.7967
660.000000 88.859 75.2397
670.000000 88.844 74.7019
680.000000 88.829 74.1979
690.000000 88.817 73.7137
700.000000 88.807 73.2343
710.000000 88.795 72.7729
720.000000 88.781 72.3685
730.000000 88.773 72.0123
740.000000 88.770 71.7031
750.000000 88.769 71.4081
762.000000 88.766 71.0457
775.000000 88.751 70.6792
788.000000 88.750 70.3197
800.000000 88.758 70.0566
812.000000 88.765 69.8186
825.000000 88.776 69.5758
838.000000 88.791 69.3553
850.000000 88.808 69.1681
862.000000 88.826 68.9884
875.000000 88.852 68.8023
885.000000 88.877 68.6844
900.000000 88.914 68.5151
912.000000 88.947 68.3676
925.000000 88.986 68.2148
938.000000 89.030 68.0646
950.000000 89.074 67.9256
962.000000 89.118 67.7760
975.000000 89.164 67.6145
988.000000 89.212 67.4612
1000.000000 89.260 67.3044
1015.000000 89.323 67.0758
1030.000000 89.390 66.8340
1044.000000 89.454 66.6561
1060.000000 89.523 66.4679
1075.000000 89.590 66.2034
1090.000000 89.671 65.9398
1106.000000 89.767 65.6424
1120.000000 89.855 65.3327
1138.000000 89.964 64.9310
1150.000000 90.034 64.6547
1172.000000 90.158 64.1247
1180.000000 90.203 63.9296
1206.000000 90.343 63.3006
1220.000000 90.418 62.9614
1241.000000 90.529 62.4581
1250.000000 90.577 62.2480
1265.000000 90.654 61.9090
1280.000000 90.731 61.5815
1315.000000 90.905 60.8472
1320.000000 90.929 60.7466
1340.000000 91.018 60.3586
1360.000000 91.089 59.9901
1380.000000 91.158 59.6376
1400.000000 91.242 59.3047
1430.000000 91.376 58.8382
1450.000000 91.469 58.5421
1475.000000 91.588 58.1926
1500.000000 91.708 57.8554
1525.000000 91.829 57.5273
1550.000000 91.947 57.2038
1575.000000 92.065 56.8843
1600.000000 92.187 56.5659
1625.000000 92.311 56.2500
1650.000000 92.437 55.9323
1675.000000 92.566 55.6111
1700.000000 92.697 55.2897
1725.000000 92.831 54.9664
1750.000000 92.969 54.6246
1775.000000 93.110 54.2573
1800.000000 93.253 53.8702
1825.000000 93.398 53.4587
1850.000000 93.545 53.0224
1875.000000 93.694 52.5584
1900.000000 93.845 52.0659
1925.000000 93.997 51.5482
1950.000000 94.154 50.9899
1975.000000 94.313 50.3855
2000.000000 94.469 49.7559
2030.000000 94.651 48.9586
2060.000000 94.830 48.1015
2090.000000 95.007 47.1854
2120.000000 95.181 46.2137
2140.000000 95.294 45.5342
2180.000000 95.514 44.1035
2200.000000 95.619 43.3550
2240.000000 95.817 41.7932
2270.000000 95.957 40.5660
2300.000000 96.088 39.2940
2330.000000 96.210 37.9838
2360.000000 96.321 36.6413
2400.000000 96.452 34.8087
2430.000000 96.536 33.4125
2470.000000 96.631 31.5399
2500.000000 96.688 30.1401
2540.000000 96.746 28.2928
2580.000000 96.785 26.4847
2620.000000 96.806 24.7323
2650.000000 96.810 23.4611
2690.000000 96.803 21.8342
2720.000000 96.790 20.6717
2760.000000 96.764 19.2085
2800.000000 96.732 17.8431
2850.000000 96.688 16.2520
2900.000000 96.644 14.7464
2950.000000 96.595 13.3163
3000.000000 96.544 11.9899
3040.000000 96.503 11.0143
3070.000000 96.475 10.3338
3110.000000 96.444 9.4883
3150.000000 96.424 8.6917
3200.000000 96.420 7.7000
3250.000000 96.439 6.6072
3300.000000 96.468 5.3256
3350.000000 96.489 3.8474
3400.000000 96.492 2.2242
3450.000000 96.476 0.5042
3500.000000 96.440 -1.2840
3550.000000 96.380 -3.1245
3600.000000 96.290 -4.9992
3650.000000 96.164 -6.8804
3700.000000 95.998 -8.7355
3750.000000 95.789 -10.5142
3820.000000 95.413 -12.7388
3870.000000 95.083 -14.0215
3950.000000 94.460 -15.2679
4000.000000 94.026 -15.3676
4060.000000 93.484 -14.6227
4120.000000 92.972 -12.8425
4180.000000 92.553 -10.0431
4250.000000 92.263 -5.7835
4310.000000 92.232 -1.7567
4370.000000 92.406 2.1047
4440.000000 92.832 5.8165
4500.000000 93.333 7.9528
4550.000000 93.802 8.8654
4620.000000 94.471 8.7889
4680.000000 94.999 7.5687
4750.000000 95.502 5.0495
4820.000000 95.848 1.6942
4870.000000 95.988 -0.9705
4940.000000 96.038 -4.7291
5000.000000 95.961 -7.7216
5080.000000 95.728 -11.0864
5150.000000 95.444 -13.3105
5220.000000 95.128 -14.8468
5300.000000 94.767 -15.8517
5380.000000 94.436 -16.2087
5450.000000 94.183 -16.1138
5520.000000 93.974 -15.7400
5600.000000 93.797 -15.0952
5700.000000 93.673 -14.0926
5800.000000 93.657 -13.0458
5900.000000 93.734 -12.1069
6000.000000 93.910 -11.4891
6080.000000 94.124 -11.3989
6150.000000 94.356 -11.7321
6220.000000 94.611 -12.5463
6300.000000 94.904 -14.1698
6400.000000 95.221 -17.3735
6500.000000 95.400 -21.8690
6600.000000 95.349 -27.2889
6700.000000 95.004 -32.8731
6800.000000 94.367 -37.6790
6900.000000 93.509 -40.8897
7000.000000 92.531 -42.0100
7100.000000 91.541 -40.8696
7200.000000 90.657 -37.5383
7300.000000 90.011 -32.3181
7400.000000 89.752 -25.8270
7500.000000 90.006 -19.1765
7620.000000 90.987 -13.2394
7750.000000 92.431 -12.1027
7880.000000 93.551 -17.2569
8000.000000 93.949 -25.6043
8120.000000 93.683 -34.3752
8250.000000 92.811 -41.8319
8380.000000 91.593 -46.1553
8500.000000 90.358 -47.4392
8620.000000 89.142 -46.5709
8750.000000 87.930 -43.7744
8850.000000 87.105 -40.6585
9000.000000 86.071 -34.9247
9120.000000 85.421 -29.7640
9250.000000 84.881 -23.8534
9380.000000 84.501 -17.7983
9500.000000 84.276 -12.3024
9620.000000 84.135 -6.8862
9750.000000 84.085 -0.9303
9880.000000 84.183 5.0486
10000.000000 84.411 10.2933
10150.000000 84.841 16.1486
10300.000000 85.379 21.0945
10440.000000 85.948 24.8447
10600.000000 86.641 28.0389
10750.000000 87.283 29.9415
10900.000000 87.867 30.9046
11060.000000 88.396 31.2706
11200.000000 88.793 31.3001
11380.000000 89.205 30.9785
11500.000000 89.399 30.7367
11720.000000 89.644 31.0706
11800.000000 89.731 31.5344
12060.000000 90.158 34.1018
12200.000000 90.546 35.8397
12410.000000 91.430 38.1167
12500.000000 91.938 38.6578
12650.000000 92.955 38.3611
12800.000000 94.103 35.6577
13150.000000 95.977 15.5467
13200.000000 96.003 11.4162
13400.000000 95.324 -4.3190
13600.000000 93.664 -14.4014
13800.000000 91.648 -17.5512
14000.000000 89.819 -15.8030
14300.000000 87.870 -8.3892
14500.000000 87.127 -2.0560
14750.000000 86.808 5.9354
15000.000000 87.137 12.0864
15250.000000 87.778 13.3246
15500.000000 87.837 9.1414
15750.000000 86.709 8.7568
16000.000000 85.664 19.9460
16250.000000 86.630 34.4972
16500.000000 88.871 42.5306
16750.000000 91.122 41.8666
17000.000000 92.832 34.3806
17250.000000 93.855 23.5670
17500.000000 94.374 12.6276
17750.000000 94.688 2.0536
18000.000000 94.850 -10.0093
18250.000000 94.553 -24.2803
18500.000000 93.540 -37.8629
18750.000000 91.985 -46.7291
19000.000000 90.362 -49.6530
19250.000000 88.973 -48.0807
19500.000000 87.798 -44.1311
19750.000000 86.801 -39.5546
20000.000000 85.955 -35.7487
20300.000000 85.052 -33.5881
20600.000000 84.045 -34.1060
20900.000000 82.575 -35.4761
21200.000000 80.533 -34.9036
21400.000000 78.937 -32.7789
21800.000000 75.540 -26.2186
22000.000000 73.797 -23.4022
22400.000000 69.883 -23.3071
22700.000000 66.145 -48.2240
23000.000000 61.393 133.0560
23300.000000 55.488 114.9520
23600.000000 48.423 29.2288
24000.000000 38.213 -26.0244
