* Measurement data measured by REW V5.20.13
* Source: Headset (DS by VECLAN.COM), MICROPHONE (Master Volume), L, volume: 0.880. Timing signal peak level -15.9 dBFS, measurement signal peak level -14.9 dBFS
* Format: 2M Log Swept Sine, 1 sweep at -12.0 dBFS using an acoustic timing reference
* Dated: Nov 11, 2023 5:06:54 PM
* REW Settings:
*  C-weighting compensation: Off
*  Target level: 75.0 dB
* Note: ; Delay -0.0642 ms (-22 mm, -0.87 in) using estimated IR delay relative to Acoustic reference played from HEADPHONE R with no timing offset
* Measurement: Tanchjim Hana 2021 R
* Smoothing: 1/24 octave
* Frequency Step: 1/48 octave
* Start Frequency: 1.000 Hz
*
* Freq(Hz) SPL(dB) Phase(degrees)
1.000000 69.421 -8.9157
1.015000 69.741 -9.6552
1.030000 70.057 -10.3701
1.044000 70.346 -11.0129
1.060000 70.668 -11.7156
1.075000 70.961 -12.3408
1.090000 71.244 -12.9307
1.106000 71.536 -13.5182
1.120000 71.790 -13.9960
1.138000 72.115 -14.5640
1.150000 72.331 -14.9159
1.172000 72.725 -15.5109
1.180000 72.867 -15.7125
1.206000 73.328 -16.3203
1.220000 73.573 -16.6212
1.241000 73.938 -17.0441
1.250000 74.093 -17.2165
1.265000 74.349 -17.4943
1.280000 74.602 -17.7626
1.315000 75.179 -18.3673
1.320000 75.260 -18.4527
1.340000 75.580 -18.7963
1.360000 75.892 -19.1476
1.380000 76.196 -19.5134
1.400000 76.492 -19.9001
1.430000 76.919 -20.5339
1.450000 77.191 -21.0019
1.475000 77.517 -21.6462
1.500000 77.825 -22.3326
1.525000 78.117 -23.0499
1.550000 78.393 -23.7932
1.575000 78.656 -24.5574
1.600000 78.907 -25.3375
1.625000 79.147 -26.1287
1.650000 79.377 -26.9259
1.675000 79.600 -27.7242
1.700000 79.816 -28.5185
1.725000 80.027 -29.3040
1.750000 80.234 -30.0755
1.775000 80.439 -30.8282
1.800000 80.643 -31.5571
1.825000 80.847 -32.2571
1.850000 81.051 -32.9275
1.875000 81.247 -33.5766
1.900000 81.437 -34.2074
1.925000 81.622 -34.8222
1.950000 81.800 -35.4236
1.975000 81.975 -36.0139
2.000000 82.145 -36.5957
2.030000 82.344 -37.2861
2.060000 82.539 -37.9721
2.090000 82.732 -38.6578
2.120000 82.922 -39.3475
2.140000 83.048 -39.8117
2.180000 83.299 -40.7562
2.200000 83.425 -41.2389
2.240000 83.676 -42.2178
2.270000 83.861 -42.9590
2.300000 84.043 -43.7046
2.330000 84.223 -44.4531
2.360000 84.401 -45.2029
2.400000 84.633 -46.2024
2.430000 84.804 -46.9498
2.470000 85.026 -47.9407
2.500000 85.190 -48.6777
2.540000 85.403 -49.6492
2.580000 85.610 -50.6064
2.620000 85.811 -51.5594
2.650000 85.957 -52.2721
2.690000 86.147 -53.2176
2.720000 86.286 -53.9220
2.760000 86.467 -54.8529
2.800000 86.644 -55.7722
2.850000 86.858 -56.9016
2.900000 87.067 -58.0047
2.950000 87.271 -59.0774
3.000000 87.467 -60.1208
3.040000 87.619 -60.9368
3.070000 87.731 -61.5390
3.110000 87.875 -62.3301
3.150000 88.017 -63.1094
3.200000 88.189 -64.0693
3.250000 88.356 -65.0165
3.300000 88.520 -65.9542
3.350000 88.679 -66.8862
3.400000 88.832 -67.8101
3.450000 88.981 -68.7213
3.500000 89.125 -69.6151
3.550000 89.265 -70.4867
3.600000 89.403 -71.3313
3.650000 89.539 -72.1442
3.700000 89.672 -72.9208
3.750000 89.801 -73.6617
3.820000 89.977 -74.6500
3.870000 90.099 -75.3288
3.950000 90.291 -76.3839
4.000000 90.411 -77.0329
4.060000 90.553 -77.8076
4.120000 90.693 -78.5660
4.180000 90.831 -79.3067
4.250000 90.991 -80.1500
4.310000 91.126 -80.8562
4.370000 91.261 -81.5482
4.440000 91.419 -82.3340
4.500000 91.553 -82.9812
4.550000 91.664 -83.5071
4.620000 91.820 -84.2323
4.680000 91.952 -84.8523
4.750000 92.105 -85.5851
4.820000 92.258 -86.3302
4.870000 92.367 -86.8628
4.940000 92.519 -87.6101
5.000000 92.648 -88.2534
5.080000 92.817 -89.1170
5.150000 92.962 -89.8799
5.220000 93.105 -90.6486
5.300000 93.267 -91.5334
5.380000 93.424 -92.4248
5.450000 93.558 -93.2103
5.520000 93.688 -94.0013
5.600000 93.832 -94.9166
5.700000 94.005 -96.0711
5.800000 94.171 -97.2253
5.900000 94.327 -98.3696
6.000000 94.474 -99.5156
6.080000 94.586 -100.4276
6.150000 94.680 -101.2152
6.220000 94.770 -101.9876
6.300000 94.867 -102.8536
6.400000 94.982 -103.9178
6.500000 95.090 -104.9537
6.600000 95.192 -105.9529
6.700000 95.289 -106.9152
6.800000 95.381 -107.8434
6.900000 95.469 -108.7368
7.000000 95.556 -109.5936
7.100000 95.639 -110.4096
7.200000 95.721 -111.1925
7.300000 95.802 -111.9521
7.400000 95.884 -112.6911
7.500000 95.964 -113.4030
7.620000 96.061 -114.2352
7.750000 96.165 -115.1258
7.880000 96.270 -115.9970
8.000000 96.365 -116.7929
8.120000 96.458 -117.5915
8.250000 96.558 -118.4562
8.380000 96.654 -119.3174
8.500000 96.738 -120.1096
8.620000 96.819 -120.9013
8.750000 96.902 -121.7473
8.850000 96.962 -122.3844
9.000000 97.046 -123.3247
9.120000 97.109 -124.0544
9.250000 97.176 -124.8143
9.380000 97.241 -125.5462
9.500000 97.297 -126.1990
9.620000 97.351 -126.8280
9.750000 97.406 -127.4831
9.880000 97.457 -128.1235
10.000000 97.497 -128.7041
10.150000 97.541 -129.4142
10.300000 97.580 -130.1230
10.440000 97.610 -130.7802
10.600000 97.642 -131.5390
10.750000 97.672 -132.2693
10.900000 97.700 -133.0143
11.060000 97.726 -133.8314
11.200000 97.746 -134.5687
11.380000 97.765 -135.5174
11.500000 97.772 -136.1488
11.720000 97.775 -137.2849
11.800000 97.774 -137.6831
12.060000 97.761 -138.9270
12.200000 97.751 -139.5528
12.410000 97.733 -140.4337
12.500000 97.725 -140.7864
12.650000 97.710 -141.3402
12.800000 97.695 -141.8592
13.150000 97.669 -142.9479
13.200000 97.666 -143.0949
13.400000 97.661 -143.6587
13.600000 97.663 -144.2119
13.800000 97.672 -144.7617
14.000000 97.684 -145.3347
14.300000 97.708 -146.2498
14.500000 97.723 -146.9093
14.750000 97.734 -147.7736
15.000000 97.735 -148.6688
15.250000 97.724 -149.5519
15.500000 97.700 -150.3591
15.750000 97.668 -151.0529
16.000000 97.634 -151.5839
16.250000 97.612 -151.9765
16.500000 97.611 -152.2696
16.750000 97.638 -152.5336
17.000000 97.691 -152.8800
17.250000 97.760 -153.3536
17.500000 97.835 -154.0066
17.750000 97.896 -154.8069
18.000000 97.937 -155.6966
18.250000 97.953 -156.6096
18.500000 97.949 -157.4375
18.750000 97.932 -158.1489
19.000000 97.911 -158.7156
19.250000 97.900 -159.1675
19.500000 97.901 -159.5565
19.750000 97.914 -159.9230
20.000000 97.936 -160.3220
20.299999 97.966 -160.8489
20.600000 97.993 -161.4190
20.900000 98.016 -162.0074
21.200001 98.036 -162.6003
21.400000 98.049 -163.0115
21.799999 98.068 -163.9060
22.000000 98.069 -164.3927
22.400000 98.041 -165.4004
22.700001 97.989 -166.0717
23.000000 97.918 -166.5343
23.299999 97.849 -166.7225
23.600000 97.808 -166.6761
24.000000 97.827 -166.4595
24.299999 97.900 -166.4292
24.700001 98.047 -166.8378
25.000000 98.159 -167.5483
25.400000 98.271 -168.9425
25.799999 98.315 -170.5960
26.200001 98.289 -172.2357
26.500000 98.235 -173.3307
26.900000 98.132 -174.5154
27.200001 98.049 -175.1718
27.600000 97.948 -175.7667
28.000000 97.877 -176.1625
28.500000 97.827 -176.6270
29.000000 97.782 -177.1951
29.500000 97.707 -177.6884
30.000000 97.617 -177.7997
30.400000 97.571 -177.5918
30.700001 97.567 -177.3651
31.100000 97.598 -177.1561
31.500000 97.650 -177.1668
32.000000 97.705 -177.4659
32.500000 97.735 -177.9138
33.000000 97.747 -178.4115
33.500000 97.746 -178.9863
34.000000 97.724 -179.6283
34.500000 97.680 179.7667
35.000000 97.628 179.2675
35.500000 97.583 178.8228
36.000000 97.545 178.3458
36.500000 97.501 177.8430
37.000000 97.451 177.4056
37.500000 97.408 177.0854
38.200001 97.384 176.7188
38.700001 97.388 176.3806
39.500000 97.394 175.6397
40.000000 97.382 175.1525
40.599998 97.355 174.6618
41.200001 97.330 174.2941
41.799999 97.316 173.9655
42.500000 97.305 173.5079
43.099998 97.284 173.0424
43.700001 97.244 172.5938
44.400002 97.186 172.1860
45.000000 97.143 171.9153
45.500000 97.115 171.6780
46.200001 97.079 171.2852
46.799999 97.047 170.9360
47.500000 97.018 170.5429
48.200001 97.000 170.0872
48.700001 96.985 169.7103
49.400002 96.953 169.2026
50.000000 96.925 168.8510
50.799999 96.902 168.4254
51.500000 96.883 167.9795
52.200001 96.845 167.5123
53.000000 96.779 167.1429
53.799999 96.724 166.9562
54.500000 96.695 166.7408
55.200001 96.660 166.3873
56.000000 96.594 165.9755
57.000000 96.513 165.6324
58.000000 96.459 165.1731
59.000000 96.375 164.6354
60.000000 96.299 164.4772
60.799999 96.291 164.3362
61.500000 96.286 164.0208
62.200001 96.262 163.6968
63.000000 96.232 163.4489
64.000000 96.216 163.1094
65.000000 96.186 162.5941
66.000000 96.117 162.1473
67.000000 96.053 162.0244
68.000000 96.040 161.8609
69.000000 96.015 161.3387
70.000000 95.925 160.8704
71.000000 95.820 160.7682
72.000000 95.745 160.7850
73.000000 95.683 160.6877
74.000000 95.625 160.4892
75.000000 95.568 160.1590
76.199997 95.494 159.7501
77.500000 95.450 159.3734
78.800003 95.422 158.8158
80.000000 95.367 158.4122
81.199997 95.314 158.2008
82.500000 95.245 157.9828
83.800003 95.160 157.8216
85.000000 95.086 157.6287
86.199997 95.008 157.3203
87.500000 94.911 156.9500
88.500000 94.822 156.7863
90.000000 94.722 156.9308
91.199997 94.693 157.0422
92.500000 94.686 156.9698
93.800003 94.666 156.6709
95.000000 94.632 156.3883
96.199997 94.590 156.0771
97.500000 94.526 155.7544
98.800003 94.443 155.5350
100.000000 94.369 155.4597
101.500000 94.293 155.3536
103.000000 94.223 155.2397
104.400002 94.174 155.1142
106.000000 94.109 154.9342
107.500000 94.047 154.9230
109.000000 93.984 154.8304
110.599998 93.888 154.9126
112.000000 93.849 155.0800
113.800003 93.798 154.7479
115.000000 93.723 154.4927
117.199997 93.552 154.2593
118.000000 93.495 154.3316
120.599998 93.421 154.4873
122.000000 93.379 154.4205
124.099998 93.283 154.3561
125.000000 93.225 154.3190
126.500000 93.136 154.2444
128.000000 93.102 153.9084
131.500000 93.109 152.1670
132.000000 93.111 152.0380
134.000000 93.111 152.2278
136.000000 93.158 153.1322
138.000000 93.160 153.1207
140.000000 92.956 152.7638
143.000000 92.701 153.1572
145.000000 92.611 153.0759
147.500000 92.463 153.4152
150.000000 92.393 154.1432
152.500000 92.369 154.4370
155.000000 92.297 154.5274
157.500000 92.189 154.6845
160.000000 92.108 154.8979
162.500000 92.051 154.8991
165.000000 91.982 155.0738
167.500000 91.939 155.3426
170.000000 91.900 155.3803
172.500000 91.816 155.4303
175.000000 91.698 155.7667
177.500000 91.596 155.9285
180.000000 91.509 155.6167
182.500000 91.443 155.2928
185.000000 91.423 155.3218
187.500000 91.423 155.4121
190.000000 91.364 155.4233
192.500000 91.245 155.7765
195.000000 91.146 156.5548
197.500000 91.115 157.2039
200.000000 91.094 157.3442
203.000000 91.022 157.2904
206.000000 90.921 157.2628
209.000000 90.846 157.3823
212.000000 90.811 157.7383
214.000000 90.783 158.0546
218.000000 90.684 158.5247
220.000000 90.630 158.6400
224.000000 90.547 158.8323
227.000000 90.457 159.0191
230.000000 90.370 159.4064
233.000000 90.329 159.8900
236.000000 90.310 160.2372
240.000000 90.250 160.2950
243.000000 90.172 160.2955
247.000000 90.119 160.6146
250.000000 90.115 160.8647
254.000000 90.060 161.3217
258.000000 89.978 162.0019
262.000000 89.904 162.6564
265.000000 89.849 162.8734
269.000000 89.783 162.9531
272.000000 89.751 163.2063
276.000000 89.707 163.5835
280.000000 89.641 163.7880
285.000000 89.569 164.2005
290.000000 89.521 164.6262
295.000000 89.469 165.1602
300.000000 89.401 165.8033
304.000000 89.350 166.1651
307.000000 89.309 166.4089
311.000000 89.262 166.7945
315.000000 89.223 167.2099
320.000000 89.174 167.6581
325.000000 89.126 167.9928
330.000000 89.080 168.3899
335.000000 89.025 168.9514
340.000000 88.996 169.5594
345.000000 88.979 170.1422
350.000000 88.946 170.6203
355.000000 88.902 170.9834
360.000000 88.857 171.3496
365.000000 88.835 171.8250
370.000000 88.793 172.3012
375.000000 88.731 172.7918
382.000000 88.678 173.6477
387.000000 88.658 174.0472
395.000000 88.625 174.4555
400.000000 88.577 174.8921
406.000000 88.518 175.5902
412.000000 88.455 176.2267
418.000000 88.375 176.7651
425.000000 88.327 177.4973
431.000000 88.332 178.1469
437.000000 88.318 178.7458
444.000000 88.279 179.5515
450.000000 88.255 -179.8020
455.000000 88.227 -179.4853
462.000000 88.175 -179.1861
468.000000 88.170 -178.6525
475.000000 88.125 -177.6430
482.000000 88.064 -177.1415
487.000000 88.053 -176.8384
494.000000 88.050 -176.1659
500.000000 88.042 -175.7538
508.000000 88.022 -175.1999
515.000000 87.999 -174.4727
522.000000 87.983 -173.8178
530.000000 87.979 -173.1043
538.000000 87.963 -172.2324
545.000000 87.933 -171.5968
552.000000 87.911 -171.1780
560.000000 87.904 -170.5353
570.000000 87.900 -169.4420
580.000000 87.889 -168.4504
590.000000 87.904 -167.3968
600.000000 87.909 -166.4066
608.000000 87.875 -165.7029
615.000000 87.846 -165.1457
622.000000 87.839 -164.6282
630.000000 87.842 -163.9425
640.000000 87.838 -163.0143
650.000000 87.843 -162.0055
660.000000 87.833 -161.0407
670.000000 87.816 -160.2888
680.000000 87.828 -159.5370
690.000000 87.835 -158.6128
700.000000 87.852 -157.7924
710.000000 87.896 -156.9182
720.000000 87.921 -155.8103
730.000000 87.909 -154.7813
740.000000 87.907 -154.0993
750.000000 87.938 -153.5018
762.000000 87.979 -152.4495
775.000000 88.016 -150.9564
788.000000 88.044 -149.8089
800.000000 88.068 -148.8745
812.000000 88.101 -147.8401
825.000000 88.149 -146.7055
838.000000 88.193 -145.5070
850.000000 88.219 -144.4376
862.000000 88.261 -143.4453
875.000000 88.323 -142.3993
885.000000 88.378 -141.6011
900.000000 88.460 -140.4005
912.000000 88.519 -139.4010
925.000000 88.586 -138.3469
938.000000 88.661 -137.3651
950.000000 88.731 -136.4531
962.000000 88.801 -135.5234
975.000000 88.876 -134.5021
988.000000 88.959 -133.4837
1000.000000 89.045 -132.5775
1015.000000 89.163 -131.4959
1030.000000 89.286 -130.4530
1044.000000 89.395 -129.5509
1060.000000 89.519 -128.5795
1075.000000 89.638 -127.6752
1090.000000 89.768 -126.8128
1106.000000 89.921 -125.9688
1120.000000 90.066 -125.2650
1138.000000 90.253 -124.4218
1150.000000 90.377 -123.9055
1172.000000 90.605 -123.0182
1180.000000 90.687 -122.7213
1206.000000 90.957 -121.8469
1220.000000 91.108 -121.4710
1241.000000 91.326 -121.0669
1250.000000 91.414 -120.9292
1265.000000 91.553 -120.7289
1280.000000 91.680 -120.5309
1315.000000 91.939 -120.0515
1320.000000 91.972 -119.9817
1340.000000 92.097 -119.6856
1360.000000 92.198 -119.3647
1380.000000 92.295 -119.0263
1400.000000 92.401 -118.6723
1430.000000 92.565 -118.0921
1450.000000 92.674 -117.6917
1475.000000 92.808 -117.1736
1500.000000 92.940 -116.6372
1525.000000 93.070 -116.0892
1550.000000 93.199 -115.5405
1575.000000 93.330 -115.0146
1600.000000 93.458 -114.4753
1625.000000 93.583 -113.9352
1650.000000 93.714 -113.4256
1675.000000 93.846 -112.9268
1700.000000 93.978 -112.4268
1725.000000 94.113 -111.9447
1750.000000 94.250 -111.4914
1775.000000 94.385 -111.0735
1800.000000 94.514 -110.6573
1825.000000 94.638 -110.2486
1850.000000 94.761 -109.8785
1875.000000 94.878 -109.5139
1900.000000 94.987 -109.1322
1925.000000 95.094 -108.7277
1950.000000 95.200 -108.2612
1975.000000 95.307 -107.6951
2000.000000 95.429 -106.9873
2030.000000 95.625 -106.0484
2060.000000 95.885 -105.3373
2090.000000 96.166 -105.1324
2120.000000 96.410 -105.3537
2140.000000 96.543 -105.6028
2180.000000 96.762 -106.0700
2200.000000 96.858 -106.2186
2240.000000 97.048 -106.3624
2270.000000 97.208 -106.4885
2300.000000 97.378 -106.7595
2330.000000 97.535 -107.2093
2360.000000 97.668 -107.7704
2400.000000 97.807 -108.5352
2430.000000 97.892 -109.0777
2470.000000 97.994 -109.7648
2500.000000 98.065 -110.2922
2540.000000 98.142 -110.9995
2580.000000 98.194 -111.7052
2620.000000 98.230 -112.3819
2650.000000 98.248 -112.8745
2690.000000 98.259 -113.5044
2720.000000 98.254 -113.9324
2760.000000 98.233 -114.4514
2800.000000 98.200 -114.8820
2850.000000 98.149 -115.2665
2900.000000 98.102 -115.5880
2950.000000 98.056 -115.9664
3000.000000 97.986 -116.3906
3040.000000 97.905 -116.7226
3070.000000 97.831 -116.9534
3110.000000 97.712 -117.1841
3150.000000 97.563 -117.2679
3200.000000 97.340 -117.0116
3250.000000 97.108 -116.1623
3300.000000 96.927 -114.8022
3350.000000 96.824 -113.2678
3400.000000 96.780 -111.8529
3450.000000 96.764 -110.5987
3500.000000 96.761 -109.4292
3550.000000 96.763 -108.2541
3600.000000 96.781 -107.0618
3650.000000 96.830 -105.9401
3700.000000 96.897 -104.9570
3750.000000 96.965 -104.1192
3820.000000 97.046 -103.1317
3870.000000 97.089 -102.4958
3950.000000 97.133 -101.4831
4000.000000 97.154 -100.8151
4060.000000 97.175 -99.9550
4120.000000 97.196 -99.0235
4180.000000 97.225 -98.0031
4250.000000 97.283 -96.7352
4310.000000 97.361 -95.6884
4370.000000 97.456 -94.7588
4440.000000 97.581 -93.8748
4500.000000 97.696 -93.3185
4550.000000 97.793 -93.0059
4620.000000 97.923 -92.7848
4680.000000 98.021 -92.7730
4750.000000 98.109 -92.9214
4820.000000 98.171 -93.2253
4870.000000 98.202 -93.5316
4940.000000 98.220 -94.0490
5000.000000 98.210 -94.5504
5080.000000 98.157 -95.2606
5150.000000 98.076 -95.8818
5220.000000 97.968 -96.4910
5300.000000 97.809 -97.1269
5380.000000 97.604 -97.6466
5450.000000 97.395 -97.9810
5520.000000 97.167 -98.1792
5600.000000 96.886 -98.2095
5700.000000 96.502 -97.9208
5800.000000 96.096 -97.2720
5900.000000 95.682 -96.2742
6000.000000 95.262 -94.9327
6080.000000 94.920 -93.5721
6150.000000 94.624 -92.1583
6220.000000 94.336 -90.5277
6300.000000 94.022 -88.3943
6400.000000 93.663 -85.3634
6500.000000 93.364 -82.0027
6600.000000 93.138 -78.4116
6700.000000 92.987 -74.6826
6800.000000 92.919 -70.9161
6900.000000 92.954 -67.2201
7000.000000 93.085 -63.6715
7100.000000 93.294 -60.3506
7200.000000 93.581 -57.3530
7300.000000 93.943 -54.7964
7400.000000 94.364 -52.7992
7500.000000 94.833 -51.4845
7620.000000 95.447 -51.0196
7750.000000 96.114 -52.1796
7880.000000 96.604 -55.2928
8000.000000 96.804 -59.7790
8120.000000 96.689 -65.2431
8250.000000 96.167 -71.1220
8380.000000 95.273 -75.7090
8500.000000 94.212 -78.1337
8620.000000 93.038 -78.7517
8750.000000 91.742 -77.6285
8850.000000 90.772 -75.7406
9000.000000 89.407 -71.6413
9120.000000 88.401 -67.5182
9250.000000 87.407 -62.4234
9380.000000 86.499 -56.7952
9500.000000 85.730 -51.2155
9620.000000 85.034 -45.3427
9750.000000 84.359 -38.6966
9880.000000 83.762 -31.8034
10000.000000 83.274 -25.2454
10150.000000 82.737 -16.7831
10300.000000 82.283 -8.0214
10440.000000 81.937 0.4464
10600.000000 81.633 10.5275
10750.000000 81.449 20.4635
10900.000000 81.398 30.9639
11060.000000 81.554 42.8635
11200.000000 81.950 53.8146
11380.000000 82.978 68.0587
11500.000000 84.043 76.9442
11720.000000 86.631 89.5428
11800.000000 87.674 92.4381
12060.000000 91.036 95.3493
12200.000000 92.795 93.2603
12410.000000 95.290 84.4231
12500.000000 96.168 77.6918
12650.000000 97.046 62.1665
12800.000000 96.905 44.0543
13150.000000 93.040 18.5896
13200.000000 92.295 17.6946
13400.000000 89.420 18.6460
13600.000000 87.016 24.0079
13800.000000 85.134 31.5506
14000.000000 83.685 40.2230
14300.000000 82.123 54.3224
14500.000000 81.423 64.1093
14750.000000 80.902 76.4001
15000.000000 80.764 88.3504
15250.000000 81.054 99.4807
15500.000000 81.857 108.9257
15750.000000 83.166 115.2118
16000.000000 84.709 115.8161
16250.000000 85.831 108.2074
16500.000000 85.750 94.6878
16750.000000 84.242 83.6185
17000.000000 81.817 80.4778
17250.000000 79.217 84.1980
17500.000000 76.915 91.9049
17750.000000 75.024 101.6125
18000.000000 73.493 112.2287
18250.000000 72.277 123.1439
18500.000000 71.400 133.9790
18750.000000 70.926 144.4190
19000.000000 70.784 154.2115
19250.000000 70.684 163.2426
19500.000000 70.337 171.4523
19750.000000 69.669 178.9860
20000.000000 68.661 -173.5985
20300.000000 67.050 -163.1547
20600.000000 65.386 -149.7581
20900.000000 64.009 -138.7668
21200.000000 62.970 -174.9860
21400.000000 62.461 26.0237
21800.000000 61.299 -8.2002
22000.000000 60.013 7.3838
22400.000000 55.048 -25.7617
22700.000000 50.141 -32.0254
23000.000000 46.792 118.5586
23300.000000 46.480 43.0000
23600.000000 48.381 93.9531
24000.000000 51.033 -49.9766
