* Measurement data measured by REW V5.31.1
* Source: Headset (DS by VECLAN.COM), MICROPHONE (Master Volume), L, volume: 0.720. Timing signal peak level -14.9 dBFS, measurement signal peak level -14.8 dBFS
* Format: 2M Log Swept Sine, 1 sweep at -12.0 dBFS using an acoustic timing reference
* Dated: Jul 16, 2024 9:29:03 PM
* REW Settings:
*  C-weighting compensation: Off
*  Target level: 85.0 dB
* Note: ; Delay -0.0701 ms (-24 mm, -0.95 in) using estimated IR delay relative to Acoustic reference played from HEADPHONE R with no timing offset
* Measurement: Atmosphere R
* Smoothing: 1/24 octave
* Frequency Step: 1/48 octave
* Start Frequency: 1.000 Hz
*
* Freq(Hz), SPL(dB), Phase(degrees)
1.000000, 74.087, -16.4665
1.015000, 74.330, -17.7181
1.030000, 74.574, -18.9747
1.044000, 74.802, -20.1533
1.060000, 75.064, -21.5081
1.075000, 75.311, -22.7865
1.090000, 75.558, -24.0707
1.106000, 75.825, -25.4307
1.120000, 76.065, -26.5840
1.138000, 76.384, -27.9967
1.150000, 76.602, -28.8940
1.172000, 77.014, -30.4579
1.180000, 77.167, -31.0065
1.206000, 77.672, -32.6988
1.220000, 77.948, -33.5576
1.241000, 78.364, -34.7845
1.250000, 78.543, -35.2898
1.265000, 78.840, -36.1074
1.280000, 79.137, -36.8970
1.315000, 79.818, -38.6472
1.320000, 79.913, -38.8882
1.340000, 80.289, -39.8335
1.360000, 80.654, -40.7517
1.380000, 81.004, -41.6870
1.400000, 81.338, -42.6204
1.430000, 81.803, -43.9976
1.450000, 82.085, -44.9038
1.475000, 82.405, -46.0095
1.500000, 82.691, -47.0430
1.525000, 82.946, -47.9904
1.550000, 83.175, -48.8604
1.575000, 83.381, -49.6856
1.600000, 83.568, -50.4940
1.625000, 83.738, -51.2565
1.650000, 83.895, -51.9821
1.675000, 84.042, -52.6791
1.700000, 84.183, -53.3547
1.725000, 84.322, -54.0155
1.750000, 84.462, -54.6672
1.775000, 84.605, -55.3316
1.800000, 84.756, -56.0292
1.825000, 84.916, -56.7260
1.850000, 85.083, -57.4097
1.875000, 85.252, -58.0612
1.900000, 85.419, -58.6764
1.925000, 85.585, -59.2585
1.950000, 85.749, -59.8112
1.975000, 85.912, -60.3555
2.000000, 86.073, -60.9117
2.030000, 86.263, -61.5557
2.060000, 86.452, -62.1820
2.090000, 86.638, -62.7968
2.120000, 86.821, -63.4054
2.140000, 86.942, -63.8103
2.180000, 87.179, -64.6434
2.200000, 87.296, -65.0796
2.240000, 87.526, -65.9333
2.270000, 87.695, -66.5472
2.300000, 87.861, -67.1385
2.330000, 88.025, -67.7094
2.360000, 88.186, -68.2627
2.400000, 88.397, -69.0258
2.430000, 88.553, -69.5916
2.470000, 88.757, -70.3335
2.500000, 88.907, -70.8843
2.540000, 89.104, -71.6162
2.580000, 89.297, -72.3638
2.620000, 89.486, -73.1366
2.650000, 89.626, -73.7028
2.690000, 89.808, -74.4400
2.720000, 89.942, -74.9798
2.760000, 90.117, -75.6816
2.800000, 90.288, -76.4067
2.850000, 90.497, -77.3001
2.900000, 90.700, -78.1779
2.950000, 90.897, -79.0458
3.000000, 91.088, -79.9350
3.040000, 91.237, -80.6467
3.070000, 91.346, -81.1723
3.110000, 91.488, -81.8606
3.150000, 91.626, -82.5343
3.200000, 91.795, -83.3867
3.250000, 91.959, -84.2322
3.300000, 92.120, -85.0601
3.350000, 92.275, -85.8766
3.400000, 92.426, -86.7172
3.450000, 92.571, -87.5578
3.500000, 92.713, -88.3797
3.550000, 92.850, -89.1791
3.600000, 92.983, -89.9811
3.650000, 93.112, -90.7717
3.700000, 93.237, -91.5465
3.750000, 93.358, -92.3128
3.820000, 93.520, -93.4030
3.870000, 93.631, -94.1705
3.950000, 93.802, -95.3553
4.000000, 93.906, -96.0875
4.060000, 94.027, -96.9522
4.120000, 94.143, -97.8007
4.180000, 94.255, -98.6411
4.250000, 94.381, -99.6287
4.310000, 94.485, -100.4454
4.370000, 94.586, -101.2364
4.440000, 94.699, -102.1613
4.500000, 94.792, -102.9375
4.550000, 94.867, -103.5719
4.620000, 94.969, -104.4652
4.680000, 95.053, -105.2127
4.750000, 95.149, -106.0527
4.820000, 95.242, -106.8870
4.870000, 95.307, -107.4747
4.940000, 95.394, -108.2787
5.000000, 95.468, -108.9643
5.080000, 95.562, -109.8615
5.150000, 95.642, -110.6182
5.220000, 95.720, -111.3764
5.300000, 95.806, -112.2293
5.380000, 95.888, -113.0600
5.450000, 95.959, -113.7841
5.520000, 96.027, -114.4861
5.600000, 96.104, -115.2790
5.700000, 96.196, -116.2606
5.800000, 96.285, -117.2166
5.900000, 96.370, -118.1588
6.000000, 96.452, -119.0827
6.080000, 96.515, -119.8198
6.150000, 96.568, -120.4464
6.220000, 96.620, -121.0728
6.300000, 96.677, -121.7753
6.400000, 96.746, -122.6403
6.500000, 96.812, -123.4961
6.600000, 96.875, -124.3280
6.700000, 96.935, -125.1497
6.800000, 96.993, -125.9538
6.900000, 97.047, -126.7454
7.000000, 97.100, -127.5129
7.100000, 97.151, -128.2683
7.200000, 97.199, -129.0053
7.300000, 97.246, -129.7294
7.400000, 97.290, -130.4339
7.500000, 97.333, -131.1309
7.620000, 97.382, -131.9440
7.750000, 97.433, -132.7965
7.880000, 97.482, -133.6299
8.000000, 97.525, -134.3734
8.120000, 97.566, -135.0997
8.250000, 97.609, -135.8673
8.380000, 97.651, -136.6115
8.500000, 97.687, -137.2834
8.620000, 97.723, -137.9374
8.750000, 97.759, -138.6263
8.850000, 97.787, -139.1432
9.000000, 97.827, -139.8932
9.120000, 97.857, -140.4774
9.250000, 97.890, -141.0957
9.380000, 97.922, -141.6955
9.500000, 97.951, -142.2387
9.620000, 97.980, -142.7657
9.750000, 98.010, -143.3224
9.880000, 98.032, -143.8710
10.000000, 98.043, -144.3624
10.150000, 98.047, -144.9971
10.300000, 98.043, -145.6095
10.440000, 98.034, -146.1622
10.600000, 98.021, -146.7729
10.750000, 98.009, -147.3265
10.900000, 97.998, -147.8623
11.060000, 97.987, -148.4406
11.200000, 97.978, -148.9691
11.380000, 97.964, -149.6237
11.500000, 97.953, -150.0442
11.720000, 97.931, -150.7802
11.800000, 97.924, -151.0360
12.060000, 97.902, -151.8481
12.200000, 97.892, -152.3004
12.410000, 97.881, -152.9441
12.500000, 97.876, -153.2077
12.650000, 97.866, -153.6318
12.800000, 97.857, -154.0385
13.150000, 97.837, -154.9831
13.200000, 97.835, -155.1226
13.400000, 97.827, -155.6680
13.600000, 97.820, -156.1950
13.800000, 97.814, -156.7048
14.000000, 97.807, -157.2019
14.300000, 97.796, -157.9933
14.500000, 97.787, -158.4975
14.750000, 97.774, -159.0947
15.000000, 97.761, -159.6568
15.250000, 97.754, -160.2394
15.500000, 97.750, -160.7922
15.750000, 97.746, -161.3175
16.000000, 97.743, -161.8227
16.250000, 97.741, -162.3574
16.500000, 97.738, -162.8788
16.750000, 97.735, -163.3852
17.000000, 97.732, -163.8777
17.250000, 97.729, -164.3802
17.500000, 97.725, -164.8616
17.750000, 97.720, -165.3157
18.000000, 97.714, -165.7447
18.250000, 97.710, -166.1709
18.500000, 97.707, -166.5772
18.750000, 97.705, -166.9658
19.000000, 97.706, -167.3423
19.250000, 97.709, -167.7364
19.500000, 97.712, -168.1252
19.750000, 97.715, -168.5089
20.000000, 97.717, -168.8863
20.299999, 97.717, -169.3570
20.600000, 97.715, -169.8085
20.900000, 97.711, -170.2362
21.200001, 97.705, -170.6580
21.400000, 97.702, -170.9326
21.799999, 97.694, -171.4552
22.000000, 97.690, -171.7082
22.400000, 97.682, -172.2336
22.700001, 97.675, -172.6176
23.000000, 97.668, -172.9932
23.299999, 97.659, -173.3770
23.600000, 97.650, -173.7480
24.000000, 97.637, -174.2193
24.299999, 97.628, -174.5754
24.700001, 97.616, -175.0341
25.000000, 97.608, -175.3675
25.400000, 97.596, -175.8219
25.799999, 97.583, -176.2606
26.200001, 97.569, -176.6902
26.500000, 97.558, -177.0060
26.900000, 97.544, -177.4077
27.200001, 97.535, -177.7026
27.600000, 97.522, -178.0866
28.000000, 97.511, -178.4596
28.500000, 97.496, -178.9315
29.000000, 97.481, -179.3912
29.500000, 97.464, -179.8435
30.000000, 97.446, 179.7288
30.400000, 97.431, 179.3874
30.700001, 97.421, 179.1351
31.100000, 97.405, 178.7969
31.500000, 97.389, 178.4496
32.000000, 97.365, 178.0336
32.500000, 97.340, 177.6306
33.000000, 97.316, 177.2494
33.500000, 97.291, 176.8693
34.000000, 97.268, 176.5030
34.500000, 97.247, 176.1417
35.000000, 97.229, 175.7798
35.500000, 97.211, 175.4005
36.000000, 97.189, 175.0231
36.500000, 97.166, 174.6658
37.000000, 97.147, 174.3240
37.500000, 97.132, 173.9476
38.200001, 97.100, 173.3538
38.700001, 97.061, 172.9678
39.500000, 96.997, 172.5874
40.000000, 96.978, 172.4320
40.599998, 96.973, 172.1631
41.200001, 96.966, 171.7833
41.799999, 96.944, 171.3811
42.500000, 96.910, 170.9831
43.099998, 96.883, 170.7081
43.700001, 96.864, 170.4570
44.400002, 96.849, 170.1333
45.000000, 96.833, 169.8052
45.500000, 96.812, 169.5210
46.200001, 96.778, 169.1577
46.799999, 96.750, 168.8564
47.500000, 96.709, 168.5027
48.200001, 96.659, 168.2564
48.700001, 96.632, 168.1702
49.400002, 96.624, 168.0146
50.000000, 96.625, 167.6931
50.799999, 96.589, 167.1046
51.500000, 96.527, 166.7294
52.200001, 96.477, 166.5123
53.000000, 96.440, 166.2433
53.799999, 96.404, 165.8968
54.500000, 96.372, 165.5805
55.200001, 96.342, 165.2562
56.000000, 96.314, 164.8648
57.000000, 96.278, 164.2115
58.000000, 96.187, 163.5884
59.000000, 96.096, 163.5020
60.000000, 96.074, 163.4843
60.799999, 96.062, 163.2868
61.500000, 96.042, 163.0782
62.200001, 96.017, 162.8599
63.000000, 95.978, 162.6132
64.000000, 95.923, 162.3631
65.000000, 95.871, 162.1141
66.000000, 95.821, 161.8484
67.000000, 95.774, 161.5525
68.000000, 95.724, 161.2281
69.000000, 95.672, 160.9427
70.000000, 95.625, 160.7164
71.000000, 95.581, 160.5225
72.000000, 95.539, 160.3599
73.000000, 95.501, 160.2436
74.000000, 95.468, 160.0908
75.000000, 95.425, 159.8381
76.199997, 95.349, 159.5828
77.500000, 95.282, 159.3705
78.800003, 95.212, 158.9944
80.000000, 95.138, 158.7020
81.199997, 95.069, 158.4988
82.500000, 95.009, 158.3549
83.800003, 94.954, 158.1727
85.000000, 94.896, 157.9932
86.199997, 94.839, 157.8159
87.500000, 94.782, 157.5463
88.500000, 94.740, 157.2556
90.000000, 94.643, 156.8102
91.199997, 94.576, 156.8570
92.500000, 94.560, 156.8555
93.800003, 94.532, 156.6218
95.000000, 94.477, 156.4663
96.199997, 94.419, 156.4199
97.500000, 94.362, 156.3653
98.800003, 94.306, 156.2503
100.000000, 94.248, 156.1545
101.500000, 94.189, 156.1751
103.000000, 94.146, 156.0906
104.400002, 94.093, 155.9683
106.000000, 94.025, 155.8417
107.500000, 93.959, 155.7332
109.000000, 93.894, 155.6083
110.599998, 93.824, 155.4778
112.000000, 93.762, 155.4040
113.800003, 93.689, 155.3336
115.000000, 93.645, 155.2799
117.199997, 93.574, 155.2173
118.000000, 93.552, 155.2003
120.599998, 93.469, 155.0162
122.000000, 93.397, 155.0045
124.099998, 93.300, 155.0939
125.000000, 93.264, 155.0903
126.500000, 93.206, 155.0454
128.000000, 93.152, 154.9960
131.500000, 93.039, 154.9565
132.000000, 93.022, 154.9661
134.000000, 92.955, 155.0121
136.000000, 92.887, 155.0323
138.000000, 92.819, 155.0651
140.000000, 92.759, 155.0957
143.000000, 92.670, 155.1323
145.000000, 92.611, 155.1763
147.500000, 92.539, 155.2659
150.000000, 92.470, 155.3321
152.500000, 92.400, 155.3525
155.000000, 92.334, 155.4623
157.500000, 92.263, 155.6017
160.000000, 92.162, 155.6280
162.500000, 92.054, 155.7256
165.000000, 92.009, 155.8307
167.500000, 91.965, 155.8643
170.000000, 91.884, 156.0587
172.500000, 91.773, 156.2521
175.000000, 91.691, 156.4952
177.500000, 91.654, 156.6424
180.000000, 91.615, 156.8415
182.500000, 91.562, 157.0248
185.000000, 91.499, 157.1389
187.500000, 91.438, 157.2036
190.000000, 91.375, 157.3463
192.500000, 91.313, 157.5967
195.000000, 91.255, 157.9288
197.500000, 91.210, 158.2712
200.000000, 91.179, 158.5303
203.000000, 91.143, 158.7440
206.000000, 91.098, 158.9045
209.000000, 91.048, 159.0360
212.000000, 91.001, 159.1819
214.000000, 90.967, 159.3016
218.000000, 90.885, 159.5669
220.000000, 90.842, 159.7020
224.000000, 90.760, 159.9486
227.000000, 90.701, 160.1166
230.000000, 90.649, 160.3461
233.000000, 90.607, 160.6193
236.000000, 90.551, 160.8810
240.000000, 90.466, 161.3026
243.000000, 90.422, 161.5342
247.000000, 90.365, 161.7698
250.000000, 90.321, 161.9899
254.000000, 90.266, 162.2962
258.000000, 90.212, 162.6038
262.000000, 90.156, 162.8970
265.000000, 90.110, 163.1171
269.000000, 90.050, 163.4226
272.000000, 90.011, 163.6825
276.000000, 89.964, 164.0402
280.000000, 89.919, 164.3644
285.000000, 89.857, 164.7645
290.000000, 89.798, 165.1953
295.000000, 89.747, 165.6368
300.000000, 89.697, 166.0638
304.000000, 89.656, 166.4008
307.000000, 89.626, 166.6699
311.000000, 89.590, 167.0237
315.000000, 89.555, 167.3592
320.000000, 89.510, 167.7673
325.000000, 89.468, 168.2256
330.000000, 89.429, 168.6524
335.000000, 89.389, 169.0559
340.000000, 89.347, 169.4811
345.000000, 89.305, 169.9162
350.000000, 89.263, 170.3648
355.000000, 89.226, 170.8091
360.000000, 89.189, 171.2486
365.000000, 89.153, 171.6609
370.000000, 89.119, 172.0826
375.000000, 89.086, 172.5097
382.000000, 89.039, 173.1187
387.000000, 89.007, 173.5430
395.000000, 88.956, 174.2098
400.000000, 88.926, 174.6569
406.000000, 88.890, 175.2017
412.000000, 88.856, 175.6646
418.000000, 88.821, 176.1292
425.000000, 88.784, 176.7278
431.000000, 88.754, 177.2528
437.000000, 88.724, 177.7581
444.000000, 88.690, 178.3485
450.000000, 88.663, 178.8410
455.000000, 88.641, 179.2690
462.000000, 88.612, 179.8461
468.000000, 88.589, -179.6559
475.000000, 88.563, -179.0903
482.000000, 88.539, -178.5249
487.000000, 88.522, -178.1140
494.000000, 88.501, -177.5305
500.000000, 88.484, -177.0406
508.000000, 88.463, -176.3879
515.000000, 88.446, -175.8164
522.000000, 88.430, -175.2450
530.000000, 88.412, -174.5992
538.000000, 88.395, -173.9560
545.000000, 88.383, -173.3963
552.000000, 88.372, -172.8284
560.000000, 88.360, -172.1842
570.000000, 88.347, -171.3820
580.000000, 88.337, -170.5780
590.000000, 88.329, -169.7673
600.000000, 88.321, -168.9678
608.000000, 88.314, -168.3304
615.000000, 88.309, -167.7660
622.000000, 88.304, -167.2069
630.000000, 88.298, -166.5737
640.000000, 88.292, -165.7703
650.000000, 88.287, -164.9634
660.000000, 88.285, -164.1621
670.000000, 88.284, -163.3590
680.000000, 88.286, -162.5626
690.000000, 88.291, -161.7413
700.000000, 88.299, -160.9373
710.000000, 88.308, -160.1554
720.000000, 88.320, -159.3585
730.000000, 88.334, -158.5660
740.000000, 88.351, -157.7704
750.000000, 88.369, -156.9701
762.000000, 88.394, -156.0218
775.000000, 88.422, -154.9972
788.000000, 88.453, -153.9809
800.000000, 88.485, -153.0594
812.000000, 88.522, -152.1212
825.000000, 88.566, -151.1159
838.000000, 88.615, -150.1329
850.000000, 88.662, -149.2333
862.000000, 88.711, -148.3522
875.000000, 88.768, -147.4138
885.000000, 88.814, -146.6970
900.000000, 88.887, -145.6519
912.000000, 88.948, -144.8393
925.000000, 89.019, -143.9774
938.000000, 89.093, -143.1502
950.000000, 89.163, -142.3996
962.000000, 89.234, -141.6914
975.000000, 89.311, -140.9359
988.000000, 89.388, -140.2167
1000.000000, 89.460, -139.5737
1015.000000, 89.553, -138.8045
1030.000000, 89.646, -138.0833
1044.000000, 89.733, -137.4470
1060.000000, 89.832, -136.7505
1075.000000, 89.924, -136.1317
1090.000000, 90.021, -135.5570
1106.000000, 90.133, -134.9773
1120.000000, 90.232, -134.4998
1138.000000, 90.357, -133.9139
1150.000000, 90.438, -133.5417
1172.000000, 90.581, -132.8932
1180.000000, 90.632, -132.6746
1206.000000, 90.796, -131.9685
1220.000000, 90.888, -131.5990
1241.000000, 91.025, -131.1119
1250.000000, 91.082, -130.8935
1265.000000, 91.172, -130.5243
1280.000000, 91.258, -130.1737
1315.000000, 91.454, -129.3800
1320.000000, 91.480, -129.2655
1340.000000, 91.576, -128.8243
1360.000000, 91.650, -128.3683
1380.000000, 91.719, -127.9217
1400.000000, 91.800, -127.4601
1430.000000, 91.923, -126.7526
1450.000000, 92.003, -126.2661
1475.000000, 92.099, -125.6022
1500.000000, 92.195, -124.8707
1525.000000, 92.295, -124.0773
1550.000000, 92.411, -123.1860
1575.000000, 92.552, -122.3343
1600.000000, 92.714, -121.6461
1625.000000, 92.877, -121.1827
1650.000000, 93.023, -120.8765
1675.000000, 93.148, -120.6207
1700.000000, 93.258, -120.3468
1725.000000, 93.358, -120.0635
1750.000000, 93.454, -119.7291
1775.000000, 93.547, -119.4046
1800.000000, 93.639, -119.0584
1825.000000, 93.731, -118.7014
1850.000000, 93.822, -118.3554
1875.000000, 93.912, -118.0156
1900.000000, 94.002, -117.6783
1925.000000, 94.092, -117.3580
1950.000000, 94.179, -117.0397
1975.000000, 94.265, -116.7437
2000.000000, 94.349, -116.4567
2030.000000, 94.447, -116.1258
2060.000000, 94.543, -115.8016
2090.000000, 94.636, -115.4643
2120.000000, 94.727, -115.1458
2140.000000, 94.788, -114.9472
2180.000000, 94.907, -114.4960
2200.000000, 94.965, -114.2794
2240.000000, 95.078, -113.8231
2270.000000, 95.166, -113.4452
2300.000000, 95.262, -113.0646
2330.000000, 95.371, -112.7147
2360.000000, 95.490, -112.4503
2400.000000, 95.650, -112.3434
2430.000000, 95.757, -112.4069
2470.000000, 95.873, -112.5879
2500.000000, 95.939, -112.7548
2540.000000, 96.006, -112.9472
2580.000000, 96.052, -113.0877
2620.000000, 96.083, -113.1730
2650.000000, 96.097, -113.2015
2690.000000, 96.104, -113.1463
2720.000000, 96.101, -113.0694
2760.000000, 96.087, -112.8562
2800.000000, 96.067, -112.4979
2850.000000, 96.050, -111.8195
2900.000000, 96.065, -110.9237
2950.000000, 96.130, -110.0131
3000.000000, 96.229, -109.3241
3040.000000, 96.312, -108.9643
3070.000000, 96.368, -108.7808
3110.000000, 96.431, -108.5891
3150.000000, 96.485, -108.4116
3200.000000, 96.543, -108.2263
3250.000000, 96.593, -108.0991
3300.000000, 96.628, -108.0004
3350.000000, 96.645, -107.9337
3400.000000, 96.647, -107.8126
3450.000000, 96.642, -107.6276
3500.000000, 96.634, -107.3696
3550.000000, 96.624, -107.0101
3600.000000, 96.618, -106.6178
3650.000000, 96.618, -106.1706
3700.000000, 96.624, -105.7155
3750.000000, 96.635, -105.2927
3820.000000, 96.643, -104.7776
3870.000000, 96.637, -104.4530
3950.000000, 96.604, -103.9133
4000.000000, 96.570, -103.5144
4060.000000, 96.521, -102.9715
4120.000000, 96.468, -102.2882
4180.000000, 96.424, -101.4866
4250.000000, 96.392, -100.5070
4310.000000, 96.379, -99.6733
4370.000000, 96.367, -98.9228
4440.000000, 96.351, -98.1021
4500.000000, 96.333, -97.4925
4550.000000, 96.316, -96.9892
4620.000000, 96.286, -96.3473
4680.000000, 96.255, -95.8047
4750.000000, 96.213, -95.2021
4820.000000, 96.164, -94.6270
4870.000000, 96.123, -94.2420
4940.000000, 96.057, -93.6871
5000.000000, 95.992, -93.2154
5080.000000, 95.892, -92.5600
5150.000000, 95.795, -91.9633
5220.000000, 95.689, -91.2936
5300.000000, 95.560, -90.4992
5380.000000, 95.422, -89.6042
5450.000000, 95.298, -88.7781
5520.000000, 95.170, -87.8868
5600.000000, 95.020, -86.7621
5700.000000, 94.828, -85.2169
5800.000000, 94.635, -83.5068
5900.000000, 94.449, -81.5867
6000.000000, 94.275, -79.5351
6080.000000, 94.150, -77.7410
6150.000000, 94.053, -76.0928
6220.000000, 93.969, -74.4273
6300.000000, 93.889, -72.4298
6400.000000, 93.814, -69.8973
6500.000000, 93.768, -67.3018
6600.000000, 93.754, -64.6823
6700.000000, 93.775, -62.0766
6800.000000, 93.837, -59.4939
6900.000000, 93.958, -56.9626
7000.000000, 94.141, -54.5144
7100.000000, 94.374, -52.2023
7200.000000, 94.655, -50.1008
7300.000000, 94.987, -48.2173
7400.000000, 95.373, -46.7127
7500.000000, 95.820, -45.6814
7620.000000, 96.449, -45.4340
7750.000000, 97.194, -46.8622
7880.000000, 97.794, -50.5953
8000.000000, 98.070, -56.0219
8120.000000, 97.952, -62.5393
8250.000000, 97.329, -69.3580
8380.000000, 96.288, -74.4214
8500.000000, 95.116, -76.9675
8620.000000, 93.879, -77.4663
8750.000000, 92.561, -76.2236
8850.000000, 91.595, -74.2552
9000.000000, 90.244, -70.1426
9120.000000, 89.252, -66.0644
9250.000000, 88.261, -61.0636
9380.000000, 87.351, -55.5107
9500.000000, 86.576, -50.0207
9620.000000, 85.862, -44.1445
9750.000000, 85.156, -37.3996
9880.000000, 84.518, -30.3197
10000.000000, 83.985, -23.3981
10150.000000, 83.390, -14.2545
10300.000000, 82.883, -4.4198
10440.000000, 82.512, 5.6008
10600.000000, 82.275, 18.2015
10750.000000, 82.350, 31.2144
10900.000000, 82.862, 44.7368
11060.000000, 83.970, 58.0559
11200.000000, 85.291, 67.0502
11380.000000, 87.086, 73.9038
11500.000000, 88.151, 76.1575
11720.000000, 89.700, 78.2229
11800.000000, 90.171, 78.9263
12060.000000, 91.712, 81.7722
12200.000000, 92.719, 83.2411
12410.000000, 94.620, 83.2592
12500.000000, 95.561, 81.5936
12650.000000, 97.114, 75.4455
12800.000000, 98.287, 64.6467
13150.000000, 97.515, 32.7597
13200.000000, 97.006, 29.2622
13400.000000, 94.486, 20.5582
13600.000000, 91.879, 19.5873
13800.000000, 89.670, 23.4880
14000.000000, 87.934, 29.9641
