* Measurement data measured by REW V5.20.13
* Source: Headset (DS by VECLAN.COM), MICROPHONE (Master Volume), L, volume: 0.880. Timing signal peak level -17.9 dBFS, measurement signal peak level -14.4 dBFS
* Format: 2M Log Swept Sine, 1 sweep at -12.0 dBFS using an acoustic timing reference
* Dated: Nov 11, 2023 5:12:15 PM
* REW Settings:
*  C-weighting compensation: Off
*  Target level: 75.0 dB
* Note: ; Delay -0.0614 ms (-21 mm, -0.83 in) using estimated IR delay relative to Acoustic reference played from HEADPHONE L with no timing offset
* Measurement: Tanchjim Hana 2021 S2 L
* Smoothing: 1/24 octave
* Frequency Step: 1/48 octave
* Start Frequency: 1.000 Hz
*
* Freq(Hz) SPL(dB) Phase(degrees)
1.000000 69.382 87.1860
1.015000 69.753 89.6234
1.030000 70.118 91.9778
1.044000 70.452 94.0906
1.060000 70.822 96.3934
1.075000 71.156 98.4324
1.090000 71.475 100.3440
1.106000 71.799 102.2393
1.120000 72.083 103.8224
1.138000 72.455 105.7714
1.150000 72.706 107.0182
1.172000 73.171 109.1988
1.180000 73.341 109.9590
1.206000 73.898 112.3137
1.220000 74.198 113.5108
1.241000 74.649 115.2179
1.250000 74.842 115.9182
1.265000 75.162 117.0450
1.280000 75.481 118.1232
1.315000 76.213 120.4611
1.320000 76.315 120.7758
1.340000 76.722 121.9895
1.360000 77.120 123.1343
1.380000 77.506 124.2149
1.400000 77.881 125.2360
1.430000 78.416 126.6663
1.450000 78.752 127.5591
1.475000 79.149 128.6063
1.500000 79.521 129.5097
1.525000 79.873 130.2631
1.550000 80.205 130.8790
1.575000 80.519 131.3699
1.600000 80.819 131.7482
1.625000 81.104 132.0264
1.650000 81.377 132.2171
1.675000 81.640 132.3328
1.700000 81.895 132.3858
1.725000 82.144 132.3888
1.750000 82.388 132.3542
1.775000 82.629 132.2944
1.800000 82.869 132.2221
1.825000 83.110 132.1496
1.850000 83.351 132.0605
1.875000 83.584 131.8958
1.900000 83.810 131.6607
1.925000 84.029 131.3630
1.950000 84.241 131.0108
1.975000 84.448 130.6120
2.000000 84.649 130.1745
2.030000 84.885 129.6098
2.060000 85.114 129.0147
2.090000 85.338 128.4030
2.120000 85.558 127.7883
2.140000 85.702 127.3838
2.180000 85.987 126.6055
2.200000 86.129 126.2397
2.240000 86.405 125.5079
2.270000 86.606 124.9433
2.300000 86.802 124.3669
2.330000 86.994 123.7799
2.360000 87.180 123.1838
2.400000 87.421 122.3770
2.430000 87.598 121.7647
2.470000 87.826 120.9414
2.500000 87.994 120.3204
2.540000 88.211 119.4905
2.580000 88.423 118.6593
2.620000 88.626 117.8129
2.650000 88.774 117.1681
2.690000 88.964 116.2989
2.720000 89.102 115.6423
2.760000 89.281 114.7641
2.800000 89.454 113.8871
2.850000 89.662 112.7994
2.900000 89.863 111.7295
2.950000 90.058 110.6830
3.000000 90.243 109.6390
3.040000 90.385 108.8055
3.070000 90.487 108.1837
3.110000 90.619 107.3622
3.150000 90.747 106.5526
3.200000 90.902 105.5630
3.250000 91.051 104.6049
3.300000 91.197 103.6855
3.350000 91.336 102.8027
3.400000 91.469 101.9504
3.450000 91.595 101.1267
3.500000 91.717 100.3295
3.550000 91.835 99.5567
3.600000 91.950 98.8064
3.650000 92.064 98.0765
3.700000 92.176 97.3662
3.750000 92.284 96.6777
3.820000 92.429 95.7516
3.870000 92.530 95.1180
3.950000 92.691 94.1541
4.000000 92.792 93.5837
4.060000 92.915 92.9361
4.120000 93.036 92.3412
4.180000 93.158 91.7882
4.250000 93.299 91.1776
4.310000 93.422 90.6682
4.370000 93.547 90.1570
4.440000 93.697 89.5527
4.500000 93.827 89.0495
4.550000 93.938 88.6374
4.620000 94.093 88.0627
4.680000 94.228 87.5646
4.750000 94.386 86.9669
4.820000 94.547 86.3536
4.870000 94.663 85.9142
4.940000 94.828 85.2907
5.000000 94.969 84.7423
5.080000 95.155 83.9807
5.150000 95.315 83.2767
5.220000 95.474 82.5399
5.300000 95.654 81.6641
5.380000 95.832 80.7569
5.450000 95.982 79.9413
5.520000 96.126 79.1074
5.600000 96.286 78.1208
5.700000 96.478 76.8479
5.800000 96.659 75.5525
5.900000 96.827 74.2526
6.000000 96.982 72.9286
6.080000 97.098 71.8615
6.150000 97.193 70.9332
6.220000 97.283 70.0191
6.300000 97.378 68.9872
6.400000 97.485 67.7052
6.500000 97.582 66.4511
6.600000 97.671 65.2450
6.700000 97.751 64.0863
6.800000 97.821 62.9690
6.900000 97.886 61.8980
7.000000 97.948 60.8786
7.100000 98.004 59.9118
7.200000 98.055 58.9920
7.300000 98.106 58.1132
7.400000 98.156 57.2756
7.500000 98.205 56.4842
7.620000 98.262 55.5780
7.750000 98.325 54.6299
7.880000 98.389 53.7278
8.000000 98.448 52.9220
8.120000 98.507 52.1269
8.250000 98.572 51.2855
8.380000 98.635 50.4588
8.500000 98.692 49.7021
8.620000 98.747 48.9538
8.750000 98.804 48.1551
8.850000 98.845 47.5501
9.000000 98.905 46.6563
9.120000 98.950 45.9565
9.250000 98.998 45.2171
9.380000 99.044 44.4956
9.500000 99.083 43.8434
9.620000 99.119 43.2039
9.750000 99.154 42.5260
9.880000 99.182 41.8610
10.000000 99.199 41.2562
10.150000 99.212 40.5152
10.300000 99.216 39.7972
10.440000 99.211 39.1480
10.600000 99.201 38.4312
10.750000 99.191 37.7859
10.900000 99.180 37.1645
11.060000 99.171 36.5217
11.200000 99.164 35.9775
11.380000 99.159 35.2962
11.500000 99.157 34.8569
11.720000 99.160 34.0575
11.800000 99.163 33.7624
12.060000 99.181 32.7829
12.200000 99.194 32.2140
12.410000 99.215 31.3128
12.500000 99.220 30.9094
12.650000 99.227 30.2085
12.800000 99.228 29.4959
13.150000 99.197 27.8342
13.200000 99.190 27.6098
13.400000 99.152 26.7435
13.600000 99.109 25.9687
13.800000 99.064 25.3071
14.000000 99.026 24.7329
14.300000 98.988 24.0031
14.500000 98.981 23.5366
14.750000 98.988 22.8868
15.000000 99.007 22.1227
15.250000 99.022 21.2060
15.500000 99.020 20.2145
15.750000 98.994 19.2110
16.000000 98.941 18.3179
16.250000 98.878 17.6131
16.500000 98.817 17.1087
16.750000 98.776 16.7960
17.000000 98.767 16.5467
17.250000 98.789 16.2783
17.500000 98.837 15.8834
17.750000 98.888 15.3127
18.000000 98.934 14.5971
18.250000 98.961 13.7750
18.500000 98.967 12.9623
18.750000 98.959 12.2081
19.000000 98.943 11.5575
19.250000 98.933 11.0017
19.500000 98.930 10.4911
19.750000 98.938 9.9870
20.000000 98.950 9.4293
20.299999 98.960 8.6922
20.600000 98.955 7.9152
20.900000 98.933 7.1675
21.200001 98.897 6.5234
21.400000 98.873 6.1654
21.799999 98.830 5.5824
22.000000 98.815 5.3283
22.400000 98.801 4.8234
22.700001 98.798 4.4177
23.000000 98.798 3.9817
23.299999 98.802 3.5088
23.600000 98.806 2.9808
24.000000 98.805 2.1679
24.299999 98.790 1.4970
24.700001 98.739 0.6345
25.000000 98.685 0.1295
25.400000 98.616 -0.2638
25.799999 98.593 -0.4598
26.200001 98.626 -0.7950
26.500000 98.662 -1.3091
26.900000 98.680 -2.3272
27.200001 98.647 -3.1369
27.600000 98.547 -3.9110
28.000000 98.447 -4.1027
28.500000 98.432 -3.8892
29.000000 98.539 -4.1784
29.500000 98.624 -5.4249
30.000000 98.564 -6.9435
30.400000 98.430 -7.6633
30.700001 98.327 -7.7741
31.100000 98.245 -7.5692
31.500000 98.239 -7.3694
32.000000 98.280 -7.5871
32.500000 98.292 -8.2485
33.000000 98.253 -8.9389
33.500000 98.200 -9.5006
34.000000 98.151 -10.0674
34.500000 98.091 -10.7057
35.000000 98.008 -11.2804
35.500000 97.926 -11.6788
36.000000 97.867 -12.0001
36.500000 97.828 -12.4084
37.000000 97.785 -12.9168
37.500000 97.732 -13.3954
38.200001 97.671 -13.8970
38.700001 97.654 -14.2592
39.500000 97.635 -15.1111
40.000000 97.600 -15.7233
40.599998 97.534 -16.3313
41.200001 97.467 -16.7255
41.799999 97.421 -17.0266
42.500000 97.381 -17.4469
43.099998 97.339 -17.8594
43.700001 97.291 -18.2336
44.400002 97.238 -18.6305
45.000000 97.195 -19.0008
45.500000 97.153 -19.3222
46.200001 97.090 -19.7235
46.799999 97.041 -20.0127
47.500000 96.996 -20.3601
48.200001 96.955 -20.7769
48.700001 96.919 -21.1051
49.400002 96.855 -21.5156
50.000000 96.798 -21.7326
50.799999 96.751 -21.9079
51.500000 96.735 -22.2200
52.200001 96.701 -22.7175
53.000000 96.626 -23.1954
53.799999 96.558 -23.5001
54.500000 96.508 -23.8240
55.200001 96.445 -24.1917
56.000000 96.363 -24.5336
57.000000 96.261 -24.9391
58.000000 96.144 -25.2117
59.000000 96.069 -25.2961
60.000000 96.036 -25.7238
60.799999 95.986 -26.2552
61.500000 95.926 -26.6487
62.200001 95.868 -26.9507
63.000000 95.811 -27.2269
64.000000 95.752 -27.4944
65.000000 95.704 -27.7439
66.000000 95.652 -27.9664
67.000000 95.602 -28.1790
68.000000 95.540 -28.4626
69.000000 95.462 -28.7428
70.000000 95.379 -29.0439
71.000000 95.283 -29.3445
72.000000 95.189 -29.5389
73.000000 95.110 -29.6543
74.000000 95.054 -29.7469
75.000000 95.013 -29.9255
76.199997 94.951 -30.2635
77.500000 94.857 -30.5639
78.800003 94.768 -30.7230
80.000000 94.698 -30.9709
81.199997 94.607 -31.2597
82.500000 94.512 -31.3703
83.800003 94.449 -31.5241
85.000000 94.381 -31.8076
86.199997 94.298 -31.9802
87.500000 94.241 -32.0443
88.500000 94.214 -32.2747
90.000000 94.133 -32.7090
91.199997 94.059 -32.9144
92.500000 93.967 -33.0979
93.800003 93.864 -33.1225
95.000000 93.778 -33.0605
96.199997 93.704 -32.9975
97.500000 93.634 -33.0028
98.800003 93.565 -33.0539
100.000000 93.506 -33.1186
101.500000 93.429 -33.2856
103.000000 93.335 -33.4549
104.400002 93.240 -33.5016
106.000000 93.158 -33.4119
107.500000 93.112 -33.4044
109.000000 93.061 -33.5839
110.599998 92.968 -33.7984
112.000000 92.874 -33.9015
113.800003 92.756 -33.9724
115.000000 92.692 -33.9694
117.199997 92.618 -33.9540
118.000000 92.597 -33.9945
120.599998 92.460 -34.1330
122.000000 92.368 -33.9168
124.099998 92.271 -33.6028
125.000000 92.233 -33.5561
126.500000 92.160 -33.5217
128.000000 92.084 -33.4754
131.500000 91.900 -33.7339
132.000000 91.875 -33.7508
134.000000 91.797 -33.7820
136.000000 91.729 -33.7040
138.000000 91.657 -33.6156
140.000000 91.578 -33.6393
143.000000 91.495 -33.7048
145.000000 91.468 -33.4448
147.500000 91.426 -33.0196
150.000000 91.309 -32.8084
152.500000 91.185 -32.7001
155.000000 91.120 -32.5078
157.500000 91.061 -32.3807
160.000000 90.951 -32.3000
162.500000 90.853 -32.2408
165.000000 90.788 -32.2311
167.500000 90.723 -32.0750
170.000000 90.658 -31.8798
172.500000 90.580 -31.7439
175.000000 90.498 -31.6149
177.500000 90.421 -31.4617
180.000000 90.341 -31.3977
182.500000 90.246 -31.1323
185.000000 90.196 -30.7688
187.500000 90.152 -30.6899
190.000000 90.065 -30.5797
192.500000 89.969 -30.2689
195.000000 89.898 -30.0122
197.500000 89.840 -29.9499
200.000000 89.777 -29.8708
203.000000 89.693 -29.6462
206.000000 89.599 -29.3503
209.000000 89.528 -29.0663
212.000000 89.489 -28.9905
214.000000 89.478 -28.9471
218.000000 89.452 -28.5166
220.000000 89.405 -28.0866
224.000000 89.286 -27.5228
227.000000 89.211 -27.6232
230.000000 89.137 -27.7091
233.000000 89.059 -27.5342
236.000000 89.011 -27.0566
240.000000 88.966 -26.3497
243.000000 88.899 -25.9907
247.000000 88.816 -25.7727
250.000000 88.776 -25.5769
254.000000 88.728 -25.2563
258.000000 88.667 -24.7590
262.000000 88.586 -24.0516
265.000000 88.542 -23.4388
269.000000 88.478 -22.9968
272.000000 88.410 -22.6684
276.000000 88.354 -22.3953
280.000000 88.311 -22.4574
285.000000 88.258 -22.3628
290.000000 88.209 -21.7400
295.000000 88.206 -21.1725
300.000000 88.210 -20.7477
304.000000 88.117 -20.1828
307.000000 88.033 -19.8105
311.000000 87.931 -19.8121
315.000000 87.909 -19.6135
320.000000 87.924 -18.8951
325.000000 87.830 -18.4246
330.000000 87.729 -18.3295
335.000000 87.683 -18.0316
340.000000 87.640 -17.5587
345.000000 87.585 -17.0518
350.000000 87.544 -16.6338
355.000000 87.525 -16.2843
360.000000 87.491 -15.8842
365.000000 87.455 -15.4186
370.000000 87.416 -14.9038
375.000000 87.370 -14.4381
382.000000 87.310 -13.8186
387.000000 87.273 -13.3334
395.000000 87.182 -12.5533
400.000000 87.112 -12.2719
406.000000 87.060 -11.9710
412.000000 87.060 -11.4604
418.000000 87.036 -10.6093
425.000000 86.986 -9.8649
431.000000 86.940 -9.5897
437.000000 86.899 -9.3058
444.000000 86.851 -8.7615
450.000000 86.821 -8.3386
455.000000 86.822 -7.9210
462.000000 86.810 -7.1329
468.000000 86.788 -6.5586
475.000000 86.763 -5.9371
482.000000 86.719 -5.4068
487.000000 86.675 -5.1305
494.000000 86.620 -4.7167
500.000000 86.599 -4.1844
508.000000 86.574 -3.5150
515.000000 86.573 -2.9196
522.000000 86.565 -2.0612
530.000000 86.537 -1.4299
538.000000 86.488 -1.0392
545.000000 86.466 -0.5765
552.000000 86.474 -0.1279
560.000000 86.477 0.5069
570.000000 86.440 1.2708
580.000000 86.394 1.9515
590.000000 86.357 2.6932
600.000000 86.355 3.4263
608.000000 86.345 4.0963
615.000000 86.323 4.7352
622.000000 86.303 5.2759
630.000000 86.290 5.8640
640.000000 86.272 6.6140
650.000000 86.250 7.3525
660.000000 86.240 8.1142
670.000000 86.235 8.8741
680.000000 86.224 9.6302
690.000000 86.220 10.4272
700.000000 86.221 11.2215
710.000000 86.217 11.9695
720.000000 86.216 12.7509
730.000000 86.217 13.5639
740.000000 86.219 14.3228
750.000000 86.230 15.0223
762.000000 86.243 15.8953
775.000000 86.260 16.9206
788.000000 86.278 17.9497
800.000000 86.297 18.8298
812.000000 86.323 19.7131
825.000000 86.351 20.7049
838.000000 86.376 21.6785
850.000000 86.402 22.5352
862.000000 86.437 23.3609
875.000000 86.482 24.2215
885.000000 86.516 24.8925
900.000000 86.579 25.9098
912.000000 86.631 26.6892
925.000000 86.677 27.5103
938.000000 86.725 28.3565
950.000000 86.776 29.1229
962.000000 86.839 29.8397
975.000000 86.912 30.5830
988.000000 86.980 31.2677
1000.000000 87.043 31.8515
1015.000000 87.125 32.5534
1030.000000 87.208 33.1964
1044.000000 87.281 33.7929
1060.000000 87.358 34.4782
1075.000000 87.430 35.0564
1090.000000 87.507 35.5898
1106.000000 87.599 36.1509
1120.000000 87.680 36.6105
1138.000000 87.784 37.1435
1150.000000 87.852 37.4967
1172.000000 87.963 38.1146
1180.000000 88.002 38.3160
1206.000000 88.129 38.9349
1220.000000 88.197 39.2691
1241.000000 88.294 39.7428
1250.000000 88.334 39.9363
1265.000000 88.402 40.2701
1280.000000 88.470 40.6168
1315.000000 88.608 41.4150
1320.000000 88.626 41.5317
1340.000000 88.687 42.0004
1360.000000 88.729 42.4951
1380.000000 88.767 43.0216
1400.000000 88.820 43.5777
1430.000000 88.914 44.4264
1450.000000 88.982 44.9969
1475.000000 89.065 45.7097
1500.000000 89.148 46.4201
1525.000000 89.237 47.1046
1550.000000 89.325 47.7651
1575.000000 89.406 48.4281
1600.000000 89.481 49.0785
1625.000000 89.554 49.7218
1650.000000 89.630 50.3614
1675.000000 89.709 50.9794
1700.000000 89.790 51.6021
1725.000000 89.866 52.2221
1750.000000 89.940 52.8519
1775.000000 90.016 53.4569
1800.000000 90.096 54.0220
1825.000000 90.179 54.5857
1850.000000 90.259 55.1481
1875.000000 90.335 55.7144
1900.000000 90.406 56.2752
1925.000000 90.479 56.8315
1950.000000 90.558 57.3629
1975.000000 90.645 57.8660
2000.000000 90.727 58.3763
2030.000000 90.814 58.9953
2060.000000 90.895 59.6287
2090.000000 90.978 60.2622
2120.000000 91.071 60.8638
2140.000000 91.135 61.2817
2180.000000 91.255 62.1921
2200.000000 91.312 62.6718
2240.000000 91.432 63.6920
2270.000000 91.549 64.4385
2300.000000 91.690 65.1052
2330.000000 91.841 65.6788
2360.000000 91.987 66.1300
2400.000000 92.172 66.5946
2430.000000 92.305 66.8767
2470.000000 92.476 67.1960
2500.000000 92.598 67.4102
2540.000000 92.752 67.6457
2580.000000 92.897 67.8390
2620.000000 93.041 67.9652
2650.000000 93.155 68.0193
2690.000000 93.309 68.0504
2720.000000 93.415 68.0509
2760.000000 93.534 68.0595
2800.000000 93.646 68.0242
2850.000000 93.794 67.9023
2900.000000 93.937 67.7138
2950.000000 94.060 67.4780
3000.000000 94.168 67.1741
3040.000000 94.255 66.8668
3070.000000 94.318 66.6033
3110.000000 94.391 66.2291
3150.000000 94.450 65.8362
3200.000000 94.514 65.2991
3250.000000 94.570 64.7201
3300.000000 94.606 64.1208
3350.000000 94.623 63.4899
3400.000000 94.629 62.8237
3450.000000 94.622 62.1227
3500.000000 94.597 61.3973
3550.000000 94.544 60.6821
3600.000000 94.462 60.0379
3650.000000 94.356 59.5381
3700.000000 94.231 59.2431
3750.000000 94.100 59.1411
3820.000000 93.938 59.1427
3870.000000 93.832 59.1776
3950.000000 93.651 59.2422
4000.000000 93.531 59.2976
4060.000000 93.380 59.3944
4120.000000 93.220 59.5550
4180.000000 93.047 59.8089
4250.000000 92.838 60.2175
4310.000000 92.654 60.6698
4370.000000 92.461 61.2120
4440.000000 92.227 61.9474
4500.000000 92.025 62.6520
4550.000000 91.859 63.2790
4620.000000 91.630 64.2176
4680.000000 91.430 65.0825
4750.000000 91.193 66.1511
4820.000000 90.953 67.2832
4870.000000 90.777 68.1449
4940.000000 90.526 69.4445
5000.000000 90.307 70.6804
5080.000000 90.013 72.5635
5150.000000 89.767 74.4417
5220.000000 89.539 76.5130
5300.000000 89.311 79.0259
5380.000000 89.127 81.5812
5450.000000 88.994 83.8125
5520.000000 88.880 86.0238
5600.000000 88.770 88.5234
5700.000000 88.659 91.6155
5800.000000 88.568 94.6793
5900.000000 88.493 97.7169
6000.000000 88.444 100.7214
6080.000000 88.426 103.1019
6150.000000 88.422 105.1694
6220.000000 88.429 107.2115
6300.000000 88.450 109.5071
6400.000000 88.495 112.3068
6500.000000 88.561 115.0099
6600.000000 88.652 117.5911
6700.000000 88.764 120.0352
6800.000000 88.903 122.3263
6900.000000 89.082 124.4477
7000.000000 89.299 126.3916
7100.000000 89.541 128.1321
7200.000000 89.793 129.6399
7300.000000 90.053 130.8629
7400.000000 90.320 131.7462
7500.000000 90.581 132.2847
7620.000000 90.894 132.4687
7750.000000 91.218 132.0821
7880.000000 91.428 131.0594
8000.000000 91.513 129.5266
8120.000000 91.492 127.4380
8250.000000 91.311 124.6805
8380.000000 90.926 121.7597
8500.000000 90.381 119.3611
8620.000000 89.659 117.7126
8750.000000 88.719 117.1384
8850.000000 87.928 117.6658
9000.000000 86.715 119.9892
9120.000000 85.780 122.9949
9250.000000 84.833 127.1756
9380.000000 83.968 132.0947
9500.000000 83.253 137.1287
9620.000000 82.619 142.5123
9750.000000 82.026 148.6315
9880.000000 81.521 154.9863
10000.000000 81.128 161.0065
10150.000000 80.725 168.7001
10300.000000 80.407 176.5731
10440.000000 80.186 -175.9532
10600.000000 80.026 -167.2443
10750.000000 79.969 -158.8868
10900.000000 80.005 -150.2990
11060.000000 80.163 -140.7946
11200.000000 80.438 -132.0738
11380.000000 81.072 -120.1073
11500.000000 81.783 -111.6871
11720.000000 84.076 -96.5006
11800.000000 85.285 -91.8232
12060.000000 90.004 -85.6250
12200.000000 92.417 -90.7991
12410.000000 94.912 -110.9141
12500.000000 95.373 -122.9109
12650.000000 95.205 -143.5919
12800.000000 93.973 -160.4008
13150.000000 89.071 -175.4791
13200.000000 88.354 -175.5721
13400.000000 85.751 -173.1973
13600.000000 83.615 -168.0958
13800.000000 81.885 -161.5401
14000.000000 80.471 -154.1725
14300.000000 78.810 -142.3214
14500.000000 77.952 -134.2242
14750.000000 77.108 -124.2133
15000.000000 76.460 -114.4213
15250.000000 75.994 -104.9241
15500.000000 75.749 -95.8770
15750.000000 75.721 -87.4150
16000.000000 75.856 -79.7442
16250.000000 76.131 -73.1253
16500.000000 76.523 -67.9396
16750.000000 76.988 -64.7325
17000.000000 77.427 -64.1428
17250.000000 77.663 -66.5817
17500.000000 77.466 -71.5446
17750.000000 76.666 -77.2031
18000.000000 75.270 -81.2657
18250.000000 73.461 -82.5586
18500.000000 71.495 -81.6069
18750.000000 69.378 -77.6422
19000.000000 67.098 -66.3579
19250.000000 65.457 -51.7360
19500.000000 64.213 -38.4906
19750.000000 62.816 -25.1776
20000.000000 61.264 -10.8274
20300.000000 59.394 6.5325
20600.000000 57.792 4.7141
20900.000000 56.588 -174.2419
21200.000000 55.895 -35.1437
21400.000000 55.719 -78.5735
21800.000000 55.348 -176.7549
22000.000000 54.524 2.7217
22400.000000 50.967 -33.8516
22700.000000 47.758 65.7422
23000.000000 45.873 -6.6758
23300.000000 45.799 -91.1953
23600.000000 47.215 65.2656
24000.000000 49.435 -139.3203
