* Measurement data measured by REW V5.31.1
* Source: Headset (DS by VECLAN.COM), MICROPHONE (Master Volume), L, volume: 0.720. Timing signal peak level -14.4 dBFS, measurement signal peak level -14.3 dBFS
* Format: 2M Log Swept Sine, 1 sweep at -12.0 dBFS using an acoustic timing reference
* Dated: Jul 16, 2024 9:35:54 PM
* REW Settings:
*  C-weighting compensation: Off
*  Target level: 85.0 dB
* Note: ; Delay -0.0677 ms (-23 mm, -0.91 in) using estimated IR delay relative to Acoustic reference played from HEADPHONE L with no timing offset
* Measurement: Atmosphere L
* Smoothing: 1/24 octave
* Frequency Step: 1/48 octave
* Start Frequency: 1.000 Hz
*
* Freq(Hz), SPL(dB), Phase(degrees)
1.000000, 73.772, -34.8167
1.015000, 74.133, -35.5506
1.030000, 74.489, -36.2907
1.044000, 74.818, -36.9889
1.060000, 75.187, -37.7972
1.075000, 75.528, -38.5659
1.090000, 75.862, -39.3432
1.106000, 76.214, -40.1646
1.120000, 76.521, -40.8478
1.138000, 76.915, -41.6611
1.150000, 77.177, -42.1645
1.172000, 77.657, -43.0231
1.180000, 77.830, -43.3217
1.206000, 78.390, -44.2285
1.220000, 78.688, -44.6823
1.241000, 79.130, -45.3267
1.250000, 79.316, -45.5916
1.265000, 79.624, -46.0204
1.280000, 79.927, -46.4361
1.315000, 80.612, -47.3698
1.320000, 80.707, -47.5002
1.340000, 81.079, -48.0178
1.360000, 81.438, -48.5305
1.380000, 81.783, -49.0811
1.400000, 82.111, -49.6493
1.430000, 82.571, -50.5127
1.450000, 82.854, -51.0973
1.475000, 83.178, -51.8236
1.500000, 83.467, -52.5031
1.525000, 83.721, -53.1219
1.550000, 83.944, -53.6873
1.575000, 84.141, -54.2306
1.600000, 84.315, -54.7780
1.625000, 84.470, -55.2985
1.650000, 84.610, -55.7995
1.675000, 84.740, -56.2878
1.700000, 84.862, -56.7690
1.725000, 84.981, -57.2485
1.750000, 85.102, -57.7307
1.775000, 85.227, -58.2365
1.800000, 85.361, -58.7854
1.825000, 85.506, -59.3428
1.850000, 85.660, -59.8970
1.875000, 85.814, -60.4295
1.900000, 85.968, -60.9359
1.925000, 86.119, -61.4184
1.950000, 86.270, -61.8797
1.975000, 86.418, -62.3400
2.000000, 86.565, -62.8188
2.030000, 86.738, -63.3775
2.060000, 86.910, -63.9258
2.090000, 87.079, -64.4686
2.120000, 87.246, -65.0107
2.140000, 87.355, -65.3739
2.180000, 87.572, -66.1291
2.200000, 87.679, -66.5295
2.240000, 87.889, -67.3190
2.270000, 88.044, -67.8923
2.300000, 88.196, -68.4483
2.330000, 88.346, -68.9885
2.360000, 88.494, -69.5149
2.400000, 88.687, -70.2468
2.430000, 88.829, -70.7917
2.470000, 89.016, -71.5083
2.500000, 89.154, -72.0416
2.540000, 89.335, -72.7510
2.580000, 89.512, -73.4782
2.620000, 89.686, -74.2347
2.650000, 89.814, -74.7918
2.690000, 89.981, -75.5202
2.720000, 90.104, -76.0553
2.760000, 90.265, -76.7526
2.800000, 90.422, -77.4742
2.850000, 90.615, -78.3633
2.900000, 90.801, -79.2360
2.950000, 90.983, -80.0979
3.000000, 91.159, -80.9829
3.040000, 91.295, -81.6931
3.070000, 91.395, -82.2183
3.110000, 91.526, -82.9069
3.150000, 91.654, -83.5811
3.200000, 91.809, -84.4335
3.250000, 91.961, -85.2776
3.300000, 92.108, -86.1023
3.350000, 92.252, -86.9142
3.400000, 92.391, -87.7504
3.450000, 92.525, -88.5866
3.500000, 92.656, -89.4042
3.550000, 92.782, -90.1990
3.600000, 92.906, -90.9957
3.650000, 93.026, -91.7798
3.700000, 93.142, -92.5466
3.750000, 93.254, -93.3036
3.820000, 93.405, -94.3797
3.870000, 93.509, -95.1369
3.950000, 93.670, -96.3055
4.000000, 93.767, -97.0277
4.060000, 93.881, -97.8800
4.120000, 93.992, -98.7146
4.180000, 94.098, -99.5402
4.250000, 94.219, -100.5107
4.310000, 94.318, -101.3141
4.370000, 94.415, -102.0935
4.440000, 94.525, -103.0065
4.500000, 94.616, -103.7724
4.550000, 94.689, -104.3983
4.620000, 94.789, -105.2809
4.680000, 94.872, -106.0214
4.750000, 94.967, -106.8566
4.820000, 95.060, -107.6892
4.870000, 95.125, -108.2767
4.940000, 95.213, -109.0820
5.000000, 95.287, -109.7704
5.080000, 95.383, -110.6748
5.150000, 95.464, -111.4415
5.220000, 95.542, -112.2130
5.300000, 95.629, -113.0838
5.380000, 95.713, -113.9349
5.450000, 95.785, -114.6788
5.520000, 95.854, -115.4025
5.600000, 95.931, -116.2231
5.700000, 96.024, -117.2425
5.800000, 96.112, -118.2369
5.900000, 96.196, -119.2173
6.000000, 96.276, -120.1806
6.080000, 96.337, -120.9492
6.150000, 96.389, -121.6021
6.220000, 96.439, -122.2526
6.300000, 96.493, -122.9808
6.400000, 96.558, -123.8759
6.500000, 96.619, -124.7583
6.600000, 96.677, -125.6114
6.700000, 96.732, -126.4490
6.800000, 96.784, -127.2648
6.900000, 96.833, -128.0632
7.000000, 96.881, -128.8324
7.100000, 96.926, -129.5842
7.200000, 96.970, -130.3134
7.300000, 97.012, -131.0260
7.400000, 97.052, -131.7152
7.500000, 97.091, -132.3932
7.620000, 97.136, -133.1801
7.750000, 97.184, -134.0017
7.880000, 97.230, -134.8011
8.000000, 97.272, -135.5123
8.120000, 97.313, -136.2066
8.250000, 97.356, -136.9397
8.380000, 97.398, -137.6511
8.500000, 97.436, -138.2954
8.620000, 97.473, -138.9240
8.750000, 97.513, -139.5894
8.850000, 97.542, -140.0913
9.000000, 97.586, -140.8241
9.120000, 97.620, -141.3995
9.250000, 97.655, -142.0136
9.380000, 97.690, -142.6146
9.500000, 97.721, -143.1631
9.620000, 97.752, -143.6993
9.750000, 97.783, -144.2700
9.880000, 97.806, -144.8350
10.000000, 97.817, -145.3429
10.150000, 97.819, -145.9991
10.300000, 97.812, -146.6304
10.440000, 97.799, -147.1975
10.600000, 97.780, -147.8185
10.750000, 97.762, -148.3735
10.900000, 97.744, -148.9029
11.060000, 97.726, -149.4650
11.200000, 97.712, -149.9719
11.380000, 97.693, -150.5916
11.500000, 97.679, -150.9853
11.720000, 97.655, -151.6708
11.800000, 97.647, -151.9094
12.060000, 97.626, -152.6739
12.200000, 97.619, -153.1095
12.410000, 97.610, -153.7412
12.500000, 97.606, -154.0046
12.650000, 97.598, -154.4344
12.800000, 97.589, -154.8523
13.150000, 97.567, -155.8319
13.200000, 97.564, -155.9758
13.400000, 97.552, -156.5344
13.600000, 97.540, -157.0637
13.800000, 97.527, -157.5627
14.000000, 97.516, -158.0378
14.300000, 97.502, -158.7828
14.500000, 97.493, -159.2563
14.750000, 97.483, -159.8259
15.000000, 97.475, -160.3795
15.250000, 97.472, -160.9738
15.500000, 97.470, -161.5512
15.750000, 97.464, -162.1024
16.000000, 97.455, -162.6205
16.250000, 97.446, -163.1453
16.500000, 97.438, -163.6313
16.750000, 97.432, -164.0825
17.000000, 97.431, -164.5137
17.250000, 97.434, -164.9642
17.500000, 97.440, -165.4171
17.750000, 97.444, -165.8730
18.000000, 97.446, -166.3312
18.250000, 97.445, -166.8040
18.500000, 97.439, -167.2584
18.750000, 97.432, -167.6817
19.000000, 97.424, -168.0690
19.250000, 97.417, -168.4475
19.500000, 97.414, -168.8002
19.750000, 97.413, -169.1372
20.000000, 97.413, -169.4693
20.299999, 97.414, -169.8994
20.600000, 97.413, -170.3289
20.900000, 97.408, -170.7470
21.200001, 97.400, -171.1598
21.400000, 97.393, -171.4241
21.799999, 97.381, -171.9130
22.000000, 97.376, -172.1458
22.400000, 97.369, -172.6386
22.700001, 97.364, -173.0139
23.000000, 97.357, -173.3953
23.299999, 97.347, -173.7933
23.600000, 97.335, -174.1774
24.000000, 97.317, -174.6524
24.299999, 97.304, -174.9993
24.700001, 97.291, -175.4390
25.000000, 97.282, -175.7616
25.400000, 97.272, -176.2139
25.799999, 97.260, -176.6624
26.200001, 97.245, -177.1050
26.500000, 97.233, -177.4272
26.900000, 97.217, -177.8300
27.200001, 97.207, -178.1206
27.600000, 97.193, -178.4948
28.000000, 97.182, -178.8557
28.500000, 97.168, -179.3120
29.000000, 97.154, -179.7579
29.500000, 97.138, 179.7990
30.000000, 97.121, 179.3755
30.400000, 97.106, 179.0362
30.700001, 97.094, 178.7878
31.100000, 97.077, 178.4622
31.500000, 97.058, 178.1380
32.000000, 97.035, 177.7602
32.500000, 97.014, 177.3885
33.000000, 96.993, 177.0162
33.500000, 96.971, 176.6251
34.000000, 96.947, 176.2454
34.500000, 96.924, 175.8826
35.000000, 96.902, 175.5319
35.500000, 96.881, 175.1702
36.000000, 96.858, 174.8118
36.500000, 96.834, 174.4706
37.000000, 96.814, 174.1376
37.500000, 96.796, 173.7663
38.200001, 96.758, 173.1998
38.700001, 96.717, 172.8566
39.500000, 96.662, 172.5256
40.000000, 96.650, 172.3495
40.599998, 96.647, 172.0212
41.200001, 96.634, 171.6089
41.799999, 96.607, 171.2306
42.500000, 96.577, 170.8692
43.099998, 96.558, 170.5689
43.700001, 96.538, 170.2578
44.400002, 96.513, 169.8994
45.000000, 96.491, 169.5748
45.500000, 96.468, 169.2833
46.200001, 96.426, 168.9030
46.799999, 96.389, 168.6452
47.500000, 96.359, 168.3726
48.200001, 96.340, 168.0305
48.700001, 96.322, 167.7368
49.400002, 96.287, 167.3282
50.000000, 96.252, 167.0423
50.799999, 96.210, 166.7577
51.500000, 96.183, 166.5387
52.200001, 96.159, 166.3123
53.000000, 96.132, 166.0430
53.799999, 96.099, 165.7234
54.500000, 96.058, 165.4426
55.200001, 96.011, 165.2166
56.000000, 95.963, 164.9323
57.000000, 95.878, 164.5483
58.000000, 95.801, 164.4919
59.000000, 95.796, 164.2810
60.000000, 95.767, 163.6904
60.799999, 95.722, 163.3427
61.500000, 95.693, 163.1060
62.200001, 95.667, 162.8525
63.000000, 95.633, 162.5851
64.000000, 95.591, 162.3060
65.000000, 95.547, 162.0420
66.000000, 95.502, 161.8092
67.000000, 95.459, 161.5510
68.000000, 95.410, 161.2607
69.000000, 95.357, 160.9735
70.000000, 95.306, 160.7072
71.000000, 95.259, 160.4012
72.000000, 95.202, 160.0624
73.000000, 95.138, 159.8533
74.000000, 95.089, 159.7372
75.000000, 95.053, 159.5781
76.199997, 95.003, 159.3164
77.500000, 94.932, 159.0927
78.800003, 94.865, 158.9655
80.000000, 94.811, 158.8043
81.199997, 94.755, 158.6005
82.500000, 94.699, 158.3638
83.800003, 94.645, 158.0796
85.000000, 94.595, 157.8477
86.199997, 94.550, 157.6683
87.500000, 94.505, 157.5339
88.500000, 94.477, 157.4976
90.000000, 94.449, 157.2080
91.199997, 94.372, 156.8427
92.500000, 94.275, 156.8090
93.800003, 94.207, 156.8024
95.000000, 94.154, 156.7677
96.199997, 94.110, 156.6824
97.500000, 94.061, 156.5359
98.800003, 94.006, 156.3993
100.000000, 93.955, 156.3073
101.500000, 93.889, 156.1365
103.000000, 93.815, 156.0099
104.400002, 93.754, 155.9056
106.000000, 93.688, 155.8057
107.500000, 93.629, 155.7303
109.000000, 93.568, 155.6742
110.599998, 93.502, 155.6105
112.000000, 93.442, 155.5324
113.800003, 93.365, 155.4540
115.000000, 93.318, 155.4206
117.199997, 93.241, 155.4033
118.000000, 93.216, 155.4079
120.599998, 93.134, 155.3227
122.000000, 93.075, 155.2369
124.099998, 92.985, 155.1805
125.000000, 92.948, 155.1700
126.500000, 92.890, 155.1681
128.000000, 92.837, 155.1736
131.500000, 92.721, 155.1174
132.000000, 92.705, 155.1172
134.000000, 92.640, 155.1667
136.000000, 92.581, 155.2950
138.000000, 92.527, 155.4010
140.000000, 92.460, 155.3687
143.000000, 92.356, 155.3506
145.000000, 92.299, 155.3713
147.500000, 92.230, 155.4507
150.000000, 92.156, 155.5327
152.500000, 92.083, 155.5684
155.000000, 92.012, 155.6597
157.500000, 91.932, 155.8190
160.000000, 91.840, 155.9149
162.500000, 91.746, 155.9840
165.000000, 91.682, 156.2552
167.500000, 91.633, 156.5221
170.000000, 91.569, 156.7277
172.500000, 91.514, 156.7970
175.000000, 91.476, 156.8733
177.500000, 91.453, 157.1781
180.000000, 91.417, 157.5056
182.500000, 91.360, 157.6686
185.000000, 91.291, 157.6903
187.500000, 91.228, 157.7791
190.000000, 91.178, 157.9095
192.500000, 91.126, 158.0694
195.000000, 91.078, 158.2957
197.500000, 91.036, 158.4934
200.000000, 90.993, 158.5887
203.000000, 90.932, 158.6636
206.000000, 90.869, 158.8116
209.000000, 90.807, 158.9573
212.000000, 90.739, 159.0984
214.000000, 90.692, 159.2260
218.000000, 90.615, 159.4993
220.000000, 90.585, 159.6478
224.000000, 90.517, 159.9374
227.000000, 90.453, 160.1155
230.000000, 90.390, 160.3216
233.000000, 90.330, 160.6090
236.000000, 90.268, 160.8182
240.000000, 90.194, 160.9275
243.000000, 90.151, 161.2413
247.000000, 90.096, 161.7166
250.000000, 90.046, 161.9987
254.000000, 89.980, 162.3738
258.000000, 89.921, 162.7228
262.000000, 89.871, 163.0467
265.000000, 89.835, 163.3167
269.000000, 89.786, 163.6782
272.000000, 89.751, 163.9355
276.000000, 89.708, 164.2658
280.000000, 89.664, 164.5808
285.000000, 89.608, 164.9390
290.000000, 89.552, 165.3627
295.000000, 89.498, 165.7969
300.000000, 89.445, 166.2213
304.000000, 89.408, 166.5413
307.000000, 89.382, 166.7880
311.000000, 89.348, 167.1211
315.000000, 89.314, 167.4607
320.000000, 89.270, 167.8839
325.000000, 89.227, 168.3300
330.000000, 89.185, 168.7454
335.000000, 89.146, 169.1475
340.000000, 89.110, 169.5805
345.000000, 89.070, 170.0259
350.000000, 89.029, 170.4664
355.000000, 88.993, 170.8627
360.000000, 88.960, 171.2791
365.000000, 88.922, 171.7167
370.000000, 88.885, 172.1525
375.000000, 88.850, 172.5700
382.000000, 88.805, 173.1525
387.000000, 88.773, 173.5652
395.000000, 88.723, 174.2363
400.000000, 88.693, 174.6437
406.000000, 88.657, 175.1148
412.000000, 88.624, 175.6345
418.000000, 88.593, 176.1835
425.000000, 88.556, 176.7356
431.000000, 88.524, 177.2288
437.000000, 88.494, 177.7160
444.000000, 88.461, 178.2811
450.000000, 88.435, 178.7619
455.000000, 88.413, 179.1740
462.000000, 88.383, 179.7445
468.000000, 88.359, -179.7584
475.000000, 88.334, -179.2003
482.000000, 88.309, -178.6404
487.000000, 88.291, -178.2369
494.000000, 88.269, -177.6662
500.000000, 88.253, -177.1889
508.000000, 88.233, -176.5517
515.000000, 88.217, -175.9950
522.000000, 88.201, -175.4243
530.000000, 88.183, -174.7726
538.000000, 88.166, -174.1337
545.000000, 88.154, -173.5859
552.000000, 88.143, -173.0300
560.000000, 88.132, -172.3979
570.000000, 88.120, -171.5994
580.000000, 88.108, -170.8101
590.000000, 88.099, -170.0106
600.000000, 88.091, -169.2231
608.000000, 88.085, -168.5955
615.000000, 88.079, -168.0387
622.000000, 88.072, -167.4833
630.000000, 88.067, -166.8605
640.000000, 88.061, -166.0769
650.000000, 88.056, -165.2820
660.000000, 88.055, -164.4933
670.000000, 88.056, -163.7083
680.000000, 88.058, -162.9303
690.000000, 88.061, -162.1337
700.000000, 88.067, -161.3498
710.000000, 88.077, -160.5620
720.000000, 88.089, -159.7698
730.000000, 88.103, -158.9881
740.000000, 88.120, -158.2038
750.000000, 88.138, -157.4090
762.000000, 88.162, -156.4677
775.000000, 88.189, -155.4674
788.000000, 88.220, -154.4717
800.000000, 88.251, -153.5563
812.000000, 88.286, -152.6293
825.000000, 88.329, -151.6477
838.000000, 88.375, -150.6909
850.000000, 88.420, -149.8115
862.000000, 88.469, -148.9457
875.000000, 88.523, -148.0206
885.000000, 88.568, -147.3142
900.000000, 88.639, -146.2974
912.000000, 88.700, -145.5041
925.000000, 88.767, -144.6550
938.000000, 88.837, -143.8418
950.000000, 88.905, -143.1030
962.000000, 88.974, -142.4059
975.000000, 89.048, -141.6601
988.000000, 89.121, -140.9456
1000.000000, 89.191, -140.2996
1015.000000, 89.280, -139.5264
1030.000000, 89.370, -138.8032
1044.000000, 89.454, -138.1613
1060.000000, 89.550, -137.4609
1075.000000, 89.641, -136.8342
1090.000000, 89.736, -136.2509
1106.000000, 89.845, -135.6618
1120.000000, 89.943, -135.1799
1138.000000, 90.066, -134.5879
1150.000000, 90.145, -134.2116
1172.000000, 90.288, -133.5571
1180.000000, 90.339, -133.3403
1206.000000, 90.501, -132.6470
1220.000000, 90.588, -132.2732
1241.000000, 90.719, -131.7532
1250.000000, 90.774, -131.5358
1265.000000, 90.865, -131.1806
1280.000000, 90.955, -130.8260
1315.000000, 91.162, -130.0477
1320.000000, 91.190, -129.9339
1340.000000, 91.289, -129.4850
1360.000000, 91.365, -129.0307
1380.000000, 91.438, -128.5905
1400.000000, 91.525, -128.1440
1430.000000, 91.658, -127.4838
1450.000000, 91.746, -127.0442
1475.000000, 91.854, -126.4786
1500.000000, 91.959, -125.9160
1525.000000, 92.061, -125.3721
1550.000000, 92.158, -124.8010
1575.000000, 92.253, -124.2425
1600.000000, 92.347, -123.6648
1625.000000, 92.443, -123.0710
1650.000000, 92.542, -122.4767
1675.000000, 92.645, -121.8982
1700.000000, 92.751, -121.3458
1725.000000, 92.857, -120.8516
1750.000000, 92.960, -120.3621
1775.000000, 93.060, -119.9178
1800.000000, 93.158, -119.4758
1825.000000, 93.256, -119.0302
1850.000000, 93.353, -118.5989
1875.000000, 93.449, -118.1795
1900.000000, 93.545, -117.7624
1925.000000, 93.640, -117.3623
1950.000000, 93.735, -116.9678
1975.000000, 93.830, -116.5983
2000.000000, 93.925, -116.2412
2030.000000, 94.037, -115.8383
2060.000000, 94.149, -115.4586
2090.000000, 94.260, -115.0841
2120.000000, 94.370, -114.7506
2140.000000, 94.442, -114.5572
2180.000000, 94.586, -114.1499
2200.000000, 94.655, -113.9714
2240.000000, 94.788, -113.6373
2270.000000, 94.885, -113.4023
2300.000000, 94.979, -113.1939
2330.000000, 95.070, -113.0050
2360.000000, 95.159, -112.8271
2400.000000, 95.274, -112.6438
2430.000000, 95.356, -112.5186
2470.000000, 95.459, -112.3607
2500.000000, 95.532, -112.2670
2540.000000, 95.623, -112.1529
2580.000000, 95.708, -112.0549
2620.000000, 95.786, -111.9736
2650.000000, 95.839, -111.9232
2690.000000, 95.905, -111.8323
2720.000000, 95.948, -111.7912
2760.000000, 95.998, -111.7242
2800.000000, 96.038, -111.6451
2850.000000, 96.077, -111.5183
2900.000000, 96.104, -111.3291
2950.000000, 96.123, -111.0453
3000.000000, 96.142, -110.6529
3040.000000, 96.165, -110.2634
3070.000000, 96.189, -109.9559
3110.000000, 96.234, -109.5543
3150.000000, 96.287, -109.2023
3200.000000, 96.358, -108.8913
3250.000000, 96.422, -108.6979
3300.000000, 96.474, -108.5516
3350.000000, 96.514, -108.4607
3400.000000, 96.545, -108.3591
3450.000000, 96.573, -108.2634
3500.000000, 96.598, -108.1935
3550.000000, 96.613, -108.1245
3600.000000, 96.617, -108.0936
3650.000000, 96.607, -108.0234
3700.000000, 96.584, -107.8960
3750.000000, 96.551, -107.6928
3820.000000, 96.497, -107.2609
3870.000000, 96.457, -106.8663
3950.000000, 96.400, -106.1317
4000.000000, 96.372, -105.6430
4060.000000, 96.341, -105.1007
4120.000000, 96.306, -104.5736
4180.000000, 96.266, -104.0564
4250.000000, 96.208, -103.4465
4310.000000, 96.149, -102.8408
4370.000000, 96.084, -102.1829
4440.000000, 96.009, -101.3295
4500.000000, 95.951, -100.6233
4550.000000, 95.906, -100.0203
4620.000000, 95.844, -99.2443
4680.000000, 95.788, -98.5988
4750.000000, 95.716, -97.8715
4820.000000, 95.635, -97.1435
4870.000000, 95.571, -96.6224
4940.000000, 95.476, -95.8315
5000.000000, 95.390, -95.1188
5080.000000, 95.273, -94.1093
5150.000000, 95.168, -93.1867
5220.000000, 95.063, -92.1871
5300.000000, 94.942, -91.0147
5380.000000, 94.822, -89.7438
5450.000000, 94.721, -88.6014
5520.000000, 94.625, -87.4204
5600.000000, 94.519, -86.0123
5700.000000, 94.388, -84.1880
5800.000000, 94.261, -82.2726
5900.000000, 94.142, -80.2225
6000.000000, 94.035, -78.1030
6080.000000, 93.963, -76.2830
6150.000000, 93.912, -74.6274
6220.000000, 93.876, -72.9719
6300.000000, 93.853, -71.0153
6400.000000, 93.851, -68.5896
6500.000000, 93.880, -66.1715
6600.000000, 93.939, -63.8098
6700.000000, 94.029, -61.5491
6800.000000, 94.153, -59.4015
6900.000000, 94.324, -57.3911
7000.000000, 94.539, -55.5296
7100.000000, 94.784, -53.8274
7200.000000, 95.057, -52.3066
7300.000000, 95.365, -50.9300
7400.000000, 95.717, -49.8356
7500.000000, 96.127, -49.1270
7620.000000, 96.710, -49.1866
7750.000000, 97.398, -50.8494
7880.000000, 97.936, -54.6247
8000.000000, 98.170, -59.8560
8120.000000, 98.053, -66.0505
8250.000000, 97.486, -72.6373
8380.000000, 96.531, -77.8017
8500.000000, 95.431, -80.7439
8620.000000, 94.240, -81.8076
8750.000000, 92.939, -81.2087
8850.000000, 91.971, -79.6920
9000.000000, 90.606, -76.1672
9120.000000, 89.602, -72.5182
9250.000000, 88.604, -67.9785
9380.000000, 87.688, -62.9023
9500.000000, 86.912, -57.8883
9620.000000, 86.201, -52.5501
9750.000000, 85.502, -46.4871
9880.000000, 84.873, -40.2271
10000.000000, 84.345, -34.2205
10150.000000, 83.750, -26.5119
10300.000000, 83.220, -18.5689
10440.000000, 82.780, -10.8894
10600.000000, 82.340, -1.8257
10750.000000, 81.989, 7.0639
10900.000000, 81.703, 16.3712
11060.000000, 81.489, 27.0144
11200.000000, 81.414, 37.1377
11380.000000, 81.576, 51.4331
11500.000000, 81.946, 61.7095
11720.000000, 83.400, 80.3198
11800.000000, 84.174, 86.1661
12060.000000, 87.079, 98.4996
12200.000000, 88.570, 101.3161
12410.000000, 90.523, 102.9230
12500.000000, 91.305, 103.2050
12650.000000, 92.647, 103.3157
12800.000000, 94.135, 102.3927
13150.000000, 97.894, 88.8139
13200.000000, 98.304, 85.0277
13400.000000, 99.039, 66.3939
13600.000000, 98.022, 48.0588
13800.000000, 95.764, 36.6086
14000.000000, 93.214, 33.3303
