* Measurement data measured by REW V5.31.1
* Source: Headset (DS by VECLAN.COM), MICROPHONE (Master Volume), L, volume: 0.720. Timing signal peak level -14.3 dBFS, measurement signal peak level -14.1 dBFS
* Format: 2M Log Swept Sine, 1 sweep at -12.0 dBFS using an acoustic timing reference
* Dated: Jul 16, 2024 9:36:47 PM
* REW Settings:
*  C-weighting compensation: Off
*  Target level: 85.0 dB
* Note: ; Delay -0.0674 ms (-23 mm, -0.91 in) using estimated IR delay relative to Acoustic reference played from HEADPHONE L with no timing offset
* Measurement: Monitoring L
* Smoothing: 1/24 octave
* Frequency Step: 1/48 octave
* Start Frequency: 1.000 Hz
*
* Freq(Hz), SPL(dB), Phase(degrees)
1.000000, 44.869, 66.0252
1.015000, 45.431, 65.0055
1.030000, 45.976, 63.9772
1.044000, 46.468, 63.0053
1.060000, 47.007, 61.8757
1.075000, 47.488, 60.7955
1.090000, 47.942, 59.6960
1.106000, 48.401, 58.5253
1.120000, 48.790, 57.5445
1.138000, 49.279, 56.3704
1.150000, 49.600, 55.6413
1.172000, 50.175, 54.3994
1.180000, 50.381, 53.9706
1.206000, 51.032, 52.6713
1.220000, 51.374, 52.0231
1.241000, 51.872, 51.1056
1.250000, 52.081, 50.7293
1.265000, 52.422, 50.1209
1.280000, 52.755, 49.5317
1.315000, 53.498, 48.2076
1.320000, 53.600, 48.0221
1.340000, 53.998, 47.2841
1.360000, 54.381, 46.5480
1.380000, 54.747, 45.7677
1.400000, 55.096, 44.9604
1.430000, 55.587, 43.7143
1.450000, 55.892, 42.8541
1.475000, 56.244, 41.7558
1.500000, 56.557, 40.6738
1.525000, 56.829, 39.6329
1.550000, 57.066, 38.6372
1.575000, 57.270, 37.6641
1.600000, 57.447, 36.6933
1.625000, 57.602, 35.7595
1.650000, 57.737, 34.8573
1.675000, 57.859, 33.9809
1.700000, 57.972, 33.1241
1.725000, 58.079, 32.2807
1.750000, 58.187, 31.4445
1.775000, 58.298, 30.5921
1.800000, 58.417, 29.7014
1.825000, 58.548, 28.8011
1.850000, 58.685, 27.8901
1.875000, 58.823, 26.9762
1.900000, 58.956, 26.0679
1.925000, 59.086, 25.1715
1.950000, 59.213, 24.2920
1.975000, 59.336, 23.4156
2.000000, 59.455, 22.5279
2.030000, 59.594, 21.4932
2.060000, 59.729, 20.4893
2.090000, 59.860, 19.5143
2.120000, 59.987, 18.5649
2.140000, 60.070, 17.9442
2.180000, 60.231, 16.7037
2.200000, 60.309, 16.0688
2.240000, 60.460, 14.7895
2.270000, 60.568, 13.8212
2.300000, 60.672, 12.8551
2.330000, 60.772, 11.8999
2.360000, 60.868, 10.9626
2.400000, 60.991, 9.7025
2.430000, 61.079, 8.7846
2.470000, 61.191, 7.6109
2.500000, 61.272, 6.7700
2.540000, 61.376, 5.7005
2.580000, 61.474, 4.6536
2.620000, 61.567, 3.5719
2.650000, 61.632, 2.7586
2.690000, 61.714, 1.6819
2.720000, 61.772, 0.8890
2.760000, 61.845, -0.1347
2.800000, 61.913, -1.1501
2.850000, 61.992, -2.3408
2.900000, 62.066, -3.4227
2.950000, 62.134, -4.4071
3.000000, 62.193, -5.3805
3.040000, 62.235, -6.1520
3.070000, 62.264, -6.7147
3.110000, 62.299, -7.4358
3.150000, 62.331, -8.1144
3.200000, 62.370, -8.9185
3.250000, 62.409, -9.6373
3.300000, 62.448, -10.2473
3.350000, 62.485, -10.7666
3.400000, 62.519, -11.2544
3.450000, 62.551, -11.6973
3.500000, 62.583, -12.0807
3.550000, 62.618, -12.4009
3.600000, 62.659, -12.6804
3.650000, 62.708, -12.8977
3.700000, 62.764, -13.0330
3.750000, 62.824, -13.0869
3.820000, 62.915, -13.0935
3.870000, 62.988, -13.0580
3.950000, 63.122, -12.9647
4.000000, 63.219, -12.9226
4.060000, 63.350, -12.8659
4.120000, 63.498, -12.7541
4.180000, 63.660, -12.6114
4.250000, 63.863, -12.4883
4.310000, 64.047, -12.4368
4.370000, 64.239, -12.4687
4.440000, 64.472, -12.6216
4.500000, 64.684, -12.7783
4.550000, 64.868, -12.9270
4.620000, 65.130, -13.2194
4.680000, 65.357, -13.5543
4.750000, 65.618, -14.0576
4.820000, 65.876, -14.6911
4.870000, 66.061, -15.1909
4.940000, 66.320, -15.9372
5.000000, 66.538, -16.6355
5.080000, 66.818, -17.6490
5.150000, 67.051, -18.6100
5.220000, 67.275, -19.6633
5.300000, 67.519, -20.9329
5.380000, 67.749, -22.2311
5.450000, 67.939, -23.3897
5.520000, 68.115, -24.5548
5.600000, 68.302, -25.9325
5.700000, 68.514, -27.6958
5.800000, 68.704, -29.4133
5.900000, 68.871, -31.0643
6.000000, 69.015, -32.6895
6.080000, 69.115, -33.9684
6.150000, 69.195, -35.0247
6.220000, 69.269, -36.0216
6.300000, 69.344, -37.0832
6.400000, 69.426, -38.3272
6.500000, 69.499, -39.4717
6.600000, 69.572, -40.4715
6.700000, 69.644, -41.3324
6.800000, 69.716, -42.0724
6.900000, 69.794, -42.7236
7.000000, 69.886, -43.2776
7.100000, 69.990, -43.7361
7.200000, 70.106, -44.1304
7.300000, 70.235, -44.5190
7.400000, 70.380, -44.9049
7.500000, 70.539, -45.2898
7.620000, 70.743, -45.7870
7.750000, 70.974, -46.4311
7.880000, 71.217, -47.1761
8.000000, 71.442, -47.9426
8.120000, 71.659, -48.8101
8.250000, 71.888, -49.8488
8.380000, 72.102, -50.9388
8.500000, 72.283, -51.9808
8.620000, 72.448, -53.0487
8.750000, 72.610, -54.1802
8.850000, 72.722, -55.0098
9.000000, 72.870, -56.1892
9.120000, 72.977, -57.0482
9.250000, 73.084, -57.8654
9.380000, 73.185, -58.5708
9.500000, 73.278, -59.1281
9.620000, 73.375, -59.5822
9.750000, 73.485, -59.9781
9.880000, 73.599, -60.3140
10.000000, 73.706, -60.5746
10.150000, 73.843, -60.8977
10.300000, 73.988, -61.2304
10.440000, 74.130, -61.5655
10.600000, 74.298, -62.0014
10.750000, 74.458, -62.4842
10.900000, 74.617, -63.0277
11.060000, 74.780, -63.6905
11.200000, 74.915, -64.3481
11.380000, 75.073, -65.2033
11.500000, 75.167, -65.7673
11.720000, 75.322, -66.7520
11.800000, 75.374, -67.0835
12.060000, 75.534, -68.0804
12.200000, 75.619, -68.5866
12.410000, 75.748, -69.2624
12.500000, 75.804, -69.5275
12.650000, 75.898, -69.9424
12.800000, 75.992, -70.3359
13.150000, 76.218, -71.2733
13.200000, 76.251, -71.4159
13.400000, 76.380, -71.9849
13.600000, 76.507, -72.5431
13.800000, 76.629, -73.0829
14.000000, 76.749, -73.5992
14.300000, 76.928, -74.3991
14.500000, 77.048, -74.9083
14.750000, 77.200, -75.5430
15.000000, 77.357, -76.2075
15.250000, 77.516, -76.9793
15.500000, 77.666, -77.7965
15.750000, 77.799, -78.6242
16.000000, 77.912, -79.4108
16.250000, 78.011, -80.1444
16.500000, 78.103, -80.7452
16.750000, 78.200, -81.2065
17.000000, 78.314, -81.5727
17.250000, 78.450, -81.9397
17.500000, 78.605, -82.3587
17.750000, 78.770, -82.8888
18.000000, 78.931, -83.5533
18.250000, 79.078, -84.3541
18.500000, 79.200, -85.2114
18.750000, 79.295, -86.0457
19.000000, 79.368, -86.7827
19.250000, 79.426, -87.3880
19.500000, 79.483, -87.8168
19.750000, 79.548, -88.0847
20.000000, 79.631, -88.2428
20.299999, 79.758, -88.4168
20.600000, 79.911, -88.6463
20.900000, 80.075, -89.0031
21.200001, 80.238, -89.5217
21.400000, 80.338, -89.9372
21.799999, 80.512, -90.8421
22.000000, 80.585, -91.2954
22.400000, 80.710, -92.1585
22.700001, 80.792, -92.7061
23.000000, 80.871, -93.1655
23.299999, 80.955, -93.5739
23.600000, 81.045, -93.9437
24.000000, 81.177, -94.4354
24.299999, 81.283, -94.8571
24.700001, 81.421, -95.4886
25.000000, 81.519, -96.0044
25.400000, 81.637, -96.7327
25.799999, 81.741, -97.4305
26.200001, 81.835, -98.0666
26.500000, 81.904, -98.4967
26.900000, 81.999, -99.0072
27.200001, 82.075, -99.3642
27.600000, 82.182, -99.8255
28.000000, 82.295, -100.2881
28.500000, 82.441, -100.9116
29.000000, 82.586, -101.5803
29.500000, 82.722, -102.2956
30.000000, 82.845, -103.0116
30.400000, 82.932, -103.5665
30.700001, 82.992, -103.9461
31.100000, 83.066, -104.3874
31.500000, 83.140, -104.7555
32.000000, 83.244, -105.1252
32.500000, 83.363, -105.5050
33.000000, 83.487, -105.9713
33.500000, 83.602, -106.5329
34.000000, 83.702, -107.1047
34.500000, 83.798, -107.6604
35.000000, 83.892, -108.2312
35.500000, 83.977, -108.8389
36.000000, 84.048, -109.4088
36.500000, 84.123, -109.8982
37.000000, 84.217, -110.4076
37.500000, 84.319, -111.1132
38.200001, 84.400, -112.3185
38.700001, 84.405, -112.9230
39.500000, 84.461, -113.0716
40.000000, 84.585, -113.0923
40.599998, 84.770, -113.5608
41.200001, 84.917, -114.3836
41.799999, 85.012, -115.1720
42.500000, 85.101, -115.8214
43.099998, 85.184, -116.2000
43.700001, 85.281, -116.5356
44.400002, 85.401, -117.0490
45.000000, 85.479, -117.5766
45.500000, 85.524, -117.9449
46.200001, 85.599, -118.3201
46.799999, 85.682, -118.7436
47.500000, 85.751, -119.3849
48.200001, 85.797, -119.7952
48.700001, 85.863, -119.9734
49.400002, 86.000, -120.5061
50.000000, 86.091, -121.3097
50.799999, 86.139, -122.2579
51.500000, 86.188, -122.7163
52.200001, 86.274, -123.1680
53.000000, 86.369, -123.8466
53.799999, 86.446, -124.5105
54.500000, 86.513, -125.0575
55.200001, 86.577, -125.5961
56.000000, 86.649, -126.1767
57.000000, 86.744, -126.9277
58.000000, 86.827, -127.6708
59.000000, 86.913, -128.3335
60.000000, 87.000, -129.0137
60.799999, 87.059, -129.5427
61.500000, 87.105, -129.9711
62.200001, 87.149, -130.3631
63.000000, 87.199, -130.7737
64.000000, 87.267, -131.2848
65.000000, 87.338, -131.8418
66.000000, 87.406, -132.4455
67.000000, 87.463, -133.0309
68.000000, 87.517, -133.5383
69.000000, 87.569, -134.0046
70.000000, 87.621, -134.4324
71.000000, 87.666, -134.9187
72.000000, 87.699, -135.3771
73.000000, 87.742, -135.8470
74.000000, 87.783, -136.4436
75.000000, 87.818, -137.0884
76.199997, 87.835, -137.8148
77.500000, 87.886, -138.1208
78.800003, 87.993, -138.6836
80.000000, 88.065, -139.3268
81.199997, 88.118, -140.0268
82.500000, 88.155, -140.6805
83.800003, 88.207, -141.4059
85.000000, 88.239, -142.0764
86.199997, 88.277, -142.5338
87.500000, 88.339, -142.8414
88.500000, 88.406, -142.9535
90.000000, 88.554, -143.4521
91.199997, 88.588, -144.4648
92.500000, 88.524, -145.0222
93.800003, 88.517, -145.2149
95.000000, 88.545, -145.6243
96.199997, 88.570, -146.1670
97.500000, 88.585, -146.7260
98.800003, 88.592, -147.1437
100.000000, 88.600, -147.3943
101.500000, 88.633, -147.6748
103.000000, 88.668, -148.2112
104.400002, 88.684, -148.7837
106.000000, 88.697, -149.4187
107.500000, 88.705, -149.9081
109.000000, 88.722, -150.3251
110.599998, 88.740, -150.7997
112.000000, 88.752, -151.2068
113.800003, 88.767, -151.7060
115.000000, 88.779, -152.0177
117.199997, 88.792, -152.5217
118.000000, 88.795, -152.6603
120.599998, 88.820, -153.1709
122.000000, 88.828, -153.6003
124.099998, 88.839, -154.2822
125.000000, 88.844, -154.5734
126.500000, 88.851, -154.9805
128.000000, 88.862, -155.2818
131.500000, 88.887, -155.8501
132.000000, 88.890, -155.9479
134.000000, 88.885, -156.4614
136.000000, 88.861, -157.0276
138.000000, 88.842, -157.4201
140.000000, 88.871, -157.6409
143.000000, 88.927, -158.1302
145.000000, 88.935, -158.4026
147.500000, 88.930, -158.7655
150.000000, 88.935, -159.2063
152.500000, 88.947, -159.6426
155.000000, 88.953, -159.9446
157.500000, 88.939, -160.2515
160.000000, 88.899, -160.6908
162.500000, 88.842, -161.1170
165.000000, 88.823, -161.2586
167.500000, 88.839, -161.4850
170.000000, 88.842, -161.6977
172.500000, 88.834, -161.7776
175.000000, 88.824, -161.8126
177.500000, 88.812, -161.9438
180.000000, 88.804, -162.1758
182.500000, 88.825, -162.3828
185.000000, 88.870, -162.6451
187.500000, 88.884, -162.9214
190.000000, 88.873, -163.1383
192.500000, 88.851, -163.4037
195.000000, 88.825, -163.5919
197.500000, 88.814, -163.6723
200.000000, 88.822, -163.7789
203.000000, 88.837, -164.0415
206.000000, 88.833, -164.3576
209.000000, 88.811, -164.6496
212.000000, 88.786, -164.8837
214.000000, 88.770, -165.0221
218.000000, 88.740, -165.2791
220.000000, 88.729, -165.3528
224.000000, 88.714, -165.5240
227.000000, 88.695, -165.6811
230.000000, 88.673, -165.7710
233.000000, 88.654, -165.8718
236.000000, 88.635, -166.0076
240.000000, 88.616, -166.1947
243.000000, 88.600, -166.2442
247.000000, 88.578, -166.2363
250.000000, 88.562, -166.2685
254.000000, 88.537, -166.3541
258.000000, 88.511, -166.3972
262.000000, 88.491, -166.4197
265.000000, 88.477, -166.4460
269.000000, 88.464, -166.4538
272.000000, 88.458, -166.4440
276.000000, 88.445, -166.4530
280.000000, 88.424, -166.4722
285.000000, 88.403, -166.4896
290.000000, 88.383, -166.4476
295.000000, 88.361, -166.4088
300.000000, 88.340, -166.3914
304.000000, 88.325, -166.3646
307.000000, 88.317, -166.3295
311.000000, 88.305, -166.2804
315.000000, 88.291, -166.2286
320.000000, 88.275, -166.1625
325.000000, 88.261, -166.0692
330.000000, 88.245, -165.9848
335.000000, 88.230, -165.8744
340.000000, 88.213, -165.7511
345.000000, 88.195, -165.6429
350.000000, 88.177, -165.5182
355.000000, 88.159, -165.3928
360.000000, 88.144, -165.2596
365.000000, 88.129, -165.1054
370.000000, 88.114, -164.9536
375.000000, 88.098, -164.8028
382.000000, 88.075, -164.5729
387.000000, 88.058, -164.3989
395.000000, 88.032, -164.1215
400.000000, 88.017, -163.9462
406.000000, 88.000, -163.7314
412.000000, 87.982, -163.5002
418.000000, 87.964, -163.2504
425.000000, 87.946, -162.9789
431.000000, 87.933, -162.7359
437.000000, 87.918, -162.4989
444.000000, 87.902, -162.2105
450.000000, 87.888, -161.9666
455.000000, 87.877, -161.7389
462.000000, 87.861, -161.4178
468.000000, 87.848, -161.1395
475.000000, 87.835, -160.8307
482.000000, 87.823, -160.5147
487.000000, 87.816, -160.2857
494.000000, 87.808, -159.9485
500.000000, 87.801, -159.6615
508.000000, 87.792, -159.2668
515.000000, 87.786, -158.9177
522.000000, 87.781, -158.5740
530.000000, 87.776, -158.1791
538.000000, 87.771, -157.7682
545.000000, 87.768, -157.4007
552.000000, 87.764, -157.0276
560.000000, 87.762, -156.6045
570.000000, 87.761, -156.0642
580.000000, 87.762, -155.5233
590.000000, 87.764, -154.9709
600.000000, 87.766, -154.4163
608.000000, 87.768, -153.9647
615.000000, 87.769, -153.5636
622.000000, 87.770, -153.1673
630.000000, 87.771, -152.7171
640.000000, 87.773, -152.1311
650.000000, 87.777, -151.5367
660.000000, 87.782, -150.9419
670.000000, 87.790, -150.3414
680.000000, 87.799, -149.7450
690.000000, 87.811, -149.1286
700.000000, 87.825, -148.5227
710.000000, 87.841, -147.9100
720.000000, 87.859, -147.2788
730.000000, 87.878, -146.6575
740.000000, 87.899, -146.0328
750.000000, 87.922, -145.3980
762.000000, 87.952, -144.6424
775.000000, 87.986, -143.8213
788.000000, 88.022, -143.0016
800.000000, 88.060, -142.2555
812.000000, 88.102, -141.4925
825.000000, 88.149, -140.6758
838.000000, 88.201, -139.8728
850.000000, 88.252, -139.1331
862.000000, 88.304, -138.4108
875.000000, 88.363, -137.6417
885.000000, 88.411, -137.0524
900.000000, 88.488, -136.1962
912.000000, 88.552, -135.5287
925.000000, 88.623, -134.8193
938.000000, 88.698, -134.1425
950.000000, 88.769, -133.5193
962.000000, 88.840, -132.9307
975.000000, 88.917, -132.3038
988.000000, 88.994, -131.7093
1000.000000, 89.067, -131.1782
1015.000000, 89.159, -130.5374
1030.000000, 89.253, -129.9401
1044.000000, 89.341, -129.4147
1060.000000, 89.441, -128.8404
1075.000000, 89.534, -128.3313
1090.000000, 89.632, -127.8646
1106.000000, 89.744, -127.3944
1120.000000, 89.844, -127.0070
1138.000000, 89.971, -126.5388
1150.000000, 90.053, -126.2462
1172.000000, 90.200, -125.7386
1180.000000, 90.251, -125.5704
1206.000000, 90.416, -125.0349
1220.000000, 90.506, -124.7476
1241.000000, 90.639, -124.3501
1250.000000, 90.695, -124.1767
1265.000000, 90.791, -123.9042
1280.000000, 90.887, -123.6567
1315.000000, 91.088, -123.0383
1320.000000, 91.113, -122.9399
1340.000000, 91.212, -122.5885
1360.000000, 91.298, -122.2634
1380.000000, 91.379, -121.9217
1400.000000, 91.468, -121.5576
1430.000000, 91.603, -121.0301
1450.000000, 91.692, -120.6795
1475.000000, 91.802, -120.2242
1500.000000, 91.910, -119.7650
1525.000000, 92.015, -119.3245
1550.000000, 92.115, -118.8550
1575.000000, 92.212, -118.3954
1600.000000, 92.308, -117.9187
1625.000000, 92.404, -117.4291
1650.000000, 92.502, -116.9320
1675.000000, 92.603, -116.4356
1700.000000, 92.708, -115.9475
1725.000000, 92.814, -115.5066
1750.000000, 92.920, -115.0743
1775.000000, 93.023, -114.6939
1800.000000, 93.124, -114.3169
1825.000000, 93.223, -113.9408
1850.000000, 93.322, -113.5807
1875.000000, 93.420, -113.2300
1900.000000, 93.517, -112.8807
1925.000000, 93.614, -112.5456
1950.000000, 93.711, -112.2134
1975.000000, 93.807, -111.9056
2000.000000, 93.903, -111.6086
2030.000000, 94.018, -111.2744
2060.000000, 94.131, -110.9600
2090.000000, 94.242, -110.6480
2120.000000, 94.353, -110.3771
2140.000000, 94.427, -110.2234
2180.000000, 94.571, -109.8942
2200.000000, 94.641, -109.7533
2240.000000, 94.775, -109.4940
2270.000000, 94.873, -109.3139
2300.000000, 94.968, -109.1601
2330.000000, 95.060, -109.0231
2360.000000, 95.150, -108.8947
2400.000000, 95.265, -108.7763
2430.000000, 95.347, -108.6966
2470.000000, 95.451, -108.5978
2500.000000, 95.525, -108.5475
2540.000000, 95.618, -108.4924
2580.000000, 95.705, -108.4481
2620.000000, 95.784, -108.4161
2650.000000, 95.838, -108.4019
2690.000000, 95.904, -108.3552
2720.000000, 95.948, -108.3434
2760.000000, 95.999, -108.3116
2800.000000, 96.042, -108.2667
2850.000000, 96.087, -108.1844
2900.000000, 96.122, -108.0501
2950.000000, 96.149, -107.8446
3000.000000, 96.174, -107.5522
3040.000000, 96.199, -107.2472
3070.000000, 96.225, -107.0009
3110.000000, 96.268, -106.6801
3150.000000, 96.321, -106.4110
3200.000000, 96.387, -106.2066
3250.000000, 96.442, -106.1080
3300.000000, 96.482, -106.0222
3350.000000, 96.510, -105.9548
3400.000000, 96.531, -105.8507
3450.000000, 96.553, -105.7308
3500.000000, 96.575, -105.6131
3550.000000, 96.594, -105.4921
3600.000000, 96.606, -105.4298
3650.000000, 96.606, -105.3577
3700.000000, 96.594, -105.2581
3750.000000, 96.571, -105.1064
3820.000000, 96.524, -104.7704
3870.000000, 96.485, -104.4474
3950.000000, 96.426, -103.8013
4000.000000, 96.395, -103.3388
4060.000000, 96.364, -102.7965
4120.000000, 96.337, -102.2556
4180.000000, 96.311, -101.7526
4250.000000, 96.273, -101.2526
4310.000000, 96.224, -100.8283
4370.000000, 96.153, -100.3776
4440.000000, 96.054, -99.6958
4500.000000, 95.969, -99.0243
4550.000000, 95.906, -98.3783
4620.000000, 95.832, -97.4883
4680.000000, 95.778, -96.7491
4750.000000, 95.717, -95.9549
4820.000000, 95.650, -95.2149
4870.000000, 95.596, -94.7145
4940.000000, 95.512, -93.9838
5000.000000, 95.431, -93.3381
5080.000000, 95.315, -92.4154
5150.000000, 95.209, -91.5544
5220.000000, 95.101, -90.6017
5300.000000, 94.977, -89.4737
5380.000000, 94.854, -88.2406
5450.000000, 94.750, -87.1228
5520.000000, 94.651, -85.9571
5600.000000, 94.542, -84.5566
5700.000000, 94.412, -82.7321
5800.000000, 94.288, -80.8214
5900.000000, 94.173, -78.7862
6000.000000, 94.070, -76.6914
6080.000000, 94.000, -74.8962
6150.000000, 93.952, -73.2645
6220.000000, 93.918, -71.6309
6300.000000, 93.897, -69.6959
6400.000000, 93.899, -67.2946
6500.000000, 93.933, -64.9034
6600.000000, 93.997, -62.5706
6700.000000, 94.091, -60.3398
6800.000000, 94.222, -58.2231
6900.000000, 94.400, -56.2440
7000.000000, 94.625, -54.4178
7100.000000, 94.882, -52.7623
7200.000000, 95.169, -51.3074
7300.000000, 95.493, -50.0214
7400.000000, 95.862, -49.0586
7500.000000, 96.289, -48.5384
7620.000000, 96.884, -48.9161
7750.000000, 97.566, -51.0260
7880.000000, 98.065, -55.2740
8000.000000, 98.230, -60.8347
8120.000000, 98.025, -67.1354
8250.000000, 97.366, -73.5470
8380.000000, 96.345, -78.3233
8500.000000, 95.215, -80.8421
8620.000000, 94.017, -81.5106
8750.000000, 92.727, -80.5578
8850.000000, 91.773, -78.8232
9000.000000, 90.435, -75.0513
9120.000000, 89.455, -71.2578
9250.000000, 88.481, -66.6064
9380.000000, 87.589, -61.4537
9500.000000, 86.834, -56.3869
9620.000000, 86.142, -51.0086
9750.000000, 85.463, -44.9162
9880.000000, 84.852, -38.6376
10000.000000, 84.342, -32.6174
10150.000000, 83.767, -24.8920
10300.000000, 83.256, -16.9373
10440.000000, 82.836, -9.2461
10600.000000, 82.418, -0.1696
10750.000000, 82.089, 8.7305
10900.000000, 81.827, 18.0467
11060.000000, 81.644, 28.6927
11200.000000, 81.599, 38.8101
11380.000000, 81.805, 53.0751
11500.000000, 82.209, 63.3058
11720.000000, 83.733, 81.7696
11800.000000, 84.534, 87.5415
12060.000000, 87.531, 99.5637
12200.000000, 89.082, 102.1638
12410.000000, 91.156, 103.2995
12500.000000, 92.001, 103.2671
12650.000000, 93.462, 102.5874
12800.000000, 95.064, 100.3526
13150.000000, 98.635, 81.5489
13200.000000, 98.925, 77.0696
13400.000000, 99.005, 57.2255
13600.000000, 97.386, 40.6970
13800.000000, 94.870, 32.3267
14000.000000, 92.360, 31.5383
14300.000000, 89.422, 38.4090
