* Measurement data measured by REW V5.20.13
* Source: Headset (DS by VECLAN.COM), MICROPHONE (Master Volume), L, volume: 0.720. Timing signal peak level -15.8 dBFS, measurement signal peak level -15.5 dBFS
* Format: 2M Log Swept Sine, 1 sweep at -12.0 dBFS using an acoustic timing reference
* Dated: Feb 6, 2024 2:57:58 PM
* REW Settings:
*  C-weighting compensation: Off
*  Target level: 75.0 dB
* Note: ; Delay -0.0659 ms (-23 mm, -0.89 in) using estimated IR delay relative to Acoustic reference played from HEADPHONE R with no timing offset
* Measurement: TangZu Fudu S2 R
* Smoothing: 1/24 octave
* Frequency Step: 1/48 octave
* Start Frequency: 1.000 Hz
*
* Freq(Hz) SPL(dB) Phase(degrees)
1.000000 75.794 -47.5701
1.015000 76.072 -45.5748
1.030000 76.343 -43.7557
1.044000 76.589 -42.2275
1.060000 76.861 -40.6942
1.075000 77.106 -39.4759
1.090000 77.340 -38.4817
1.106000 77.577 -37.6931
1.120000 77.781 -37.2971
1.138000 78.040 -37.1792
1.150000 78.211 -37.3263
1.172000 78.521 -38.0184
1.180000 78.632 -38.3936
1.206000 78.988 -40.0087
1.220000 79.175 -41.0971
1.241000 79.452 -42.9631
1.250000 79.568 -43.8344
1.265000 79.759 -45.3627
1.280000 79.946 -46.9651
1.315000 80.368 -50.8569
1.320000 80.427 -51.4172
1.340000 80.656 -53.6334
1.360000 80.876 -55.7666
1.380000 81.089 -57.7595
1.400000 81.292 -59.5548
1.430000 81.580 -61.7520
1.450000 81.760 -62.8028
1.475000 81.970 -63.5796
1.500000 82.160 -63.9720
1.525000 82.332 -64.0768
1.550000 82.487 -63.9360
1.575000 82.627 -63.5912
1.600000 82.753 -63.0845
1.625000 82.867 -62.4576
1.650000 82.972 -61.7524
1.675000 83.068 -61.0107
1.700000 83.157 -60.2745
1.725000 83.241 -59.5854
1.750000 83.323 -58.9854
1.775000 83.402 -58.5164
1.800000 83.482 -58.2201
1.825000 83.564 -58.1385
1.850000 83.645 -58.2766
1.875000 83.717 -58.5571
1.900000 83.781 -58.9583
1.925000 83.838 -59.4615
1.950000 83.889 -60.0481
1.975000 83.935 -60.6992
2.000000 83.979 -61.3963
2.030000 84.028 -62.2671
2.060000 84.077 -63.1448
2.090000 84.128 -63.9971
2.120000 84.182 -64.7918
2.140000 84.221 -65.2736
2.180000 84.309 -66.0789
2.200000 84.360 -66.3837
2.240000 84.470 -66.8605
2.270000 84.556 -67.1378
2.300000 84.646 -67.3569
2.330000 84.739 -67.5280
2.360000 84.834 -67.6609
2.400000 84.964 -67.7957
2.430000 85.063 -67.8778
2.470000 85.196 -67.9809
2.500000 85.297 -68.0661
2.540000 85.431 -68.2093
2.580000 85.563 -68.3979
2.620000 85.697 -68.5683
2.650000 85.797 -68.6797
2.690000 85.933 -68.8167
2.720000 86.035 -68.9179
2.760000 86.172 -69.0613
2.800000 86.312 -69.2263
2.850000 86.488 -69.4828
2.900000 86.668 -69.8187
2.950000 86.851 -70.2604
3.000000 87.039 -70.8222
3.040000 87.193 -71.3397
3.070000 87.309 -71.7562
3.110000 87.466 -72.3361
3.150000 87.623 -72.9284
3.200000 87.820 -73.6603
3.250000 88.016 -74.3519
3.300000 88.208 -74.9699
3.350000 88.401 -75.4926
3.400000 88.594 -75.9440
3.450000 88.787 -76.3596
3.500000 88.979 -76.7751
3.550000 89.169 -77.2258
3.600000 89.355 -77.7472
3.650000 89.537 -78.3749
3.700000 89.714 -79.1390
3.750000 89.888 -80.0258
3.820000 90.127 -81.4068
3.870000 90.294 -82.4451
3.950000 90.552 -84.0986
4.000000 90.708 -85.0723
4.060000 90.889 -86.1326
4.120000 91.064 -87.1115
4.180000 91.234 -88.0439
4.250000 91.423 -89.1114
4.310000 91.579 -90.0422
4.370000 91.729 -91.0182
4.440000 91.895 -92.2484
4.500000 92.029 -93.3725
4.550000 92.137 -94.3371
4.620000 92.280 -95.6971
4.680000 92.397 -96.8412
4.750000 92.528 -98.1111
4.820000 92.651 -99.2942
4.870000 92.735 -100.1056
4.940000 92.846 -101.2052
5.000000 92.936 -102.1228
5.080000 93.050 -103.3252
5.150000 93.145 -104.3708
5.220000 93.235 -105.4089
5.300000 93.330 -106.5755
5.380000 93.420 -107.7111
5.450000 93.495 -108.6712
5.520000 93.568 -109.5934
5.600000 93.647 -110.6044
5.700000 93.739 -111.8111
5.800000 93.827 -112.9614
5.900000 93.912 -114.0608
6.000000 93.992 -115.0998
6.080000 94.053 -115.8937
6.150000 94.105 -116.5675
6.220000 94.156 -117.2271
6.300000 94.212 -117.9665
6.400000 94.278 -118.8621
6.500000 94.342 -119.7169
6.600000 94.403 -120.5210
6.700000 94.462 -121.2703
6.800000 94.517 -121.9710
6.900000 94.571 -122.6301
7.000000 94.625 -123.2540
7.100000 94.676 -123.8418
7.200000 94.727 -124.3899
7.300000 94.780 -124.8950
7.400000 94.835 -125.3500
7.500000 94.890 -125.7540
7.620000 94.961 -126.1965
7.750000 95.045 -126.6503
7.880000 95.136 -127.0596
8.000000 95.226 -127.4256
8.120000 95.323 -127.8060
8.250000 95.436 -128.2151
8.380000 95.555 -128.6533
8.500000 95.666 -129.1100
8.620000 95.781 -129.6050
8.750000 95.904 -130.1913
8.850000 95.995 -130.6848
9.000000 96.129 -131.4941
9.120000 96.229 -132.1829
9.250000 96.329 -132.9624
9.380000 96.421 -133.7829
9.500000 96.495 -134.5507
9.620000 96.557 -135.3204
9.750000 96.611 -136.1644
9.880000 96.649 -136.9858
10.000000 96.669 -137.7159
10.150000 96.674 -138.5962
10.300000 96.664 -139.4069
10.440000 96.640 -140.0997
10.600000 96.604 -140.8173
10.750000 96.569 -141.4103
10.900000 96.531 -141.9330
11.060000 96.495 -142.4323
11.200000 96.466 -142.8164
11.380000 96.435 -143.2557
11.500000 96.418 -143.5125
11.720000 96.397 -143.9386
11.800000 96.394 -144.0869
12.060000 96.401 -144.5546
12.200000 96.415 -144.8359
12.410000 96.447 -145.3004
12.500000 96.462 -145.5300
12.650000 96.490 -145.9491
12.800000 96.517 -146.4173
13.150000 96.563 -147.7183
13.200000 96.566 -147.9185
13.400000 96.571 -148.7678
13.600000 96.558 -149.6123
13.800000 96.526 -150.4307
14.000000 96.480 -151.1493
14.300000 96.391 -152.0036
14.500000 96.331 -152.3784
14.750000 96.273 -152.6804
15.000000 96.243 -152.8396
15.250000 96.253 -152.9955
15.500000 96.291 -153.2550
15.750000 96.347 -153.6734
16.000000 96.403 -154.2956
16.250000 96.442 -155.0625
16.500000 96.460 -155.9189
16.750000 96.451 -156.7714
17.000000 96.425 -157.5284
17.250000 96.390 -158.1650
17.500000 96.354 -158.6580
17.750000 96.331 -159.0566
18.000000 96.320 -159.4077
18.250000 96.324 -159.7643
18.500000 96.337 -160.1805
18.750000 96.354 -160.6587
19.000000 96.368 -161.2006
19.250000 96.375 -161.7719
19.500000 96.375 -162.3426
19.750000 96.368 -162.8896
20.000000 96.358 -163.3908
20.299999 96.348 -163.9407
20.600000 96.341 -164.4510
20.900000 96.340 -164.9481
21.200001 96.342 -165.4550
21.400000 96.343 -165.8006
21.799999 96.341 -166.4912
22.000000 96.337 -166.8218
22.400000 96.327 -167.4167
22.700001 96.322 -167.7873
23.000000 96.326 -168.1003
23.299999 96.342 -168.3955
23.600000 96.372 -168.7213
24.000000 96.422 -169.2728
24.299999 96.457 -169.7933
24.700001 96.483 -170.5807
25.000000 96.481 -171.1600
25.400000 96.457 -171.8032
25.799999 96.426 -172.2386
26.200001 96.409 -172.5263
26.500000 96.407 -172.7245
26.900000 96.410 -173.0347
27.200001 96.407 -173.2922
27.600000 96.390 -173.5867
28.000000 96.370 -173.7244
28.500000 96.379 -173.7139
29.000000 96.446 -173.8470
29.500000 96.531 -174.4586
30.000000 96.566 -175.4926
30.400000 96.538 -176.3499
30.700001 96.493 -176.8775
31.100000 96.427 -177.3783
31.500000 96.375 -177.7279
32.000000 96.333 -178.1569
32.500000 96.295 -178.6720
33.000000 96.244 -179.1493
33.500000 96.194 -179.4596
34.000000 96.173 -179.6679
34.500000 96.180 -179.9630
35.000000 96.190 179.5808
35.500000 96.180 179.0729
36.000000 96.157 178.6586
36.500000 96.138 178.3515
37.000000 96.131 178.0456
37.500000 96.126 177.6648
38.200001 96.097 177.0925
38.700001 96.067 176.7570
39.500000 96.032 176.2712
40.000000 96.013 175.8930
40.599998 95.976 175.4039
41.200001 95.929 175.0179
41.799999 95.897 174.7307
42.500000 95.885 174.3294
43.099998 95.874 173.8734
43.700001 95.851 173.4350
44.400002 95.824 173.0357
45.000000 95.810 172.7325
45.500000 95.799 172.4677
46.200001 95.780 172.1012
46.799999 95.761 171.8050
47.500000 95.736 171.4325
48.200001 95.697 171.0266
48.700001 95.659 170.7667
49.400002 95.605 170.4989
50.000000 95.571 170.3152
50.799999 95.547 169.9693
51.500000 95.525 169.5130
52.200001 95.486 169.0505
53.000000 95.440 168.6851
53.799999 95.413 168.4205
54.500000 95.401 168.1834
55.200001 95.393 167.9397
56.000000 95.383 167.5794
57.000000 95.332 166.9923
58.000000 95.229 166.6027
59.000000 95.146 166.4727
60.000000 95.113 166.0923
60.799999 95.076 165.5319
61.500000 95.042 165.1145
62.200001 95.040 164.6611
63.000000 95.038 163.8135
64.000000 94.944 162.9297
65.000000 94.867 162.9461
66.000000 94.882 163.1041
67.000000 94.905 162.9781
68.000000 94.874 162.7841
69.000000 94.823 162.8124
70.000000 94.791 162.6675
71.000000 94.717 162.2632
72.000000 94.624 162.0310
73.000000 94.563 161.8358
74.000000 94.521 161.5645
75.000000 94.494 161.2557
76.199997 94.451 160.8186
77.500000 94.381 160.5781
78.800003 94.321 160.4491
80.000000 94.260 160.3163
81.199997 94.205 160.0943
82.500000 94.121 159.7453
83.800003 94.041 159.7250
85.000000 94.033 159.7165
86.199997 94.033 159.3876
87.500000 93.985 158.9669
88.500000 93.923 158.7793
90.000000 93.838 158.7031
91.199997 93.791 158.5105
92.500000 93.729 158.1210
93.800003 93.659 157.7440
95.000000 93.597 157.4608
96.199997 93.538 157.3219
97.500000 93.495 157.2538
98.800003 93.448 157.0775
100.000000 93.378 156.9653
101.500000 93.300 156.9907
103.000000 93.249 156.9002
104.400002 93.205 156.7446
106.000000 93.156 156.5544
107.500000 93.096 156.4572
109.000000 93.029 156.4575
110.599998 92.965 156.4711
112.000000 92.915 156.3530
113.800003 92.841 156.1372
115.000000 92.794 156.0365
117.199997 92.716 155.8864
118.000000 92.686 155.8297
120.599998 92.563 155.6053
122.000000 92.491 155.4965
124.099998 92.395 155.3615
125.000000 92.362 155.3053
126.500000 92.315 155.2012
128.000000 92.269 155.1066
131.500000 92.154 155.0038
132.000000 92.136 154.9926
134.000000 92.061 154.9352
136.000000 91.992 154.8817
138.000000 91.936 154.8367
140.000000 91.891 154.8368
143.000000 91.813 154.9189
145.000000 91.754 154.9747
147.500000 91.677 154.9362
150.000000 91.602 154.9602
152.500000 91.536 155.0668
155.000000 91.457 155.1798
157.500000 91.366 155.2483
160.000000 91.283 155.2863
162.500000 91.219 155.3244
165.000000 91.154 155.4231
167.500000 91.080 155.6290
170.000000 90.997 155.8375
172.500000 90.919 156.0421
175.000000 90.861 156.2307
177.500000 90.811 156.3249
180.000000 90.745 156.3369
182.500000 90.674 156.3316
185.000000 90.606 156.3349
187.500000 90.532 156.5802
190.000000 90.476 157.1216
192.500000 90.432 157.6489
195.000000 90.389 157.9933
197.500000 90.348 158.1380
200.000000 90.317 158.1905
203.000000 90.286 158.1605
206.000000 90.237 158.0982
209.000000 90.170 158.1031
212.000000 90.106 158.2471
214.000000 90.064 158.3683
218.000000 89.977 158.5190
220.000000 89.946 158.5540
224.000000 89.895 158.8031
227.000000 89.829 159.1256
230.000000 89.740 159.3097
233.000000 89.668 159.3926
236.000000 89.614 159.5183
240.000000 89.537 159.8296
243.000000 89.488 160.0794
247.000000 89.429 160.4028
250.000000 89.376 160.6187
254.000000 89.307 160.9005
258.000000 89.249 161.1836
262.000000 89.198 161.4670
265.000000 89.153 161.7096
269.000000 89.079 162.0314
272.000000 89.028 162.2521
276.000000 88.976 162.5746
280.000000 88.931 162.9247
285.000000 88.868 163.3489
290.000000 88.799 163.7620
295.000000 88.743 164.1735
300.000000 88.690 164.6273
304.000000 88.645 164.9819
307.000000 88.615 165.2088
311.000000 88.579 165.4998
315.000000 88.542 165.8314
320.000000 88.490 166.3131
325.000000 88.439 166.7766
330.000000 88.393 167.1882
335.000000 88.348 167.6069
340.000000 88.302 168.0526
345.000000 88.261 168.5068
350.000000 88.227 168.9615
355.000000 88.197 169.3836
360.000000 88.167 169.7481
365.000000 88.134 170.1565
370.000000 88.098 170.6187
375.000000 88.057 171.0714
382.000000 88.004 171.7075
387.000000 87.972 172.1194
395.000000 87.926 172.7308
400.000000 87.896 173.1641
406.000000 87.859 173.7187
412.000000 87.821 174.2427
418.000000 87.784 174.7411
425.000000 87.739 175.3254
431.000000 87.701 175.8844
437.000000 87.664 176.4624
444.000000 87.623 177.0524
450.000000 87.598 177.5231
455.000000 87.583 177.9186
462.000000 87.557 178.5049
468.000000 87.527 179.0551
475.000000 87.496 179.7403
482.000000 87.480 -179.6406
487.000000 87.469 -179.2564
494.000000 87.449 -178.7285
500.000000 87.434 -178.2633
508.000000 87.416 -177.6150
515.000000 87.398 -177.0087
522.000000 87.381 -176.3998
530.000000 87.367 -175.7555
538.000000 87.362 -175.1290
545.000000 87.359 -174.5601
552.000000 87.352 -173.9779
560.000000 87.343 -173.3233
570.000000 87.332 -172.4874
580.000000 87.326 -171.6101
590.000000 87.329 -170.7992
600.000000 87.337 -170.0477
608.000000 87.339 -169.4289
615.000000 87.337 -168.8371
622.000000 87.331 -168.2272
630.000000 87.327 -167.5441
640.000000 87.335 -166.7391
650.000000 87.348 -165.9953
660.000000 87.360 -165.2245
670.000000 87.366 -164.3959
680.000000 87.371 -163.5523
690.000000 87.386 -162.7277
700.000000 87.411 -161.9182
710.000000 87.437 -161.1624
720.000000 87.462 -160.3967
730.000000 87.484 -159.5528
740.000000 87.507 -158.6939
750.000000 87.537 -157.8997
762.000000 87.592 -157.0227
775.000000 87.657 -156.0793
788.000000 87.704 -155.0714
800.000000 87.746 -154.1005
812.000000 87.799 -153.1835
825.000000 87.869 -152.2775
838.000000 87.940 -151.3846
850.000000 87.999 -150.4890
862.000000 88.062 -149.6151
875.000000 88.142 -148.7567
885.000000 88.212 -148.1368
900.000000 88.319 -147.2155
912.000000 88.401 -146.4877
925.000000 88.486 -145.7270
938.000000 88.572 -144.9993
950.000000 88.656 -144.3653
962.000000 88.740 -143.7721
975.000000 88.828 -143.1389
988.000000 88.913 -142.4925
1000.000000 88.993 -141.8870
1015.000000 89.098 -141.1304
1030.000000 89.208 -140.4033
1044.000000 89.313 -139.7504
1060.000000 89.436 -139.0258
1075.000000 89.560 -138.4099
1090.000000 89.697 -137.8778
1106.000000 89.855 -137.3611
1120.000000 89.990 -136.9460
1138.000000 90.157 -136.4662
1150.000000 90.264 -136.1707
1172.000000 90.458 -135.7085
1180.000000 90.529 -135.5618
1206.000000 90.769 -135.1400
1220.000000 90.897 -134.9444
1241.000000 91.085 -134.6543
1250.000000 91.164 -134.5414
1265.000000 91.294 -134.3841
1280.000000 91.424 -134.2538
1315.000000 91.715 -133.9967
1320.000000 91.755 -133.9653
1340.000000 91.904 -133.8676
1360.000000 92.034 -133.7888
1380.000000 92.162 -133.7449
1400.000000 92.305 -133.7404
1430.000000 92.516 -133.7534
1450.000000 92.650 -133.7906
1475.000000 92.816 -133.8744
1500.000000 92.980 -134.0135
1525.000000 93.134 -134.2063
1550.000000 93.265 -134.4032
1575.000000 93.384 -134.6118
1600.000000 93.510 -134.8936
1625.000000 93.640 -135.2245
1650.000000 93.755 -135.5707
1675.000000 93.851 -135.9167
1700.000000 93.936 -136.2846
1725.000000 94.019 -136.6901
1750.000000 94.098 -137.1174
1775.000000 94.167 -137.5536
1800.000000 94.220 -137.9824
1825.000000 94.262 -138.4037
1850.000000 94.298 -138.8286
1875.000000 94.330 -139.2604
1900.000000 94.351 -139.6642
1925.000000 94.362 -140.0365
1950.000000 94.365 -140.4012
1975.000000 94.361 -140.7391
2000.000000 94.347 -141.0352
2030.000000 94.324 -141.3493
2060.000000 94.297 -141.6227
2090.000000 94.259 -141.8337
2120.000000 94.209 -141.9671
2140.000000 94.174 -142.0227
2180.000000 94.109 -142.0785
2200.000000 94.075 -142.0651
2240.000000 94.000 -141.9543
2270.000000 93.936 -141.7896
2300.000000 93.868 -141.5524
2330.000000 93.806 -141.2755
2360.000000 93.750 -140.9481
2400.000000 93.674 -140.4079
2430.000000 93.617 -139.9335
2470.000000 93.546 -139.2272
2500.000000 93.500 -138.6421
2540.000000 93.453 -137.8134
2580.000000 93.418 -136.9538
2620.000000 93.387 -136.0577
2650.000000 93.364 -135.3652
2690.000000 93.334 -134.4067
2720.000000 93.317 -133.6678
2760.000000 93.309 -132.6608
2800.000000 93.317 -131.6277
2850.000000 93.337 -130.3116
2900.000000 93.350 -128.9421
2950.000000 93.370 -127.5499
3000.000000 93.420 -126.1759
3040.000000 93.482 -125.0933
3070.000000 93.538 -124.2893
3110.000000 93.616 -123.2291
3150.000000 93.697 -122.1841
3200.000000 93.807 -120.9116
3250.000000 93.939 -119.7075
3300.000000 94.094 -118.5850
3350.000000 94.266 -117.5537
3400.000000 94.449 -116.6275
3450.000000 94.647 -115.8210
3500.000000 94.861 -115.1506
3550.000000 95.091 -114.6373
3600.000000 95.337 -114.3094
3650.000000 95.585 -114.1751
3700.000000 95.824 -114.2418
3750.000000 96.051 -114.5275
3820.000000 96.357 -115.3423
3870.000000 96.559 -116.2308
3950.000000 96.817 -118.1319
4000.000000 96.923 -119.5797
4060.000000 96.989 -121.5209
4120.000000 96.977 -123.5882
4180.000000 96.880 -125.6570
4250.000000 96.660 -127.9019
4310.000000 96.380 -129.5068
4370.000000 96.029 -130.6816
4440.000000 95.562 -131.3685
4500.000000 95.139 -131.2861
4550.000000 94.789 -130.7236
4620.000000 94.341 -129.2360
4680.000000 94.032 -127.4752
4750.000000 93.796 -125.2334
4820.000000 93.693 -123.3022
4870.000000 93.671 -122.3655
4940.000000 93.635 -121.7655
5000.000000 93.540 -121.7471
5080.000000 93.278 -121.9449
5150.000000 92.939 -121.8878
5220.000000 92.532 -121.3623
5300.000000 92.021 -120.0746
5380.000000 91.492 -118.0613
5450.000000 91.042 -115.7175
5520.000000 90.625 -112.8042
5600.000000 90.235 -108.8568
5700.000000 89.941 -103.7066
5800.000000 89.756 -99.0874
5900.000000 89.569 -94.5199
6000.000000 89.429 -89.5986
6080.000000 89.383 -85.5195
6150.000000 89.395 -81.9787
6220.000000 89.454 -78.5579
6300.000000 89.561 -74.8579
6400.000000 89.724 -70.5305
6500.000000 89.902 -66.4243
6600.000000 90.104 -62.4169
6700.000000 90.345 -58.4413
6800.000000 90.636 -54.5031
6900.000000 90.994 -50.6432
7000.000000 91.438 -46.9522
7100.000000 91.970 -43.5231
7200.000000 92.583 -40.4581
7300.000000 93.270 -37.8773
7400.000000 94.028 -35.9393
7500.000000 94.857 -34.8651
7620.000000 95.943 -35.1656
7750.000000 97.125 -38.1846
7880.000000 98.017 -44.5450
8000.000000 98.363 -52.8824
8120.000000 98.132 -61.8677
8250.000000 97.282 -69.9213
8380.000000 96.031 -74.7558
8500.000000 94.748 -76.3146
8620.000000 93.480 -75.6348
8750.000000 92.194 -73.0701
8850.000000 91.291 -70.1790
9000.000000 90.097 -64.8215
9120.000000 89.282 -59.9189
9250.000000 88.529 -54.1946
9380.000000 87.895 -48.1761
9500.000000 87.403 -42.4490
9620.000000 86.997 -36.6264
9750.000000 86.657 -30.2840
9880.000000 86.416 -23.9756
10000.000000 86.277 -18.2501
10150.000000 86.211 -11.3246
10300.000000 86.252 -4.7704
10440.000000 86.379 0.8859
10600.000000 86.613 6.6355
10750.000000 86.889 11.1736
10900.000000 87.179 14.7626
11060.000000 87.448 17.5123
11200.000000 87.600 19.1240
11380.000000 87.641 20.4910
11500.000000 87.572 21.2362
11720.000000 87.253 22.9373
11800.000000 87.087 23.8032
12060.000000 86.460 27.7244
12200.000000 86.116 30.4193
12410.000000 85.641 34.9517
12500.000000 85.464 36.9908
12650.000000 85.218 40.3679
12800.000000 85.034 43.5229
13150.000000 84.734 48.7514
13200.000000 84.686 49.1575
13400.000000 84.395 49.8937
13600.000000 83.853 49.6290
13800.000000 82.985 49.3975
14000.000000 81.812 50.3783
14300.000000 79.705 55.6007
14500.000000 78.250 61.6266
14750.000000 76.532 71.4562
15000.000000 75.021 83.1359
15250.000000 73.778 96.0391
15500.000000 72.863 109.6292
15750.000000 72.293 123.4824
16000.000000 72.014 137.3234
16250.000000 72.019 150.7217
16500.000000 72.334 163.0853
16750.000000 72.959 173.5736
17000.000000 73.774 -178.8990
17250.000000 74.507 -175.0924
17500.000000 74.873 -174.1719
17750.000000 74.861 -173.8729
18000.000000 74.732 -173.8500
18250.000000 74.490 -175.8753
18500.000000 73.867 179.9094
18750.000000 72.603 176.5958
19000.000000 70.755 179.1179
19250.000000 68.781 -171.7902
19500.000000 66.960 -158.9520
19750.000000 65.298 -144.5951
20000.000000 63.753 -129.8253
20300.000000 62.029 -112.4395
20600.000000 60.396 -95.5207
20900.000000 58.623 -78.2764
21200.000000 56.660 -61.7145
21400.000000 55.383 -61.9832
21800.000000 53.031 24.9421
22000.000000 51.415 111.6164
22400.000000 45.797 -163.3369
22700.000000 39.898 -37.4531
23000.000000 34.537 146.2500
23300.000000 32.250 -87.9766
23600.000000 31.695 -15.7109
24000.000000 31.212 -22.9688
