* Measurement data measured by REW V5.20.13
* Source: Headset (DS by VECLAN.COM), MICROPHONE (Master Volume), L, volume: 0.800. Timing signal peak level -13.4 dBFS, measurement signal peak level -10.3 dBFS
* Format: 2M Log Swept Sine, 1 sweep at -12.0 dBFS using an acoustic timing reference
* Dated: Oct 15, 2023 1:06:00 PM
* REW Settings:
*  C-weighting compensation: Off
*  Target level: 75.0 dB
* Note: ; Delay -0.0626 ms (-21 mm, -0.85 in) using estimated IR delay relative to Acoustic reference played from HEADPHONE L with no timing offset
* Measurement: TangZu Xuanwu Gate L
* Smoothing: 1/24 octave
* Frequency Step: 1/48 octave
* Start Frequency: 1.000 Hz
*
* Freq(Hz) SPL(dB) Phase(degrees)
1.000000 75.541 -66.0051
1.015000 75.895 -65.2648
1.030000 76.237 -64.5584
1.044000 76.544 -63.9327
1.060000 76.879 -63.2613
1.075000 77.176 -62.6779
1.090000 77.453 -62.1426
1.106000 77.727 -61.6277
1.120000 77.956 -61.2200
1.138000 78.238 -60.7496
1.150000 78.419 -60.4675
1.172000 78.738 -60.0110
1.180000 78.849 -59.8632
1.206000 79.197 -59.4430
1.220000 79.375 -59.2515
1.241000 79.632 -59.0042
1.250000 79.739 -58.9114
1.265000 79.911 -58.7719
1.280000 80.079 -58.6495
1.315000 80.451 -58.4151
1.320000 80.502 -58.3860
1.340000 80.703 -58.2770
1.360000 80.897 -58.1749
1.380000 81.087 -58.0735
1.400000 81.273 -57.9666
1.430000 81.545 -57.7823
1.450000 81.725 -57.6344
1.475000 81.947 -57.4146
1.500000 82.156 -57.1851
1.525000 82.349 -56.9562
1.550000 82.529 -56.7303
1.575000 82.698 -56.5102
1.600000 82.857 -56.2982
1.625000 83.007 -56.0970
1.650000 83.151 -55.9091
1.675000 83.290 -55.7371
1.700000 83.426 -55.5835
1.725000 83.560 -55.4509
1.750000 83.694 -55.3419
1.775000 83.829 -55.2589
1.800000 83.969 -55.2045
1.825000 84.113 -55.1814
1.850000 84.261 -55.1913
1.875000 84.407 -55.2328
1.900000 84.553 -55.3034
1.925000 84.696 -55.4009
1.950000 84.839 -55.5230
1.975000 84.980 -55.6672
2.000000 85.121 -55.8313
2.030000 85.289 -56.0511
2.060000 85.456 -56.2921
2.090000 85.622 -56.5503
2.120000 85.789 -56.8216
2.140000 85.900 -57.0077
2.180000 86.122 -57.3874
2.200000 86.234 -57.5786
2.240000 86.459 -57.9826
2.270000 86.628 -58.3090
2.300000 86.798 -58.6535
2.330000 86.967 -59.0143
2.360000 87.137 -59.3896
2.400000 87.361 -59.9093
2.430000 87.528 -60.3113
2.470000 87.748 -60.8601
2.500000 87.910 -61.2789
2.540000 88.124 -61.8434
2.580000 88.332 -62.4123
2.620000 88.537 -62.9925
2.650000 88.689 -63.4365
2.690000 88.889 -64.0405
2.720000 89.037 -64.5025
2.760000 89.232 -65.1307
2.800000 89.423 -65.7727
2.850000 89.659 -66.5951
2.900000 89.890 -67.4396
2.950000 90.116 -68.3080
3.000000 90.337 -69.2116
3.040000 90.511 -69.9570
3.070000 90.639 -70.5263
3.110000 90.808 -71.2957
3.150000 90.973 -72.0729
3.200000 91.176 -73.0488
3.250000 91.374 -74.0219
3.300000 91.567 -74.9839
3.350000 91.755 -75.9382
3.400000 91.938 -76.8922
3.450000 92.117 -77.8472
3.500000 92.291 -78.8047
3.550000 92.460 -79.7659
3.600000 92.625 -80.7322
3.650000 92.785 -81.7049
3.700000 92.940 -82.6870
3.750000 93.091 -83.6810
3.820000 93.294 -85.0847
3.870000 93.433 -86.0900
3.950000 93.647 -87.6916
4.000000 93.775 -88.6813
4.060000 93.923 -89.8533
4.120000 94.065 -91.0175
4.180000 94.200 -92.1744
4.250000 94.350 -93.5126
4.310000 94.472 -94.6480
4.370000 94.589 -95.7710
4.440000 94.717 -97.0668
4.500000 94.821 -98.1710
4.550000 94.902 -99.0836
4.620000 95.010 -100.3442
4.680000 95.097 -101.4038
4.750000 95.192 -102.6088
4.820000 95.281 -103.7813
4.870000 95.339 -104.6042
4.940000 95.415 -105.7320
5.000000 95.476 -106.6726
5.080000 95.550 -107.8836
5.150000 95.611 -108.8978
5.220000 95.666 -109.8747
5.300000 95.721 -110.9460
5.380000 95.772 -111.9658
5.450000 95.813 -112.8132
5.520000 95.853 -113.6165
5.600000 95.895 -114.4799
5.700000 95.941 -115.4821
5.800000 95.987 -116.4047
5.900000 96.035 -117.2512
6.000000 96.083 -118.0070
6.080000 96.122 -118.5584
6.150000 96.158 -119.0133
6.220000 96.198 -119.4518
6.300000 96.247 -119.9248
6.400000 96.313 -120.4630
6.500000 96.384 -120.9731
6.600000 96.461 -121.4877
6.700000 96.545 -121.9975
6.800000 96.635 -122.4987
6.900000 96.729 -123.0163
7.000000 96.823 -123.5721
7.100000 96.922 -124.1553
7.200000 97.021 -124.7649
7.300000 97.119 -125.4051
7.400000 97.211 -126.0823
7.500000 97.303 -126.7962
7.620000 97.406 -127.6828
7.750000 97.507 -128.6621
7.880000 97.596 -129.6775
8.000000 97.668 -130.6156
8.120000 97.730 -131.5257
8.250000 97.785 -132.4995
8.380000 97.830 -133.4323
8.500000 97.866 -134.2326
8.620000 97.893 -134.9852
8.750000 97.919 -135.7434
8.850000 97.940 -136.2810
9.000000 97.969 -137.0102
9.120000 97.995 -137.5519
9.250000 98.030 -138.1077
9.380000 98.070 -138.6223
9.500000 98.109 -139.0999
9.620000 98.152 -139.5960
9.750000 98.201 -140.1408
9.880000 98.245 -140.7210
10.000000 98.278 -141.3033
10.150000 98.311 -142.0779
10.300000 98.330 -142.8900
10.440000 98.333 -143.6926
10.600000 98.321 -144.6208
10.750000 98.297 -145.4792
10.900000 98.260 -146.3240
11.060000 98.210 -147.1485
11.200000 98.156 -147.8151
11.380000 98.082 -148.5472
11.500000 98.030 -148.9406
11.720000 97.940 -149.5002
11.800000 97.913 -149.6502
12.060000 97.849 -149.9809
12.200000 97.837 -150.1268
12.410000 97.845 -150.3233
12.500000 97.856 -150.4428
12.650000 97.888 -150.6718
12.800000 97.926 -150.9699
13.150000 98.024 -152.0221
13.200000 98.036 -152.2045
13.400000 98.078 -153.0314
13.600000 98.105 -153.9188
13.800000 98.110 -154.8439
14.000000 98.098 -155.7158
14.300000 98.051 -156.8746
14.500000 98.010 -157.4860
14.750000 97.967 -158.0927
15.000000 97.940 -158.5486
15.250000 97.942 -158.9561
15.500000 97.967 -159.4056
15.750000 98.009 -159.9474
16.000000 98.054 -160.6322
16.250000 98.089 -161.4306
16.500000 98.109 -162.3073
16.750000 98.109 -163.1972
17.000000 98.094 -164.0249
17.250000 98.069 -164.7641
17.500000 98.040 -165.3869
17.750000 98.016 -165.9187
18.000000 98.001 -166.3928
18.250000 97.997 -166.8472
18.500000 98.000 -167.3283
18.750000 98.005 -167.8411
19.000000 98.009 -168.3897
19.250000 98.007 -168.9470
19.500000 98.000 -169.4858
19.750000 97.989 -169.9856
20.000000 97.976 -170.4281
20.299999 97.966 -170.9022
20.600000 97.962 -171.3437
20.900000 97.966 -171.7922
21.200001 97.972 -172.2776
21.400000 97.972 -172.6185
21.799999 97.962 -173.2974
22.000000 97.952 -173.6087
22.400000 97.926 -174.1218
22.700001 97.912 -174.4075
23.000000 97.911 -174.6503
23.299999 97.925 -174.9232
23.600000 97.945 -175.2817
24.000000 97.966 -175.9270
24.299999 97.963 -176.4900
24.700001 97.926 -177.2062
25.000000 97.880 -177.6113
25.400000 97.818 -177.9144
25.799999 97.786 -178.0485
26.200001 97.790 -178.2487
26.500000 97.803 -178.5629
26.900000 97.804 -179.2168
27.200001 97.777 -179.7822
27.600000 97.700 179.5751
28.000000 97.605 179.2488
28.500000 97.530 179.2281
29.000000 97.538 179.1355
29.500000 97.582 178.5169
30.000000 97.578 177.4431
30.400000 97.517 176.5900
30.700001 97.451 176.1073
31.100000 97.366 175.7145
31.500000 97.311 175.4867
32.000000 97.288 175.1356
32.500000 97.277 174.5381
33.000000 97.237 173.8445
33.500000 97.171 173.3272
34.000000 97.115 173.0925
34.500000 97.101 172.9805
35.000000 97.124 172.7504
35.500000 97.151 172.2790
36.000000 97.149 171.6520
36.500000 97.112 171.0547
37.000000 97.055 170.6262
37.500000 96.998 170.3682
38.200001 96.941 170.1227
38.700001 96.915 169.9110
39.500000 96.884 169.3329
40.000000 96.848 168.7882
40.599998 96.763 168.1054
41.200001 96.643 167.7117
41.799999 96.548 167.6906
42.500000 96.520 167.7032
43.099998 96.529 167.3803
43.700001 96.516 166.8663
44.400002 96.477 166.3454
45.000000 96.447 165.9794
45.500000 96.424 165.6474
46.200001 96.377 165.1681
46.799999 96.322 164.8278
47.500000 96.251 164.5201
48.200001 96.173 164.3304
48.700001 96.121 164.3037
49.400002 96.082 164.3154
50.000000 96.075 164.1552
50.799999 96.052 163.6169
51.500000 95.997 163.1170
52.200001 95.935 162.7535
53.000000 95.871 162.4178
53.799999 95.804 162.2196
54.500000 95.765 162.2103
55.200001 95.753 162.1351
56.000000 95.725 161.8156
57.000000 95.621 161.4721
58.000000 95.481 161.4848
59.000000 95.357 161.8787
60.000000 95.328 162.2291
60.799999 95.336 161.9462
61.500000 95.308 161.4052
62.200001 95.246 160.8900
63.000000 95.165 160.4813
64.000000 95.083 160.1885
65.000000 95.031 159.9745
66.000000 94.983 159.7188
67.000000 94.912 159.5159
68.000000 94.831 159.4535
69.000000 94.744 159.4083
70.000000 94.646 159.4398
71.000000 94.571 159.5527
72.000000 94.521 159.4765
73.000000 94.455 159.2879
74.000000 94.387 159.2858
75.000000 94.357 159.3454
76.199997 94.324 159.1300
77.500000 94.233 159.0061
78.800003 94.162 159.0843
80.000000 94.103 158.9491
81.199997 94.026 158.8047
82.500000 93.952 158.6800
83.800003 93.875 158.5916
85.000000 93.812 158.6891
86.199997 93.767 158.8255
87.500000 93.714 158.9960
88.500000 93.679 159.1902
90.000000 93.646 159.3432
91.199997 93.605 159.3426
92.500000 93.555 159.4023
93.800003 93.504 159.4763
95.000000 93.455 159.6003
96.199997 93.414 159.7046
97.500000 93.366 159.7123
98.800003 93.311 159.6634
100.000000 93.257 159.6263
101.500000 93.196 159.6453
103.000000 93.143 159.7793
104.400002 93.096 159.9578
106.000000 93.025 160.1946
107.500000 92.962 160.4850
109.000000 92.926 160.6227
110.599998 92.891 160.5397
112.000000 92.852 160.5373
113.800003 92.812 160.7426
115.000000 92.780 160.9117
117.199997 92.691 161.3073
118.000000 92.662 161.4656
120.599998 92.590 161.7342
122.000000 92.550 161.9003
124.099998 92.501 162.2379
125.000000 92.476 162.3168
126.500000 92.416 162.3888
128.000000 92.363 162.4305
131.500000 92.328 162.1951
132.000000 92.328 162.1761
134.000000 92.320 162.2917
136.000000 92.307 162.6904
138.000000 92.292 163.0186
140.000000 92.260 163.1406
143.000000 92.210 163.3218
145.000000 92.197 163.5198
147.500000 92.179 163.7610
150.000000 92.136 164.0285
152.500000 92.096 164.1979
155.000000 92.076 164.2761
157.500000 92.067 164.4552
160.000000 92.052 164.7532
162.500000 92.010 164.9467
165.000000 91.967 164.9953
167.500000 91.929 165.1219
170.000000 91.906 165.3334
172.500000 91.874 165.4654
175.000000 91.842 165.6567
177.500000 91.834 165.9710
180.000000 91.824 166.2484
182.500000 91.797 166.4125
185.000000 91.763 166.4824
187.500000 91.732 166.5543
190.000000 91.710 166.6874
192.500000 91.711 166.8357
195.000000 91.717 166.9133
197.500000 91.701 167.0018
200.000000 91.675 167.1128
203.000000 91.648 167.2808
206.000000 91.611 167.6414
209.000000 91.569 167.8594
212.000000 91.518 167.9895
214.000000 91.513 168.3110
218.000000 91.494 168.7697
220.000000 91.457 168.7574
224.000000 91.444 169.0092
227.000000 91.466 169.2403
230.000000 91.385 169.2333
233.000000 91.350 169.4738
236.000000 91.415 169.5576
240.000000 91.434 169.4891
243.000000 91.424 169.4054
247.000000 91.378 169.3070
250.000000 91.309 169.7397
254.000000 91.343 170.3926
258.000000 91.399 169.9629
262.000000 91.321 169.6714
265.000000 91.256 170.0067
269.000000 91.235 170.6931
272.000000 91.247 171.1367
276.000000 91.258 171.4092
280.000000 91.250 171.5229
285.000000 91.245 171.6106
290.000000 91.224 171.6844
295.000000 91.203 172.0137
300.000000 91.201 172.2588
304.000000 91.191 172.4074
307.000000 91.180 172.5293
311.000000 91.175 172.6042
315.000000 91.167 172.6041
320.000000 91.149 172.8089
325.000000 91.144 173.0542
330.000000 91.145 173.1835
335.000000 91.136 173.3045
340.000000 91.129 173.4741
345.000000 91.121 173.6734
350.000000 91.102 173.9242
355.000000 91.084 174.2168
360.000000 91.072 174.5510
365.000000 91.055 174.7534
370.000000 91.029 174.7867
375.000000 90.999 174.8441
382.000000 91.001 175.1548
387.000000 90.971 175.1602
395.000000 90.887 175.6429
400.000000 90.874 176.1093
406.000000 90.814 176.2964
412.000000 90.764 176.1905
418.000000 90.844 175.9245
425.000000 90.956 176.5099
431.000000 90.918 176.8763
437.000000 90.874 176.9599
444.000000 90.825 177.1530
450.000000 90.787 177.3193
455.000000 90.779 177.4743
462.000000 90.781 177.8641
468.000000 90.782 178.3014
475.000000 90.777 178.5820
482.000000 90.769 178.6730
487.000000 90.762 178.8004
494.000000 90.743 179.0634
500.000000 90.729 179.2916
508.000000 90.708 179.6400
515.000000 90.694 179.8999
522.000000 90.692 -179.8890
530.000000 90.687 -179.5292
538.000000 90.662 -179.1486
545.000000 90.636 -178.9018
552.000000 90.634 -178.7091
560.000000 90.646 -178.3138
570.000000 90.638 -177.8083
580.000000 90.651 -177.4640
590.000000 90.642 -177.0516
600.000000 90.631 -176.6590
608.000000 90.622 -176.3769
615.000000 90.615 -176.0909
622.000000 90.606 -175.7971
630.000000 90.588 -175.4438
640.000000 90.567 -174.9682
650.000000 90.558 -174.4732
660.000000 90.557 -174.0108
670.000000 90.564 -173.6066
680.000000 90.567 -173.1975
690.000000 90.563 -172.7620
700.000000 90.557 -172.2890
710.000000 90.555 -171.7852
720.000000 90.552 -171.2542
730.000000 90.570 -170.5422
740.000000 90.648 -169.9304
750.000000 90.671 -169.7490
762.000000 90.639 -169.3062
775.000000 90.642 -168.7217
788.000000 90.665 -168.1181
800.000000 90.692 -167.5909
812.000000 90.720 -167.0837
825.000000 90.750 -166.4746
838.000000 90.782 -165.8560
850.000000 90.816 -165.3414
862.000000 90.861 -164.8602
875.000000 90.914 -164.3516
885.000000 90.956 -163.9550
900.000000 91.025 -163.3616
912.000000 91.079 -162.9368
925.000000 91.139 -162.5420
938.000000 91.194 -162.1246
950.000000 91.244 -161.7303
962.000000 91.293 -161.4058
975.000000 91.348 -161.1005
988.000000 91.410 -160.8013
1000.000000 91.467 -160.5724
1015.000000 91.532 -160.3080
1030.000000 91.592 -160.0242
1044.000000 91.643 -159.8221
1060.000000 91.699 -159.6254
1075.000000 91.748 -159.4238
1090.000000 91.801 -159.2630
1106.000000 91.871 -159.1104
1120.000000 91.941 -158.9940
1138.000000 92.038 -158.9097
1150.000000 92.101 -158.8558
1172.000000 92.200 -158.7324
1180.000000 92.231 -158.6945
1206.000000 92.321 -158.5674
1220.000000 92.370 -158.5077
1241.000000 92.441 -158.4511
1250.000000 92.470 -158.4134
1265.000000 92.513 -158.3337
1280.000000 92.553 -158.2656
1315.000000 92.647 -158.1012
1320.000000 92.661 -158.0745
1340.000000 92.716 -157.9884
1360.000000 92.755 -157.9034
1380.000000 92.788 -157.7857
1400.000000 92.828 -157.6531
1430.000000 92.897 -157.4306
1450.000000 92.947 -157.2966
1475.000000 93.003 -157.1185
1500.000000 93.045 -156.8629
1525.000000 93.087 -156.6475
1550.000000 93.129 -156.4102
1575.000000 93.170 -156.1630
1600.000000 93.207 -155.9224
1625.000000 93.242 -155.6190
1650.000000 93.294 -155.3596
1675.000000 93.361 -155.1257
1700.000000 93.427 -154.8479
1725.000000 93.484 -154.5881
1750.000000 93.532 -154.3052
1775.000000 93.579 -154.0041
1800.000000 93.635 -153.7561
1825.000000 93.695 -153.5015
1850.000000 93.755 -153.2378
1875.000000 93.818 -153.0064
1900.000000 93.880 -152.7711
1925.000000 93.938 -152.5182
1950.000000 94.000 -152.2946
1975.000000 94.070 -152.1007
2000.000000 94.138 -151.9091
2030.000000 94.220 -151.6855
2060.000000 94.308 -151.5111
2090.000000 94.397 -151.3464
2120.000000 94.484 -151.1939
2140.000000 94.542 -151.1193
2180.000000 94.655 -150.9799
2200.000000 94.711 -150.9260
2240.000000 94.830 -150.8836
2270.000000 94.922 -150.8716
2300.000000 95.019 -150.9012
2330.000000 95.116 -150.9706
2360.000000 95.206 -151.0441
2400.000000 95.325 -151.1951
2430.000000 95.418 -151.3482
2470.000000 95.539 -151.5663
2500.000000 95.632 -151.7740
2540.000000 95.746 -152.0737
2580.000000 95.846 -152.3801
2620.000000 95.950 -152.7972
2650.000000 96.030 -153.1787
2690.000000 96.130 -153.7901
2720.000000 96.196 -154.3280
2760.000000 96.265 -155.1046
2800.000000 96.317 -155.9233
2850.000000 96.368 -156.9896
2900.000000 96.393 -158.0432
2950.000000 96.400 -159.0632
3000.000000 96.399 -160.0741
3040.000000 96.379 -160.8205
3070.000000 96.354 -161.3416
3110.000000 96.317 -162.0190
3150.000000 96.273 -162.6428
3200.000000 96.208 -163.3154
3250.000000 96.148 -163.9328
3300.000000 96.090 -164.4650
3350.000000 96.037 -164.9242
3400.000000 96.004 -165.3974
3450.000000 95.978 -165.8691
3500.000000 95.963 -166.4232
3550.000000 95.962 -167.1508
3600.000000 95.954 -168.0598
3650.000000 95.933 -169.2008
3700.000000 95.884 -170.5492
3750.000000 95.785 -171.9738
3820.000000 95.557 -173.9112
3870.000000 95.334 -175.0704
3950.000000 94.906 -176.3484
4000.000000 94.615 -176.7594
4060.000000 94.252 -176.8797
4120.000000 93.885 -176.6541
4180.000000 93.524 -176.1329
4250.000000 93.109 -175.1386
4310.000000 92.759 -173.9413
4370.000000 92.413 -172.3716
4440.000000 92.019 -169.9214
4500.000000 91.729 -167.2384
4550.000000 91.556 -164.6170
4620.000000 91.461 -160.5139
4680.000000 91.548 -156.9185
4750.000000 91.850 -153.1597
4820.000000 92.307 -150.3500
4870.000000 92.691 -149.1344
4940.000000 93.251 -148.6749
5000.000000 93.689 -149.3514
5080.000000 94.142 -151.4546
5150.000000 94.384 -154.0221
5220.000000 94.457 -156.7857
5300.000000 94.357 -159.7407
5380.000000 94.124 -162.1842
5450.000000 93.847 -163.7682
5520.000000 93.535 -164.8347
5600.000000 93.163 -165.4778
5700.000000 92.686 -165.4941
5800.000000 92.219 -164.7819
5900.000000 91.802 -163.4852
6000.000000 91.435 -161.6828
6080.000000 91.187 -159.9527
6150.000000 91.005 -158.2631
6220.000000 90.856 -156.4402
6300.000000 90.727 -154.2379
6400.000000 90.627 -151.3658
6500.000000 90.583 -148.4038
6600.000000 90.606 -145.4277
6700.000000 90.706 -142.5052
6800.000000 90.881 -139.6740
6900.000000 91.152 -136.9990
7000.000000 91.512 -134.5435
7100.000000 91.934 -132.3705
7200.000000 92.420 -130.6308
7300.000000 92.954 -129.4406
7400.000000 93.523 -128.8463
7500.000000 94.123 -129.0132
7620.000000 94.832 -130.3939
7750.000000 95.499 -133.3496
7880.000000 95.914 -137.6022
8000.000000 96.020 -142.2985
8120.000000 95.841 -147.0812
8250.000000 95.345 -151.2940
8380.000000 94.638 -153.7027
8500.000000 93.930 -154.2011
8620.000000 93.247 -153.2446
8750.000000 92.584 -150.9601
8850.000000 92.167 -148.6087
9000.000000 91.720 -144.5569
9120.000000 91.515 -141.2021
9250.000000 91.432 -137.7835
9380.000000 91.443 -134.8298
9500.000000 91.488 -132.6478
9620.000000 91.536 -131.0198
9750.000000 91.562 -129.7735
9880.000000 91.521 -128.8112
10000.000000 91.416 -127.9185
10150.000000 91.215 -126.5358
10300.000000 90.961 -124.7585
10440.000000 90.702 -122.7947
10600.000000 90.382 -120.1191
10750.000000 90.052 -116.9405
10900.000000 89.745 -112.9916
11060.000000 89.508 -108.0770
11200.000000 89.391 -103.4225
11380.000000 89.372 -97.2629
11500.000000 89.439 -93.1236
11720.000000 89.729 -85.5134
11800.000000 89.898 -82.7926
12060.000000 90.685 -74.6076
12200.000000 91.260 -70.8486
12410.000000 92.330 -66.9508
12500.000000 92.824 -66.2354
12650.000000 93.606 -66.5701
12800.000000 94.239 -68.8348
13150.000000 94.619 -78.7243
13200.000000 94.527 -80.1426
13400.000000 93.864 -84.4596
13600.000000 92.902 -85.9241
13800.000000 91.870 -84.6456
14000.000000 90.943 -81.3465
14300.000000 89.915 -74.3260
14500.000000 89.467 -69.2372
14750.000000 89.117 -63.0239
15000.000000 89.081 -57.0148
15250.000000 89.471 -54.9254
15500.000000 89.215 -57.8038
15750.000000 88.202 -58.2896
16000.000000 86.970 -55.4256
16250.000000 85.679 -49.8014
16500.000000 84.462 -41.6510
16750.000000 83.482 -31.4631
17000.000000 82.869 -20.1852
17250.000000 82.682 -9.2953
17500.000000 82.770 -0.0790
17750.000000 82.873 7.6142
18000.000000 82.947 14.8819
18250.000000 83.154 21.9995
18500.000000 83.657 27.8970
18750.000000 84.398 30.9735
19000.000000 84.951 30.6201
19250.000000 84.788 28.7076
19500.000000 83.660 28.8623
19750.000000 81.713 33.7092
20000.000000 79.251 43.4032
20300.000000 75.987 59.2366
20600.000000 72.621 77.1907
20900.000000 68.969 96.5349
21200.000000 64.810 117.1142
21400.000000 61.725 129.3069
21800.000000 54.763 83.0241
22000.000000 50.842 -138.6854
22400.000000 41.970 71.5146
22700.000000 34.316 131.3389
23000.000000 25.835 -28.3789
23300.000000 17.195 -19.2930
23600.000000 11.570 -59.1875
24000.000000 10.470 74.3203
