* Measurement data measured by REW V5.20.13
* Source: Headset (DS by VECLAN.COM), MICROPHONE (Master Volume), L, volume: 0.800. Timing signal peak level -12.8 dBFS, measurement signal peak level -8.9 dBFS
* Format: 2M Log Swept Sine, 1 sweep at -12.0 dBFS using an acoustic timing reference
* Dated: Oct 15, 2023 2:28:43 PM
* REW Settings:
*  C-weighting compensation: Off
*  Target level: 75.0 dB
* Note: ; Delay -0.0687 ms (-24 mm, -0.93 in) using estimated IR delay relative to Acoustic reference played from HEADPHONE R with no timing offset
* Measurement: TangZu ChangLe R
* Smoothing: 1/24 octave
* Frequency Step: 1/48 octave
* Start Frequency: 1.000 Hz
*
* Freq(Hz) SPL(dB) Phase(degrees)
1.000000 79.763 -47.3679
1.015000 80.071 -46.5121
1.030000 80.368 -45.7165
1.044000 80.634 -45.0323
1.060000 80.924 -44.3244
1.075000 81.180 -43.7375
1.090000 81.419 -43.2296
1.106000 81.655 -42.7826
1.120000 81.850 -42.4856
1.138000 82.089 -42.2275
1.150000 82.240 -42.1270
1.172000 82.502 -42.0774
1.180000 82.593 -42.0989
1.206000 82.871 -42.2965
1.220000 83.011 -42.4741
1.241000 83.210 -42.8175
1.250000 83.290 -42.9887
1.265000 83.420 -43.3001
1.280000 83.543 -43.6379
1.315000 83.810 -44.4872
1.320000 83.846 -44.6115
1.340000 83.984 -45.1053
1.360000 84.115 -45.5806
1.380000 84.240 -46.0200
1.400000 84.360 -46.4061
1.430000 84.532 -46.8470
1.450000 84.643 -47.0236
1.475000 84.777 -47.0910
1.500000 84.895 -47.0559
1.525000 84.994 -46.9476
1.550000 85.076 -46.7778
1.575000 85.144 -46.5581
1.600000 85.200 -46.3001
1.625000 85.246 -46.0155
1.650000 85.284 -45.7160
1.675000 85.317 -45.4131
1.700000 85.347 -45.1186
1.725000 85.375 -44.8441
1.750000 85.405 -44.6012
1.775000 85.437 -44.4017
1.800000 85.475 -44.2570
1.825000 85.521 -44.1790
1.850000 85.572 -44.1681
1.875000 85.621 -44.2012
1.900000 85.668 -44.2729
1.925000 85.713 -44.3785
1.950000 85.757 -44.5135
1.975000 85.800 -44.6731
2.000000 85.844 -44.8530
2.030000 85.897 -45.0890
2.060000 85.953 -45.3395
2.090000 86.011 -45.5966
2.120000 86.074 -45.8523
2.140000 86.119 -46.0182
2.180000 86.217 -46.3281
2.200000 86.270 -46.4676
2.240000 86.386 -46.7312
2.270000 86.479 -46.9241
2.300000 86.577 -47.1156
2.330000 86.679 -47.3081
2.360000 86.784 -47.5041
2.400000 86.929 -47.7749
2.430000 87.040 -47.9882
2.470000 87.190 -48.2910
2.500000 87.303 -48.5349
2.540000 87.453 -48.8871
2.580000 87.602 -49.2729
2.620000 87.753 -49.6751
2.650000 87.868 -49.9865
2.690000 88.023 -50.4182
2.720000 88.141 -50.7565
2.760000 88.299 -51.2302
2.800000 88.458 -51.7336
2.850000 88.658 -52.4108
2.900000 88.857 -53.1488
2.950000 89.055 -53.9570
3.000000 89.255 -54.8482
3.040000 89.417 -55.6132
3.070000 89.539 -56.2117
3.110000 89.701 -57.0359
3.150000 89.862 -57.8823
3.200000 90.062 -58.9588
3.250000 90.257 -60.0402
3.300000 90.447 -61.1103
3.350000 90.634 -62.1735
3.400000 90.818 -63.2440
3.450000 91.000 -64.3266
3.500000 91.178 -65.4258
3.550000 91.351 -66.5462
3.600000 91.519 -67.6926
3.650000 91.680 -68.8696
3.700000 91.835 -70.0877
3.750000 91.986 -71.3554
3.820000 92.188 -73.1862
3.870000 92.326 -74.5133
3.950000 92.534 -76.6286
4.000000 92.656 -77.9220
4.060000 92.793 -79.4286
4.120000 92.922 -80.9164
4.180000 93.041 -82.3885
4.250000 93.170 -84.0825
4.310000 93.270 -85.5109
4.370000 93.362 -86.9146
4.440000 93.458 -88.5276
4.500000 93.530 -89.9068
4.550000 93.582 -91.0429
4.620000 93.646 -92.5934
4.680000 93.694 -93.8670
4.750000 93.742 -95.2643
4.820000 93.781 -96.5643
4.870000 93.801 -97.4495
4.940000 93.821 -98.6223
5.000000 93.833 -99.5605
5.080000 93.846 -100.7057
5.150000 93.857 -101.6005
5.220000 93.861 -102.3950
5.300000 93.860 -103.1876
5.380000 93.859 -103.8650
5.450000 93.864 -104.3699
5.520000 93.878 -104.7943
5.600000 93.898 -105.1463
5.700000 93.932 -105.4283
5.800000 93.983 -105.6129
5.900000 94.059 -105.7654
6.000000 94.159 -105.8105
6.080000 94.254 -105.8073
6.150000 94.346 -105.8197
6.220000 94.445 -105.8818
6.300000 94.569 -106.0066
6.400000 94.743 -106.1984
6.500000 94.927 -106.4660
6.600000 95.108 -106.8487
6.700000 95.291 -107.3605
6.800000 95.476 -107.9787
6.900000 95.654 -108.6810
7.000000 95.816 -109.4535
7.100000 95.966 -110.3296
7.200000 96.105 -111.2711
7.300000 96.228 -112.2224
7.400000 96.334 -113.1646
7.500000 96.422 -114.1336
7.620000 96.511 -115.2704
7.750000 96.588 -116.3967
7.880000 96.641 -117.4427
8.000000 96.679 -118.3174
8.120000 96.714 -119.0727
8.250000 96.743 -119.7586
8.380000 96.774 -120.3474
8.500000 96.812 -120.8221
8.620000 96.855 -121.2093
8.750000 96.909 -121.6036
8.850000 96.959 -121.9276
9.000000 97.047 -122.4044
9.120000 97.122 -122.8240
9.250000 97.206 -123.3589
9.380000 97.293 -123.9571
9.500000 97.366 -124.5555
9.620000 97.428 -125.2065
9.750000 97.486 -125.9690
9.880000 97.526 -126.7275
10.000000 97.543 -127.4138
10.150000 97.544 -128.2570
10.300000 97.530 -128.9913
10.440000 97.500 -129.5731
10.600000 97.464 -130.1277
10.750000 97.442 -130.5166
10.900000 97.429 -130.8069
11.060000 97.440 -131.1048
11.200000 97.470 -131.3341
11.380000 97.529 -131.7122
11.500000 97.583 -132.0379
11.720000 97.696 -132.8039
11.800000 97.737 -133.1600
12.060000 97.868 -134.5479
12.200000 97.922 -135.4083
12.410000 97.981 -136.8068
12.500000 97.994 -137.3846
12.650000 98.000 -138.3506
12.800000 97.992 -139.2449
13.150000 97.937 -140.8690
13.200000 97.930 -141.0488
13.400000 97.906 -141.6113
13.600000 97.904 -142.0394
13.800000 97.932 -142.3531
14.000000 97.986 -142.7093
14.300000 98.106 -143.3986
14.500000 98.193 -144.0511
14.750000 98.286 -145.0178
15.000000 98.353 -146.1043
15.250000 98.386 -147.1471
15.500000 98.397 -148.0291
15.750000 98.398 -148.7012
16.000000 98.407 -149.1476
16.250000 98.440 -149.4949
16.500000 98.498 -149.8267
16.750000 98.577 -150.2704
17.000000 98.657 -150.8782
17.250000 98.727 -151.6277
17.500000 98.773 -152.4749
17.750000 98.792 -153.2924
18.000000 98.790 -154.0262
18.250000 98.776 -154.6182
18.500000 98.768 -155.0817
18.750000 98.772 -155.4754
19.000000 98.791 -155.8546
19.250000 98.821 -156.3083
19.500000 98.853 -156.8427
19.750000 98.879 -157.4587
20.000000 98.891 -158.0987
20.299999 98.891 -158.8208
20.600000 98.888 -159.4434
20.900000 98.892 -159.9655
21.200001 98.917 -160.4612
21.400000 98.944 -160.8421
21.799999 99.007 -161.7938
22.000000 99.033 -162.3689
22.400000 99.051 -163.6285
22.700001 99.031 -164.5162
23.000000 98.993 -165.2123
23.299999 98.958 -165.6775
23.600000 98.945 -165.9669
24.000000 98.978 -166.2667
24.299999 99.035 -166.5999
24.700001 99.123 -167.3179
25.000000 99.175 -168.0371
25.400000 99.207 -169.0889
25.799999 99.200 -170.0465
26.200001 99.174 -170.8070
26.500000 99.156 -171.2712
26.900000 99.139 -171.8260
27.200001 99.128 -172.2369
27.600000 99.108 -172.7787
28.000000 99.080 -173.2542
28.500000 99.049 -173.6866
29.000000 99.048 -174.0330
29.500000 99.082 -174.5201
30.000000 99.121 -175.3010
30.400000 99.131 -176.0933
30.700001 99.120 -176.7167
31.100000 99.088 -177.4930
31.500000 99.044 -178.1525
32.000000 98.992 -178.8164
32.500000 98.958 -179.3910
33.000000 98.938 -179.9782
33.500000 98.922 179.3917
34.000000 98.903 178.7572
34.500000 98.884 178.1666
35.000000 98.871 177.6136
35.500000 98.865 177.0341
36.000000 98.858 176.3782
36.500000 98.836 175.6769
37.000000 98.795 175.0292
37.500000 98.747 174.5081
38.200001 98.695 173.9475
38.700001 98.676 173.5522
39.500000 98.655 172.7689
40.000000 98.633 172.2152
40.599998 98.594 171.5825
41.200001 98.554 171.0378
41.799999 98.523 170.5193
42.500000 98.492 169.8279
43.099998 98.449 169.2085
43.700001 98.394 168.7069
44.400002 98.345 168.2696
45.000000 98.323 167.8553
45.500000 98.305 167.4104
46.200001 98.258 166.7175
46.799999 98.198 166.1990
47.500000 98.124 165.7833
48.200001 98.072 165.5064
48.700001 98.055 165.2776
49.400002 98.037 164.7847
50.000000 98.004 164.2515
50.799999 97.934 163.6022
51.500000 97.869 163.1488
52.200001 97.811 162.7299
53.000000 97.752 162.2590
53.799999 97.705 161.7583
54.500000 97.667 161.2514
55.200001 97.624 160.7256
56.000000 97.573 160.1745
57.000000 97.509 159.5497
58.000000 97.435 159.0842
59.000000 97.376 158.8484
60.000000 97.342 158.5378
60.799999 97.297 158.1321
61.500000 97.233 157.7871
62.200001 97.160 157.5287
63.000000 97.083 157.2765
64.000000 97.000 156.8779
65.000000 96.920 156.3736
66.000000 96.839 155.8412
67.000000 96.760 155.3813
68.000000 96.692 155.0169
69.000000 96.629 154.7173
70.000000 96.571 154.5168
71.000000 96.528 154.2940
72.000000 96.477 153.9158
73.000000 96.405 153.5031
74.000000 96.327 153.0616
75.000000 96.235 152.6281
76.199997 96.129 152.3167
77.500000 96.045 152.0935
78.800003 95.980 151.9842
80.000000 95.951 151.8809
81.199997 95.909 151.4086
82.500000 95.772 150.9178
83.800003 95.632 150.8104
85.000000 95.534 150.6079
86.199997 95.434 150.3651
87.500000 95.354 150.2283
88.500000 95.321 150.0931
90.000000 95.284 149.7489
91.199997 95.236 149.4331
92.500000 95.170 149.1875
93.800003 95.098 148.9604
95.000000 95.022 148.7308
96.199997 94.935 148.5448
97.500000 94.852 148.4605
98.800003 94.789 148.3286
100.000000 94.727 148.1760
101.500000 94.652 148.0183
103.000000 94.567 147.7947
104.400002 94.473 147.7025
106.000000 94.390 147.6073
107.500000 94.304 147.3905
109.000000 94.209 147.2959
110.599998 94.128 147.2744
112.000000 94.074 147.2007
113.800003 93.995 146.9495
115.000000 93.926 146.8303
117.199997 93.802 146.8230
118.000000 93.762 146.8665
120.599998 93.663 146.9575
122.000000 93.606 146.8579
124.099998 93.506 146.7149
125.000000 93.468 146.6548
126.500000 93.412 146.5149
128.000000 93.354 146.3688
131.500000 93.211 146.4447
132.000000 93.191 146.4775
134.000000 93.106 146.5307
136.000000 93.005 146.4570
138.000000 92.910 146.4571
140.000000 92.848 146.4598
143.000000 92.746 146.2541
145.000000 92.656 146.2152
147.500000 92.557 146.4240
150.000000 92.475 146.8469
152.500000 92.393 147.1107
155.000000 92.314 146.9491
157.500000 92.241 146.6626
160.000000 92.167 146.6220
162.500000 92.075 146.7150
165.000000 91.988 146.8441
167.500000 91.913 146.9479
170.000000 91.808 147.1250
172.500000 91.691 147.4321
175.000000 91.636 147.6006
177.500000 91.612 147.5170
180.000000 91.560 147.4264
182.500000 91.473 147.4059
185.000000 91.388 147.4602
187.500000 91.319 147.6160
190.000000 91.247 147.8143
192.500000 91.162 148.0413
195.000000 91.092 148.2489
197.500000 91.032 148.2955
200.000000 90.953 148.3815
203.000000 90.880 148.6545
206.000000 90.835 148.7814
209.000000 90.770 148.8131
212.000000 90.685 149.0497
214.000000 90.631 149.3006
218.000000 90.514 149.5755
220.000000 90.448 149.6420
224.000000 90.331 149.7554
227.000000 90.195 149.9958
230.000000 90.057 150.6944
233.000000 89.982 151.2702
236.000000 89.940 151.5012
240.000000 89.935 151.3998
243.000000 89.932 151.4312
247.000000 89.900 151.6846
250.000000 89.864 151.9115
254.000000 89.824 152.0883
258.000000 89.723 152.1866
262.000000 89.664 152.5560
265.000000 89.658 152.8304
269.000000 89.602 153.0123
272.000000 89.542 153.1693
276.000000 89.466 153.4992
280.000000 89.384 153.8306
285.000000 89.301 154.2606
290.000000 89.230 154.7172
295.000000 89.160 155.0276
300.000000 89.080 155.2253
304.000000 88.999 155.5692
307.000000 88.951 155.8963
311.000000 88.911 156.2672
315.000000 88.878 156.6429
320.000000 88.833 157.0937
325.000000 88.786 157.3773
330.000000 88.736 157.5708
335.000000 88.668 157.9229
340.000000 88.621 158.5023
345.000000 88.587 158.9328
350.000000 88.548 159.3452
355.000000 88.520 159.6119
360.000000 88.456 159.9849
365.000000 88.388 160.5158
370.000000 88.328 160.9853
375.000000 88.289 161.3896
382.000000 88.275 161.5449
387.000000 88.248 161.7126
395.000000 88.114 162.4291
400.000000 88.042 162.8203
406.000000 87.998 163.5423
412.000000 87.960 164.1993
418.000000 87.908 164.5951
425.000000 87.850 164.9459
431.000000 87.823 165.3798
437.000000 87.799 165.9515
444.000000 87.737 166.3505
450.000000 87.671 166.5909
455.000000 87.656 167.1042
462.000000 87.653 167.9461
468.000000 87.610 168.5035
475.000000 87.574 168.8929
482.000000 87.556 169.3521
487.000000 87.532 169.8238
494.000000 87.482 170.3737
500.000000 87.446 170.8047
508.000000 87.378 171.4346
515.000000 87.334 171.9265
522.000000 87.319 172.3965
530.000000 87.288 172.9319
538.000000 87.182 173.7397
545.000000 87.132 174.7621
552.000000 87.143 175.3326
560.000000 87.174 175.3290
570.000000 87.229 175.8382
580.000000 87.213 176.6926
590.000000 87.178 177.3504
600.000000 87.166 177.9335
608.000000 87.141 178.5380
615.000000 87.119 179.1207
622.000000 87.104 179.7130
630.000000 87.083 -179.7000
640.000000 87.065 -179.1538
650.000000 87.038 -178.4352
660.000000 86.974 -177.4553
670.000000 86.963 -176.8320
680.000000 87.019 -176.0847
690.000000 87.042 -175.3261
700.000000 87.044 -174.6191
710.000000 87.047 -173.9372
720.000000 87.072 -173.2764
730.000000 87.104 -172.5889
740.000000 87.126 -171.8707
750.000000 87.145 -171.2204
762.000000 87.170 -170.3153
775.000000 87.177 -169.2915
788.000000 87.185 -168.4522
800.000000 87.198 -167.7758
812.000000 87.230 -167.1174
825.000000 87.292 -166.2256
838.000000 87.353 -165.3394
850.000000 87.394 -164.5588
862.000000 87.442 -163.7973
875.000000 87.492 -162.9919
885.000000 87.528 -162.3824
900.000000 87.593 -161.5298
912.000000 87.653 -160.9241
925.000000 87.725 -160.2809
938.000000 87.800 -159.6670
950.000000 87.868 -159.1291
962.000000 87.937 -158.5995
975.000000 88.010 -158.0582
988.000000 88.080 -157.5665
1000.000000 88.147 -157.1273
1015.000000 88.235 -156.6164
1030.000000 88.320 -156.1423
1044.000000 88.394 -155.7191
1060.000000 88.481 -155.2816
1075.000000 88.567 -154.9493
1090.000000 88.657 -154.6512
1106.000000 88.759 -154.3549
1120.000000 88.845 -154.1555
1138.000000 88.952 -153.9375
1150.000000 89.024 -153.7957
1172.000000 89.150 -153.5946
1180.000000 89.195 -153.5351
1206.000000 89.343 -153.4295
1220.000000 89.424 -153.4454
1241.000000 89.542 -153.5243
1250.000000 89.590 -153.5881
1265.000000 89.666 -153.7631
1280.000000 89.741 -154.0070
1315.000000 89.866 -154.7725
1320.000000 89.871 -154.9039
1340.000000 89.852 -155.4408
1360.000000 89.763 -155.8576
1380.000000 89.626 -156.0019
1400.000000 89.470 -155.7264
1430.000000 89.258 -154.4612
1450.000000 89.174 -153.2765
1475.000000 89.153 -151.6566
1500.000000 89.205 -150.0878
1525.000000 89.301 -148.7005
1550.000000 89.410 -147.4575
1575.000000 89.525 -146.4044
1600.000000 89.643 -145.4654
1625.000000 89.769 -144.6525
1650.000000 89.897 -143.9626
1675.000000 90.013 -143.3055
1700.000000 90.116 -142.6972
1725.000000 90.212 -142.1059
1750.000000 90.313 -141.5605
1775.000000 90.425 -141.0873
1800.000000 90.531 -140.6205
1825.000000 90.626 -140.1466
1850.000000 90.715 -139.6924
1875.000000 90.804 -139.2501
1900.000000 90.902 -138.8324
1925.000000 91.008 -138.4424
1950.000000 91.115 -138.0665
1975.000000 91.219 -137.6918
2000.000000 91.320 -137.3265
2030.000000 91.440 -136.9113
2060.000000 91.558 -136.5031
2090.000000 91.679 -136.1280
2120.000000 91.801 -135.7783
2140.000000 91.880 -135.5455
2180.000000 92.041 -135.1190
2200.000000 92.119 -134.9319
2240.000000 92.261 -134.5556
2270.000000 92.363 -134.2804
2300.000000 92.471 -134.0564
2330.000000 92.583 -133.8458
2360.000000 92.695 -133.6529
2400.000000 92.842 -133.4381
2430.000000 92.951 -133.2843
2470.000000 93.105 -133.1358
2500.000000 93.225 -133.0694
2540.000000 93.379 -132.9888
2580.000000 93.530 -132.9510
2620.000000 93.684 -132.9664
2650.000000 93.796 -132.9984
2690.000000 93.943 -133.0758
2720.000000 94.049 -133.1656
2760.000000 94.184 -133.3126
2800.000000 94.314 -133.5013
2850.000000 94.468 -133.7960
2900.000000 94.609 -134.1320
2950.000000 94.738 -134.5276
3000.000000 94.855 -134.9628
3040.000000 94.945 -135.3546
3070.000000 95.008 -135.6618
3110.000000 95.089 -136.0900
3150.000000 95.171 -136.5428
3200.000000 95.277 -137.1601
3250.000000 95.376 -137.7995
3300.000000 95.462 -138.4607
3350.000000 95.537 -139.1529
3400.000000 95.597 -139.8525
3450.000000 95.651 -140.5679
3500.000000 95.701 -141.3056
3550.000000 95.742 -142.0400
3600.000000 95.778 -142.7910
3650.000000 95.805 -143.5464
3700.000000 95.813 -144.2878
3750.000000 95.805 -145.0146
3820.000000 95.774 -146.0236
3870.000000 95.734 -146.7115
3950.000000 95.654 -147.7623
4000.000000 95.592 -148.3538
4060.000000 95.504 -148.9691
4120.000000 95.410 -149.4755
4180.000000 95.314 -149.8624
4250.000000 95.208 -150.2065
4310.000000 95.120 -150.4635
4370.000000 95.025 -150.7260
4440.000000 94.898 -151.0410
4500.000000 94.776 -151.3073
4550.000000 94.666 -151.5116
4620.000000 94.506 -151.7452
4680.000000 94.371 -151.8918
4750.000000 94.213 -151.9837
4820.000000 94.048 -151.9781
4870.000000 93.927 -151.9240
4940.000000 93.753 -151.7841
5000.000000 93.604 -151.6160
5080.000000 93.409 -151.3357
5150.000000 93.239 -151.0260
5220.000000 93.069 -150.6498
5300.000000 92.879 -150.1373
5380.000000 92.692 -149.5240
5450.000000 92.534 -148.9076
5520.000000 92.390 -148.2328
5600.000000 92.231 -147.3764
5700.000000 92.036 -146.1778
5800.000000 91.860 -144.8798
5900.000000 91.699 -143.4659
6000.000000 91.569 -141.9793
6080.000000 91.487 -140.7395
6150.000000 91.426 -139.6177
6220.000000 91.376 -138.4673
6300.000000 91.333 -137.1264
6400.000000 91.306 -135.4216
6500.000000 91.317 -133.7087
6600.000000 91.360 -132.0026
6700.000000 91.432 -130.3154
6800.000000 91.562 -128.7133
6900.000000 91.770 -127.2482
7000.000000 92.047 -125.9610
7100.000000 92.383 -124.9240
7200.000000 92.769 -124.2044
7300.000000 93.206 -123.9038
7400.000000 93.698 -124.1578
7500.000000 94.230 -125.0918
7620.000000 94.912 -127.3321
7750.000000 95.641 -131.4883
7880.000000 96.173 -137.7418
8000.000000 96.388 -145.2775
8120.000000 96.253 -153.8504
8250.000000 95.662 -163.0293
8380.000000 94.676 -170.7674
8500.000000 93.523 -175.9438
8620.000000 92.246 -179.1592
8750.000000 90.827 179.2753
8850.000000 89.757 179.1685
9000.000000 88.231 -179.6366
9120.000000 87.096 -177.8005
9250.000000 85.953 -175.1640
9380.000000 84.899 -172.0280
9500.000000 83.998 -168.8019
9620.000000 83.160 -165.3360
9750.000000 82.316 -161.3884
9880.000000 81.543 -157.2673
10000.000000 80.888 -153.2730
10150.000000 80.126 -148.1408
10300.000000 79.423 -142.9551
10440.000000 78.819 -137.9994
10600.000000 78.173 -132.1993
10750.000000 77.607 -126.6700
10900.000000 77.080 -121.0377
11060.000000 76.560 -114.9369
11200.000000 76.140 -109.5185
11380.000000 75.647 -102.4585
11500.000000 75.344 -97.6798
11720.000000 74.854 -88.7651
11800.000000 74.701 -85.4769
12060.000000 74.296 -74.6559
12200.000000 74.141 -68.7834
12410.000000 73.983 -59.9678
12500.000000 73.944 -56.2041
12650.000000 73.924 -49.9724
12800.000000 73.961 -43.8034
13150.000000 74.248 -29.7306
13200.000000 74.314 -27.7681
13400.000000 74.650 -20.0657
13600.000000 75.112 -12.6451
13800.000000 75.732 -5.6173
14000.000000 76.534 0.8637
14300.000000 78.146 9.0922
14500.000000 79.582 12.8413
14750.000000 81.755 13.5377
15000.000000 83.913 6.2641
15250.000000 85.093 -10.9172
15500.000000 84.575 -30.9295
15750.000000 82.656 -43.2916
16000.000000 80.255 -46.1815
16250.000000 78.090 -43.0202
16500.000000 76.402 -37.0528
16750.000000 75.098 -29.6771
17000.000000 74.108 -21.4282
17250.000000 73.407 -12.6956
17500.000000 72.963 -3.7460
17750.000000 72.752 5.1995
18000.000000 72.771 13.9171
18250.000000 73.057 22.1146
18500.000000 73.729 29.3156
18750.000000 74.868 34.7138
19000.000000 76.243 37.0947
19250.000000 77.311 35.1681
19500.000000 77.529 29.0062
19750.000000 76.617 21.7124
20000.000000 74.556 17.8674
20300.000000 70.889 21.1371
20600.000000 66.501 32.2545
20900.000000 61.776 47.7190
21200.000000 56.824 54.3120
21400.000000 53.386 15.1447
21800.000000 46.019 5.3768
22000.000000 41.991 -102.7051
22400.000000 33.008 -92.8213
22700.000000 25.398 149.9854
23000.000000 17.539 -19.0488
23300.000000 11.938 -166.6641
23600.000000 10.389 74.0469
24000.000000 10.097 47.2344
