* Measurement data measured by REW V5.20.13
* Source: Headset (DS by VECLAN.COM), MICROPHONE (Master Volume), L, volume: 0.800. Timing signal peak level -13.9 dBFS, measurement signal peak level -9.1 dBFS
* Format: 2M Log Swept Sine, 1 sweep at -12.0 dBFS using an acoustic timing reference
* Dated: Oct 15, 2023 2:24:01 PM
* REW Settings:
*  C-weighting compensation: Off
*  Target level: 75.0 dB
* Note: ; Delay -0.0686 ms (-24 mm, -0.93 in) using estimated IR delay relative to Acoustic reference played from HEADPHONE L with no timing offset
* Measurement: TangZu ChangLe L
* Smoothing: 1/24 octave
* Frequency Step: 1/48 octave
* Start Frequency: 1.000 Hz
*
* Freq(Hz) SPL(dB) Phase(degrees)
1.000000 74.570 -86.7696
1.015000 74.759 -86.1199
1.030000 74.946 -85.4538
1.044000 75.118 -84.8180
1.060000 75.313 -84.0757
1.075000 75.491 -83.3654
1.090000 75.667 -82.6422
1.106000 75.850 -81.8514
1.120000 76.008 -81.1114
1.138000 76.211 -80.0911
1.150000 76.345 -79.3721
1.172000 76.589 -77.9832
1.180000 76.678 -77.4582
1.206000 76.963 -75.6910
1.220000 77.115 -74.7080
1.241000 77.342 -73.2039
1.250000 77.438 -72.5515
1.265000 77.599 -71.4581
1.280000 77.758 -70.3617
1.315000 78.127 -67.8214
1.320000 78.179 -67.4634
1.340000 78.388 -66.0518
1.360000 78.595 -64.6818
1.380000 78.801 -63.3660
1.400000 79.005 -62.1171
1.430000 79.309 -60.3965
1.450000 79.511 -59.3696
1.475000 79.761 -58.2348
1.500000 80.009 -57.2043
1.525000 80.255 -56.2574
1.550000 80.499 -55.3896
1.575000 80.740 -54.5962
1.600000 80.980 -53.8730
1.625000 81.217 -53.2152
1.650000 81.452 -52.6184
1.675000 81.685 -52.0782
1.700000 81.916 -51.5899
1.725000 82.145 -51.1492
1.750000 82.372 -50.7513
1.775000 82.597 -50.3920
1.800000 82.820 -50.0666
1.825000 83.041 -49.7706
1.850000 83.260 -49.5122
1.875000 83.478 -49.3169
1.900000 83.695 -49.1815
1.925000 83.910 -49.1015
1.950000 84.122 -49.0725
1.975000 84.333 -49.0899
2.000000 84.542 -49.1492
2.030000 84.790 -49.2693
2.060000 85.033 -49.4356
2.090000 85.273 -49.6402
2.120000 85.508 -49.8754
2.140000 85.663 -50.0453
2.180000 85.965 -50.4063
2.200000 86.113 -50.5930
2.240000 86.403 -51.0241
2.270000 86.616 -51.4071
2.300000 86.824 -51.8344
2.330000 87.029 -52.3001
2.360000 87.229 -52.7980
2.400000 87.489 -53.5015
2.430000 87.680 -54.0510
2.470000 87.927 -54.8014
2.500000 88.108 -55.3696
2.540000 88.342 -56.1228
2.580000 88.569 -56.8631
2.620000 88.787 -57.6250
2.650000 88.945 -58.2138
2.690000 89.149 -59.0179
2.720000 89.297 -59.6322
2.760000 89.488 -60.4619
2.800000 89.672 -61.2988
2.850000 89.895 -62.3469
2.900000 90.108 -63.3871
2.950000 90.313 -64.4120
3.000000 90.508 -65.4410
3.040000 90.656 -66.2687
3.070000 90.763 -66.8905
3.110000 90.901 -67.7191
3.150000 91.033 -68.5451
3.200000 91.191 -69.5704
3.250000 91.343 -70.5835
3.300000 91.489 -71.5800
3.350000 91.627 -72.5705
3.400000 91.757 -73.5601
3.450000 91.879 -74.5421
3.500000 91.994 -75.5102
3.550000 92.104 -76.4576
3.600000 92.209 -77.3778
3.650000 92.310 -78.2643
3.700000 92.408 -79.1139
3.750000 92.499 -79.9328
3.820000 92.618 -81.0334
3.870000 92.697 -81.7904
3.950000 92.819 -82.9583
4.000000 92.892 -83.6655
4.060000 92.980 -84.4939
4.120000 93.062 -85.2949
4.180000 93.141 -86.0680
4.250000 93.229 -86.9349
4.310000 93.304 -87.6484
4.370000 93.379 -88.3349
4.440000 93.468 -89.0966
4.500000 93.543 -89.7064
4.550000 93.605 -90.1911
4.620000 93.693 -90.8464
4.680000 93.768 -91.3979
4.750000 93.858 -92.0445
4.820000 93.950 -92.6945
4.870000 94.016 -93.1499
4.940000 94.111 -93.7807
5.000000 94.192 -94.3201
5.080000 94.301 -95.0464
5.150000 94.396 -95.6954
5.220000 94.493 -96.3489
5.300000 94.604 -97.1010
5.380000 94.713 -97.8649
5.450000 94.807 -98.5479
5.520000 94.898 -99.2488
5.600000 95.000 -100.0735
5.700000 95.124 -101.1299
5.800000 95.241 -102.2010
5.900000 95.349 -103.2759
6.000000 95.449 -104.3716
6.080000 95.523 -105.2526
6.150000 95.584 -106.0157
6.220000 95.641 -106.7626
6.300000 95.700 -107.6008
6.400000 95.766 -108.6363
6.500000 95.824 -109.6401
6.600000 95.878 -110.5924
6.700000 95.926 -111.4957
6.800000 95.967 -112.3546
6.900000 96.006 -113.1607
7.000000 96.046 -113.9054
7.100000 96.083 -114.5866
7.200000 96.120 -115.2142
7.300000 96.160 -115.7992
7.400000 96.205 -116.3423
7.500000 96.253 -116.8349
7.620000 96.316 -117.3865
7.750000 96.392 -117.9657
7.880000 96.478 -118.5078
8.000000 96.564 -119.0004
8.120000 96.654 -119.5118
8.250000 96.759 -120.0741
8.380000 96.866 -120.6534
8.500000 96.966 -121.2136
8.620000 97.066 -121.7957
8.750000 97.174 -122.4425
8.850000 97.255 -122.9482
9.000000 97.373 -123.7267
9.120000 97.466 -124.3526
9.250000 97.563 -125.0239
9.380000 97.658 -125.6937
9.500000 97.742 -126.3056
9.620000 97.823 -126.9078
9.750000 97.906 -127.5516
9.880000 97.982 -128.1912
10.000000 98.044 -128.7787
10.150000 98.114 -129.5087
10.300000 98.175 -130.2380
10.440000 98.223 -130.9166
10.600000 98.273 -131.6951
10.750000 98.316 -132.4332
10.900000 98.356 -133.1764
11.060000 98.393 -133.9727
11.200000 98.421 -134.6765
11.380000 98.449 -135.5584
11.500000 98.462 -136.1287
11.720000 98.478 -137.1246
11.800000 98.483 -137.4633
12.060000 98.493 -138.4890
12.200000 98.500 -138.9933
12.410000 98.514 -139.6930
12.500000 98.521 -139.9795
12.650000 98.536 -140.4322
12.800000 98.553 -140.8764
13.150000 98.606 -141.9279
13.200000 98.614 -142.0861
13.400000 98.651 -142.7416
13.600000 98.687 -143.4393
13.800000 98.720 -144.1851
14.000000 98.746 -144.9617
14.300000 98.768 -146.1659
14.500000 98.769 -146.9609
14.750000 98.759 -147.9063
15.000000 98.739 -148.7779
15.250000 98.716 -149.5520
15.500000 98.695 -150.2271
15.750000 98.681 -150.8087
16.000000 98.676 -151.3172
16.250000 98.685 -151.7977
16.500000 98.707 -152.2797
16.750000 98.743 -152.8025
17.000000 98.786 -153.3959
17.250000 98.833 -154.0648
17.500000 98.877 -154.8119
17.750000 98.911 -155.6051
18.000000 98.935 -156.4148
18.250000 98.947 -157.2083
18.500000 98.951 -157.9420
18.750000 98.954 -158.6092
19.000000 98.958 -159.2041
19.250000 98.971 -159.7550
19.500000 98.992 -160.2955
19.750000 99.022 -160.8522
20.000000 99.054 -161.4602
20.299999 99.088 -162.2531
20.600000 99.110 -163.0885
20.900000 99.118 -163.9129
21.200001 99.112 -164.6612
21.400000 99.105 -165.0962
21.799999 99.098 -165.8333
22.000000 99.102 -166.1628
22.400000 99.130 -166.8367
22.700001 99.161 -167.4254
23.000000 99.188 -168.1155
23.299999 99.201 -168.8736
23.600000 99.196 -169.6371
24.000000 99.163 -170.5499
24.299999 99.128 -171.0896
24.700001 99.089 -171.6061
25.000000 99.074 -171.8927
25.400000 99.080 -172.2507
25.799999 99.108 -172.7012
26.200001 99.139 -173.3025
26.500000 99.155 -173.8360
26.900000 99.158 -174.5956
27.200001 99.147 -175.1465
27.600000 99.121 -175.7983
28.000000 99.091 -176.3324
28.500000 99.067 -176.8857
29.000000 99.063 -177.4418
29.500000 99.070 -178.1047
30.000000 99.074 -178.8937
30.400000 99.069 -179.5888
30.700001 99.059 179.8658
31.100000 99.038 179.1154
31.500000 99.008 178.3486
32.000000 98.952 177.4088
32.500000 98.878 176.5717
33.000000 98.798 175.9139
33.500000 98.728 175.4395
34.000000 98.685 175.0798
34.500000 98.672 174.7327
35.000000 98.683 174.3019
35.500000 98.705 173.7079
36.000000 98.714 172.9446
36.500000 98.692 172.1205
37.000000 98.638 171.4282
37.500000 98.575 170.9873
38.200001 98.526 170.6383
38.700001 98.523 170.3129
39.500000 98.505 169.4450
40.000000 98.459 168.8724
40.599998 98.385 168.3612
41.200001 98.324 168.0109
41.799999 98.286 167.6332
42.500000 98.248 167.0059
43.099998 98.197 166.3904
43.700001 98.134 165.8594
44.400002 98.075 165.3539
45.000000 98.045 164.8549
45.500000 98.018 164.3298
46.200001 97.955 163.5642
46.799999 97.888 163.0320
47.500000 97.818 162.5280
48.200001 97.751 162.0595
48.700001 97.702 161.7846
49.400002 97.649 161.5041
50.000000 97.627 161.2067
50.799999 97.591 160.5530
51.500000 97.522 159.9766
52.200001 97.451 159.6308
53.000000 97.409 159.2997
53.799999 97.386 158.7906
54.500000 97.362 158.2813
55.200001 97.335 157.6978
56.000000 97.262 156.9879
57.000000 97.106 156.6727
58.000000 96.985 157.0800
59.000000 96.957 157.7590
60.000000 97.033 157.6286
60.799999 96.985 156.5922
61.500000 96.815 156.0446
62.200001 96.667 156.1841
63.000000 96.616 156.1879
64.000000 96.558 155.3382
65.000000 96.460 154.5204
66.000000 96.398 153.7949
67.000000 96.359 153.1060
68.000000 96.323 152.4114
69.000000 96.246 151.9486
70.000000 96.178 151.8938
71.000000 96.125 151.7827
72.000000 96.034 151.6813
73.000000 95.954 151.7423
74.000000 95.903 151.5369
75.000000 95.823 151.0918
76.199997 95.716 150.7215
77.500000 95.628 150.2871
78.800003 95.519 149.9554
80.000000 95.439 149.9407
81.199997 95.397 149.8442
82.500000 95.331 149.4151
83.800003 95.213 149.0800
85.000000 95.120 148.9642
86.199997 95.048 148.7701
87.500000 94.975 148.5517
88.500000 94.931 148.3901
90.000000 94.873 148.0104
91.199997 94.802 147.6397
92.500000 94.697 147.3843
93.800003 94.586 147.3056
95.000000 94.498 147.3668
96.199997 94.440 147.3773
97.500000 94.392 147.2023
98.800003 94.329 146.9257
100.000000 94.254 146.8461
101.500000 94.184 147.0027
103.000000 94.133 147.0406
104.400002 94.059 146.9221
106.000000 93.957 146.7811
107.500000 93.866 146.5963
109.000000 93.772 146.4233
110.599998 93.680 146.3561
112.000000 93.605 146.1208
113.800003 93.451 145.8075
115.000000 93.380 145.8240
117.199997 93.316 145.4669
118.000000 93.270 145.4584
120.599998 93.096 146.6652
122.000000 93.043 147.4775
124.099998 92.975 147.2516
125.000000 92.923 146.6707
126.500000 92.812 145.5845
128.000000 92.724 144.9525
131.500000 92.641 145.0756
132.000000 92.617 145.2242
134.000000 92.528 145.8829
136.000000 92.479 146.1119
138.000000 92.452 146.0271
140.000000 92.413 146.0767
143.000000 92.293 146.3140
145.000000 92.186 146.2710
147.500000 92.076 146.1575
150.000000 92.000 146.1288
152.500000 91.932 146.1115
155.000000 91.864 146.1685
157.500000 91.818 146.3286
160.000000 91.741 146.5192
162.500000 91.642 146.6912
165.000000 91.553 146.8093
167.500000 91.472 146.9566
170.000000 91.384 147.0992
172.500000 91.283 147.1529
175.000000 91.193 147.2037
177.500000 91.123 147.3264
180.000000 91.059 147.4815
182.500000 90.988 147.5688
185.000000 90.920 147.6585
187.500000 90.856 147.8047
190.000000 90.789 148.0054
192.500000 90.730 148.1232
195.000000 90.668 148.1180
197.500000 90.569 148.3718
200.000000 90.505 148.9546
203.000000 90.470 148.8793
206.000000 90.365 148.6082
209.000000 90.260 148.9837
212.000000 90.197 149.5097
214.000000 90.170 149.7250
218.000000 90.116 149.9895
220.000000 90.079 150.1121
224.000000 89.993 150.3392
227.000000 89.934 150.5050
230.000000 89.885 150.6970
233.000000 89.837 150.8171
236.000000 89.775 150.8516
240.000000 89.675 151.1914
243.000000 89.606 151.6553
247.000000 89.509 152.0994
250.000000 89.452 152.2834
254.000000 89.416 152.4440
258.000000 89.368 152.6197
262.000000 89.274 152.9672
265.000000 89.200 153.2487
269.000000 89.140 153.5957
272.000000 89.105 153.8766
276.000000 89.048 154.2393
280.000000 89.003 154.5584
285.000000 88.959 154.8333
290.000000 88.891 154.9368
295.000000 88.789 155.4518
300.000000 88.717 156.2204
304.000000 88.667 156.6173
307.000000 88.611 156.7537
311.000000 88.553 156.8864
315.000000 88.526 156.9874
320.000000 88.508 157.3201
325.000000 88.468 157.9348
330.000000 88.409 158.4321
335.000000 88.340 158.8249
340.000000 88.269 159.1949
345.000000 88.225 159.4908
350.000000 88.198 159.8856
355.000000 88.153 160.2171
360.000000 88.101 160.5566
365.000000 88.050 160.9883
370.000000 87.996 161.4242
375.000000 87.952 161.8032
382.000000 87.884 162.3452
387.000000 87.825 162.7184
395.000000 87.760 163.3884
400.000000 87.727 163.7707
406.000000 87.695 164.2256
412.000000 87.667 164.7183
418.000000 87.629 165.1075
425.000000 87.565 165.5229
431.000000 87.514 166.0311
437.000000 87.483 166.5927
444.000000 87.449 167.1721
450.000000 87.409 167.6235
455.000000 87.379 167.9601
462.000000 87.339 168.4401
468.000000 87.303 168.8711
475.000000 87.260 169.4537
482.000000 87.217 170.1763
487.000000 87.183 170.6591
494.000000 87.125 171.1039
500.000000 87.097 171.3053
508.000000 87.095 171.8665
515.000000 87.079 172.3709
522.000000 87.066 172.8496
530.000000 87.047 173.4883
538.000000 87.006 174.1177
545.000000 86.978 174.6373
552.000000 86.964 175.2063
560.000000 86.946 175.8243
570.000000 86.915 176.4768
580.000000 86.894 177.2169
590.000000 86.874 178.0332
600.000000 86.851 178.7588
608.000000 86.836 179.3004
615.000000 86.832 179.7786
622.000000 86.828 -179.7257
630.000000 86.810 -179.1082
640.000000 86.776 -178.3609
650.000000 86.753 -177.5332
660.000000 86.768 -176.5409
670.000000 86.827 -175.6812
680.000000 86.850 -175.0390
690.000000 86.808 -174.3723
700.000000 86.762 -173.8161
710.000000 86.763 -173.2022
720.000000 86.790 -172.5005
730.000000 86.812 -171.8579
740.000000 86.828 -171.1794
750.000000 86.846 -170.4681
762.000000 86.858 -169.6575
775.000000 86.858 -168.7360
788.000000 86.881 -167.7889
800.000000 86.921 -167.0339
812.000000 86.964 -166.3057
825.000000 87.004 -165.5020
838.000000 87.049 -164.6876
850.000000 87.103 -163.9386
862.000000 87.152 -163.1895
875.000000 87.202 -162.4377
885.000000 87.243 -161.8521
900.000000 87.304 -160.9904
912.000000 87.357 -160.3472
925.000000 87.422 -159.7075
938.000000 87.490 -159.0964
950.000000 87.551 -158.5483
962.000000 87.617 -158.0204
975.000000 87.689 -157.4664
988.000000 87.754 -156.9398
1000.000000 87.812 -156.4545
1015.000000 87.889 -155.8913
1030.000000 87.967 -155.3848
1044.000000 88.036 -154.9141
1060.000000 88.110 -154.4388
1075.000000 88.183 -154.0491
1090.000000 88.266 -153.6792
1106.000000 88.361 -153.3418
1120.000000 88.442 -153.0464
1138.000000 88.535 -152.6630
1150.000000 88.596 -152.4418
1172.000000 88.714 -152.0899
1180.000000 88.755 -151.9673
1206.000000 88.870 -151.5548
1220.000000 88.926 -151.3043
1241.000000 89.009 -150.9074
1250.000000 89.048 -150.7440
1265.000000 89.114 -150.4716
1280.000000 89.180 -150.1874
1315.000000 89.333 -149.5410
1320.000000 89.356 -149.4580
1340.000000 89.446 -149.1439
1360.000000 89.523 -148.8577
1380.000000 89.594 -148.5912
1400.000000 89.665 -148.2982
1430.000000 89.769 -147.8479
1450.000000 89.839 -147.5819
1475.000000 89.923 -147.2146
1500.000000 89.998 -146.8417
1525.000000 90.066 -146.4411
1550.000000 90.138 -146.0703
1575.000000 90.215 -145.7069
1600.000000 90.292 -145.3082
1625.000000 90.376 -144.9203
1650.000000 90.461 -144.5225
1675.000000 90.541 -144.1335
1700.000000 90.614 -143.7467
1725.000000 90.681 -143.3379
1750.000000 90.751 -142.9486
1775.000000 90.826 -142.5830
1800.000000 90.899 -142.2029
1825.000000 90.971 -141.8172
1850.000000 91.045 -141.4499
1875.000000 91.125 -141.0849
1900.000000 91.211 -140.7409
1925.000000 91.297 -140.4015
1950.000000 91.381 -140.0585
1975.000000 91.465 -139.7288
2000.000000 91.549 -139.4142
2030.000000 91.652 -139.0522
2060.000000 91.760 -138.7000
2090.000000 91.875 -138.3859
2120.000000 91.987 -138.0747
2140.000000 92.061 -137.8681
2180.000000 92.208 -137.5046
2200.000000 92.279 -137.3310
2240.000000 92.420 -137.0063
2270.000000 92.528 -136.8033
2300.000000 92.632 -136.6077
2330.000000 92.735 -136.4279
2360.000000 92.841 -136.2855
2400.000000 92.983 -136.1186
2430.000000 93.091 -136.0161
2470.000000 93.240 -135.9340
2500.000000 93.350 -135.8936
2540.000000 93.497 -135.8719
2580.000000 93.644 -135.9083
2620.000000 93.787 -135.9690
2650.000000 93.895 -136.0553
2690.000000 94.036 -136.2147
2720.000000 94.134 -136.3496
2760.000000 94.256 -136.5679
2800.000000 94.376 -136.8313
2850.000000 94.524 -137.2238
2900.000000 94.669 -137.6767
2950.000000 94.800 -138.1893
3000.000000 94.915 -138.7385
3040.000000 95.004 -139.2325
3070.000000 95.067 -139.6212
3110.000000 95.148 -140.1564
3150.000000 95.230 -140.7379
3200.000000 95.326 -141.5076
3250.000000 95.405 -142.2878
3300.000000 95.482 -143.1237
3350.000000 95.556 -143.9912
3400.000000 95.620 -144.8802
3450.000000 95.673 -145.7942
3500.000000 95.709 -146.7068
3550.000000 95.731 -147.6284
3600.000000 95.743 -148.5670
3650.000000 95.739 -149.5007
3700.000000 95.719 -150.4226
3750.000000 95.686 -151.3434
3820.000000 95.612 -152.5854
3870.000000 95.543 -153.4448
3950.000000 95.415 -154.7560
4000.000000 95.316 -155.5011
4060.000000 95.179 -156.2969
4120.000000 95.025 -156.9545
4180.000000 94.865 -157.4626
4250.000000 94.690 -157.8956
4310.000000 94.544 -158.1642
4370.000000 94.393 -158.3817
4440.000000 94.213 -158.6265
4500.000000 94.048 -158.8090
4550.000000 93.902 -158.9302
4620.000000 93.696 -159.0470
4680.000000 93.515 -159.0749
4750.000000 93.292 -158.9906
4820.000000 93.065 -158.7917
4870.000000 92.904 -158.5880
4940.000000 92.687 -158.2310
5000.000000 92.512 -157.8776
5080.000000 92.284 -157.3345
5150.000000 92.078 -156.7673
5220.000000 91.874 -156.1302
5300.000000 91.648 -155.3025
5380.000000 91.427 -154.3548
5450.000000 91.248 -153.4498
5520.000000 91.081 -152.4643
5600.000000 90.902 -151.2440
5700.000000 90.707 -149.6145
5800.000000 90.541 -147.8798
5900.000000 90.408 -146.0797
6000.000000 90.303 -144.2484
6080.000000 90.234 -142.7749
6150.000000 90.190 -141.5002
6220.000000 90.160 -140.2450
6300.000000 90.135 -138.8229
6400.000000 90.118 -137.0706
6500.000000 90.123 -135.3452
6600.000000 90.162 -133.6530
6700.000000 90.234 -131.9983
6800.000000 90.343 -130.3945
6900.000000 90.499 -128.8460
7000.000000 90.720 -127.3798
7100.000000 91.012 -126.0455
7200.000000 91.370 -124.9158
7300.000000 91.795 -124.1144
7400.000000 92.281 -123.7932
7500.000000 92.821 -124.1071
7620.000000 93.545 -125.5827
7750.000000 94.351 -128.9333
7880.000000 94.994 -134.5324
8000.000000 95.341 -141.7676
8120.000000 95.339 -150.3902
8250.000000 94.861 -159.9222
8380.000000 93.925 -168.0914
8500.000000 92.780 -173.5997
8620.000000 91.517 -177.0776
8750.000000 90.130 -178.8889
8850.000000 89.090 -179.1871
9000.000000 87.618 -178.3444
9120.000000 86.521 -176.8664
9250.000000 85.402 -174.6940
9380.000000 84.360 -172.0716
9500.000000 83.458 -169.3010
9620.000000 82.595 -166.2048
9750.000000 81.708 -162.5191
9880.000000 80.882 -158.5436
10000.000000 80.170 -154.6495
10150.000000 79.343 -149.5448
10300.000000 78.588 -144.2458
10440.000000 77.936 -139.1724
10600.000000 77.243 -133.2490
10750.000000 76.649 -127.6154
10900.000000 76.104 -121.9070
11060.000000 75.568 -115.7305
11200.000000 75.143 -110.2591
11380.000000 74.643 -103.0979
11500.000000 74.343 -98.2464
11720.000000 73.868 -89.2176
11800.000000 73.715 -85.8960
12060.000000 73.299 -75.0217
12200.000000 73.132 -69.1522
12410.000000 72.962 -60.3731
12500.000000 72.920 -56.6333
12650.000000 72.891 -50.4342
12800.000000 72.906 -44.2794
13150.000000 73.126 -30.1671
13200.000000 73.183 -28.1895
13400.000000 73.482 -20.4034
13600.000000 73.912 -12.8829
13800.000000 74.493 -5.7354
14000.000000 75.234 0.9054
14300.000000 76.723 9.4766
14500.000000 78.035 13.6621
14750.000000 80.051 15.5090
15000.000000 82.183 10.5508
15250.000000 83.592 -3.7900
15500.000000 83.481 -23.0219
15750.000000 81.886 -36.9194
16000.000000 79.596 -41.5212
16250.000000 77.417 -39.6177
16500.000000 75.636 -34.2649
16750.000000 74.233 -27.0636
17000.000000 73.154 -18.8438
17250.000000 72.355 -10.0438
17500.000000 71.822 -0.9515
17750.000000 71.547 8.2041
18000.000000 71.508 17.2072
18250.000000 71.739 25.7669
18500.000000 72.354 33.4340
18750.000000 73.437 39.4994
19000.000000 74.795 42.8735
19250.000000 75.918 42.3265
19500.000000 76.279 37.6208
19750.000000 75.588 31.1092
20000.000000 73.785 26.9404
20300.000000 70.396 28.8471
20600.000000 66.211 38.3402
20900.000000 61.607 52.3814
21200.000000 56.697 58.3527
21400.000000 53.248 19.7258
21800.000000 45.798 -47.9262
22000.000000 41.712 -7.7068
22400.000000 32.612 -51.7852
22700.000000 24.925 68.8438
23000.000000 17.017 89.2812
23300.000000 11.485 -59.0000
23600.000000 9.902 -44.6797
24000.000000 9.363 51.0820
