* Measurement data measured by REW V5.20.13
* Source: Headset (DS by VECLAN.COM), MICROPHONE (Master Volume), L, volume: 0.800. Timing signal peak level -10.8 dBFS, measurement signal peak level -10.9 dBFS
* Format: 2M Log Swept Sine, 1 sweep at -12.0 dBFS using an acoustic timing reference
* Dated: Oct 15, 2023 2:15:12 PM
* REW Settings:
*  C-weighting compensation: Off
*  Target level: 75.0 dB
* Note: ; Delay -0.0642 ms (-22 mm, -0.87 in) using estimated IR delay relative to Acoustic reference played from HEADPHONE L with no timing offset
* Measurement: TangZu Fudu L
* Smoothing: 1/24 octave
* Frequency Step: 1/48 octave
* Start Frequency: 1.000 Hz
*
* Freq(Hz) SPL(dB) Phase(degrees)
1.000000 76.022 -80.5605
1.015000 76.096 -80.6787
1.030000 76.168 -80.7454
1.044000 76.233 -80.7582
1.060000 76.304 -80.7106
1.075000 76.368 -80.6022
1.090000 76.428 -80.4284
1.106000 76.489 -80.1649
1.120000 76.538 -79.8554
1.138000 76.594 -79.3528
1.150000 76.628 -78.9570
1.172000 76.684 -78.1165
1.180000 76.702 -77.7769
1.206000 76.756 -76.5628
1.220000 76.781 -75.8469
1.241000 76.817 -74.7045
1.250000 76.832 -74.1932
1.265000 76.855 -73.3168
1.280000 76.878 -72.4153
1.315000 76.933 -70.2471
1.320000 76.941 -69.9332
1.340000 76.974 -68.6758
1.360000 77.012 -67.4262
1.380000 77.053 -66.1984
1.400000 77.100 -65.0064
1.430000 77.183 -63.3161
1.450000 77.248 -62.2748
1.475000 77.343 -61.0799
1.500000 77.444 -59.8965
1.525000 77.551 -58.7030
1.550000 77.663 -57.5066
1.575000 77.781 -56.3145
1.600000 77.904 -55.1342
1.625000 78.032 -53.9729
1.650000 78.165 -52.8380
1.675000 78.304 -51.7367
1.700000 78.448 -50.6763
1.725000 78.597 -49.6642
1.750000 78.751 -48.7076
1.775000 78.911 -47.8140
1.800000 79.075 -46.9905
1.825000 79.244 -46.2444
1.850000 79.421 -45.5731
1.875000 79.607 -44.9556
1.900000 79.803 -44.3904
1.925000 80.007 -43.8772
1.950000 80.218 -43.4154
1.975000 80.434 -43.0045
2.000000 80.654 -42.6441
2.030000 80.921 -42.2775
2.060000 81.190 -41.9821
2.090000 81.458 -41.7569
2.120000 81.723 -41.6013
2.140000 81.897 -41.5356
2.180000 82.234 -41.4949
2.200000 82.396 -41.5195
2.240000 82.717 -41.7068
2.270000 82.958 -41.9698
2.300000 83.196 -42.3237
2.330000 83.434 -42.7557
2.360000 83.669 -43.2531
2.400000 83.978 -43.9957
2.430000 84.206 -44.5958
2.470000 84.504 -45.4291
2.500000 84.721 -46.0624
2.540000 85.004 -46.8937
2.580000 85.276 -47.6920
2.620000 85.539 -48.5216
2.650000 85.732 -49.1724
2.690000 85.981 -50.0728
2.720000 86.164 -50.7689
2.760000 86.401 -51.7191
2.800000 86.631 -52.6884
2.850000 86.910 -53.9162
2.900000 87.179 -55.1495
2.950000 87.440 -56.3789
3.000000 87.690 -57.6300
3.040000 87.882 -58.6482
3.070000 88.022 -59.4197
3.110000 88.204 -60.4563
3.150000 88.379 -61.4990
3.200000 88.591 -62.8057
3.250000 88.795 -64.1102
3.300000 88.992 -65.4061
3.350000 89.180 -66.7101
3.400000 89.359 -68.0294
3.450000 89.529 -69.3536
3.500000 89.692 -70.6723
3.550000 89.848 -71.9750
3.600000 89.997 -73.2512
3.650000 90.140 -74.4904
3.700000 90.277 -75.6890
3.750000 90.407 -76.8591
3.820000 90.577 -78.4542
3.870000 90.691 -79.5658
3.950000 90.862 -81.3021
4.000000 90.964 -82.3641
4.060000 91.080 -83.6201
4.120000 91.189 -84.8617
4.180000 91.289 -86.0807
4.250000 91.399 -87.4610
4.310000 91.488 -88.5968
4.370000 91.575 -89.6784
4.440000 91.672 -90.8613
4.500000 91.749 -91.8128
4.550000 91.810 -92.5673
4.620000 91.892 -93.5730
4.680000 91.961 -94.3959
4.750000 92.041 -95.3199
4.820000 92.121 -96.2048
4.870000 92.177 -96.8055
4.940000 92.254 -97.6067
5.000000 92.320 -98.2606
5.080000 92.409 -99.0919
5.150000 92.491 -99.7853
5.220000 92.575 -100.4294
5.300000 92.673 -101.1147
5.380000 92.773 -101.7685
5.450000 92.863 -102.3338
5.520000 92.955 -102.9060
5.600000 93.065 -103.5446
5.700000 93.206 -104.3266
5.800000 93.349 -105.1162
5.900000 93.492 -105.9374
6.000000 93.638 -106.7781
6.080000 93.755 -107.4642
6.150000 93.856 -108.0771
6.220000 93.954 -108.7041
6.300000 94.063 -109.4406
6.400000 94.197 -110.3880
6.500000 94.326 -111.3562
6.600000 94.445 -112.3358
6.700000 94.557 -113.3369
6.800000 94.661 -114.3552
6.900000 94.756 -115.3687
7.000000 94.842 -116.3595
7.100000 94.918 -117.3433
7.200000 94.985 -118.3108
7.300000 95.045 -119.2448
7.400000 95.098 -120.1382
7.500000 95.142 -121.0016
7.620000 95.187 -121.9845
7.750000 95.230 -122.9657
7.880000 95.265 -123.8637
8.000000 95.293 -124.6241
8.120000 95.321 -125.3197
8.250000 95.349 -125.9954
8.380000 95.377 -126.6068
8.500000 95.407 -127.1244
8.620000 95.438 -127.5891
8.750000 95.474 -128.0528
8.850000 95.505 -128.3919
9.000000 95.556 -128.8596
9.120000 95.600 -129.2130
9.250000 95.653 -129.5845
9.380000 95.710 -129.9384
9.500000 95.765 -130.2624
9.620000 95.822 -130.5882
9.750000 95.885 -130.9388
9.880000 95.946 -131.3041
10.000000 95.998 -131.6580
10.150000 96.060 -132.1206
10.300000 96.119 -132.6242
10.440000 96.170 -133.1278
10.600000 96.225 -133.7569
10.750000 96.275 -134.4131
10.900000 96.322 -135.1268
11.060000 96.362 -135.9499
11.200000 96.391 -136.7304
11.380000 96.411 -137.7512
11.500000 96.412 -138.4429
11.720000 96.391 -139.6697
11.800000 96.376 -140.0807
12.060000 96.306 -141.2881
12.200000 96.262 -141.7993
12.410000 96.191 -142.3913
12.500000 96.165 -142.5735
12.650000 96.124 -142.7714
12.800000 96.094 -142.8897
13.150000 96.092 -142.9554
13.200000 96.099 -142.9716
13.400000 96.151 -143.0484
13.600000 96.222 -143.2487
13.800000 96.310 -143.6175
14.000000 96.396 -144.1511
14.300000 96.506 -145.2314
14.500000 96.555 -146.0591
14.750000 96.591 -147.0941
15.000000 96.602 -148.0710
15.250000 96.605 -148.9175
15.500000 96.610 -149.6615
15.750000 96.622 -150.3322
16.000000 96.644 -151.0071
16.250000 96.668 -151.7433
16.500000 96.687 -152.5464
16.750000 96.690 -153.4030
17.000000 96.674 -154.2187
17.250000 96.642 -154.9383
17.500000 96.599 -155.4897
17.750000 96.563 -155.8607
18.000000 96.543 -156.1010
18.250000 96.550 -156.2688
18.500000 96.581 -156.4973
18.750000 96.628 -156.8388
19.000000 96.680 -157.3409
19.250000 96.718 -157.9832
19.500000 96.736 -158.6880
19.750000 96.729 -159.3922
20.000000 96.702 -159.9850
20.299999 96.659 -160.5078
20.600000 96.622 -160.8341
20.900000 96.608 -161.0444
21.200001 96.619 -161.2739
21.400000 96.633 -161.4988
21.799999 96.657 -162.1231
22.000000 96.658 -162.4892
22.400000 96.630 -163.1750
22.700001 96.594 -163.5154
23.000000 96.569 -163.6536
23.299999 96.578 -163.6859
23.600000 96.629 -163.7757
24.000000 96.746 -164.2597
24.299999 96.834 -165.0176
24.700001 96.901 -166.4694
25.000000 96.890 -167.6576
25.400000 96.797 -168.9862
25.799999 96.668 -169.7036
26.200001 96.576 -169.8335
26.500000 96.563 -169.7712
26.900000 96.618 -169.8242
27.200001 96.684 -170.1287
27.600000 96.759 -170.8873
28.000000 96.787 -171.8138
28.500000 96.762 -172.7852
29.000000 96.725 -173.3664
29.500000 96.714 -173.7252
30.000000 96.723 -174.0752
30.400000 96.734 -174.3749
30.700001 96.743 -174.5967
31.100000 96.761 -174.9013
31.500000 96.783 -175.2654
32.000000 96.804 -175.8629
32.500000 96.797 -176.5493
33.000000 96.759 -177.1319
33.500000 96.714 -177.4980
34.000000 96.691 -177.7214
34.500000 96.696 -177.9780
35.000000 96.710 -178.3694
35.500000 96.713 -178.8706
36.000000 96.697 -179.3844
36.500000 96.665 -179.8267
37.000000 96.626 179.8380
37.500000 96.591 179.5890
38.200001 96.549 179.2943
38.700001 96.520 179.0898
39.500000 96.476 178.8263
40.000000 96.461 178.7014
40.599998 96.464 178.5079
41.200001 96.484 178.1944
41.799999 96.516 177.7666
42.500000 96.575 177.0710
43.099998 96.628 176.1599
43.700001 96.634 175.0167
44.400002 96.560 173.8688
45.000000 96.475 173.3499
45.500000 96.427 173.0985
46.200001 96.373 172.6694
46.799999 96.289 172.3304
47.500000 96.177 172.4016
48.200001 96.146 172.6632
48.700001 96.162 172.4935
49.400002 96.132 171.6616
50.000000 96.015 171.0184
50.799999 95.850 171.0628
51.500000 95.852 171.4615
52.200001 95.965 171.1963
53.000000 96.047 170.0183
53.799999 96.026 169.0653
54.500000 96.021 168.7391
55.200001 96.046 168.4158
56.000000 96.033 168.0614
57.000000 95.988 168.2194
58.000000 95.970 168.5258
59.000000 95.974 168.8961
60.000000 96.048 168.4231
60.799999 95.991 167.2578
61.500000 95.845 166.6216
62.200001 95.731 166.4949
63.000000 95.684 166.2433
64.000000 95.628 165.5034
65.000000 95.543 164.9467
66.000000 95.482 164.6957
67.000000 95.458 164.5421
68.000000 95.454 164.2886
69.000000 95.440 163.8308
70.000000 95.374 163.3123
71.000000 95.280 163.1950
72.000000 95.253 163.3086
73.000000 95.276 162.9959
74.000000 95.257 162.3121
75.000000 95.187 161.8033
76.199997 95.113 161.5774
77.500000 95.070 161.3915
78.800003 95.015 161.1302
80.000000 94.944 160.9782
81.199997 94.879 160.8255
82.500000 94.811 160.4590
83.800003 94.745 159.9341
85.000000 94.706 159.3631
86.199997 94.683 158.7162
87.500000 94.651 158.1219
88.500000 94.616 157.9099
90.000000 94.563 158.0185
91.199997 94.529 158.2454
92.500000 94.481 158.3029
93.800003 94.388 158.2171
95.000000 94.290 158.1880
96.199997 94.211 158.1234
97.500000 94.145 157.9688
98.800003 94.102 157.6976
100.000000 94.070 157.2924
101.500000 94.021 156.6964
103.000000 93.963 156.2334
104.400002 93.923 156.1135
106.000000 93.902 156.1591
107.500000 93.847 156.2566
109.000000 93.753 156.5234
110.599998 93.662 156.6575
112.000000 93.585 156.3986
113.800003 93.477 155.9111
115.000000 93.430 155.7947
117.199997 93.404 155.5654
118.000000 93.379 155.4814
120.599998 93.276 155.4161
122.000000 93.231 155.2628
124.099998 93.159 154.9366
125.000000 93.126 154.9254
126.500000 93.099 155.0571
128.000000 93.078 155.0299
131.500000 92.919 154.7937
132.000000 92.900 154.7697
134.000000 92.851 154.6173
136.000000 92.819 154.4411
138.000000 92.755 154.4029
140.000000 92.672 154.5883
143.000000 92.572 154.5244
145.000000 92.499 154.2261
147.500000 92.411 153.9621
150.000000 92.322 154.1670
152.500000 92.296 154.8566
155.000000 92.360 154.7664
157.500000 92.212 153.7661
160.000000 92.040 154.2968
162.500000 92.045 154.8879
165.000000 91.990 155.0785
167.500000 91.868 155.4908
170.000000 91.756 155.5940
172.500000 91.669 155.1693
175.000000 91.590 154.3095
177.500000 91.493 153.6029
180.000000 91.398 153.5238
182.500000 91.339 153.9361
185.000000 91.316 154.4023
187.500000 91.292 154.6210
190.000000 91.246 154.6961
192.500000 91.205 154.7619
195.000000 91.171 154.8559
197.500000 91.120 155.0317
200.000000 91.054 155.2545
203.000000 90.979 155.4155
206.000000 90.912 155.5388
209.000000 90.854 155.7593
212.000000 90.800 155.9531
214.000000 90.759 156.0770
218.000000 90.668 156.3437
220.000000 90.618 156.4274
224.000000 90.522 156.4874
227.000000 90.454 156.5949
230.000000 90.392 156.8885
233.000000 90.354 157.1710
236.000000 90.327 157.3192
240.000000 90.256 157.4330
243.000000 90.175 157.4790
247.000000 90.103 157.8098
250.000000 90.087 158.2366
254.000000 90.063 158.4677
258.000000 90.018 158.5162
262.000000 89.987 158.6468
265.000000 89.954 158.8258
269.000000 89.867 159.4523
272.000000 89.824 159.9768
276.000000 89.771 160.5618
280.000000 89.739 160.8839
285.000000 89.709 160.3678
290.000000 89.622 159.8239
295.000000 89.452 159.8239
300.000000 89.104 162.7617
304.000000 88.970 163.3595
307.000000 89.027 162.9404
311.000000 89.114 162.7675
315.000000 89.120 162.9862
320.000000 89.095 163.3529
325.000000 89.081 163.3548
330.000000 89.079 163.3837
335.000000 89.057 163.7291
340.000000 88.999 164.1440
345.000000 88.938 164.5229
350.000000 88.916 164.9246
355.000000 88.886 165.4821
360.000000 88.846 166.0216
365.000000 88.809 166.4348
370.000000 88.752 166.8251
375.000000 88.702 167.2119
382.000000 88.638 167.9220
387.000000 88.601 168.2875
395.000000 88.556 168.6519
400.000000 88.510 168.8619
406.000000 88.467 169.1722
412.000000 88.440 169.8442
418.000000 88.391 170.6414
425.000000 88.367 171.2197
431.000000 88.342 171.5236
437.000000 88.308 171.7305
444.000000 88.301 172.0164
450.000000 88.285 172.5849
455.000000 88.271 173.1926
462.000000 88.235 173.9083
468.000000 88.184 174.3428
475.000000 88.143 174.7134
482.000000 88.118 175.2217
487.000000 88.090 175.7134
494.000000 88.061 176.3639
500.000000 88.023 176.8604
508.000000 88.005 177.3446
515.000000 88.061 177.9365
522.000000 88.130 178.4803
530.000000 88.089 178.7185
538.000000 87.920 178.6082
545.000000 87.967 178.6517
552.000000 87.979 179.7260
560.000000 87.941 -178.9823
570.000000 87.956 -178.0666
580.000000 87.967 -177.2506
590.000000 87.942 -176.4312
600.000000 87.938 -175.7836
608.000000 87.937 -175.3046
615.000000 87.922 -174.8406
622.000000 87.918 -174.2719
630.000000 87.922 -173.5304
640.000000 87.907 -172.7357
650.000000 87.954 -172.0762
660.000000 88.007 -171.3887
670.000000 88.018 -170.4886
680.000000 88.054 -169.5241
690.000000 88.069 -168.8204
700.000000 88.039 -168.4589
710.000000 88.035 -167.8426
720.000000 88.123 -166.9328
730.000000 88.189 -166.2357
740.000000 88.207 -165.6023
750.000000 88.232 -164.7110
762.000000 88.275 -163.9211
775.000000 88.346 -163.1997
788.000000 88.425 -162.3609
800.000000 88.469 -161.5423
812.000000 88.503 -160.7132
825.000000 88.572 -159.8521
838.000000 88.674 -159.0858
850.000000 88.774 -158.3907
862.000000 88.848 -157.6808
875.000000 88.911 -156.8667
885.000000 88.966 -156.3073
900.000000 89.073 -155.5643
912.000000 89.179 -154.9714
925.000000 89.290 -154.2771
938.000000 89.392 -153.6366
950.000000 89.490 -153.1482
962.000000 89.592 -152.6870
975.000000 89.707 -152.1788
988.000000 89.828 -151.6687
1000.000000 89.934 -151.2239
1015.000000 90.060 -150.7382
1030.000000 90.180 -150.3421
1044.000000 90.282 -150.0476
1060.000000 90.409 -149.7139
1075.000000 90.530 -149.3981
1090.000000 90.659 -149.0881
1106.000000 90.806 -148.8150
1120.000000 90.941 -148.6231
1138.000000 91.109 -148.3825
1150.000000 91.215 -148.2465
1172.000000 91.413 -148.0714
1180.000000 91.485 -148.0132
1206.000000 91.711 -147.8532
1220.000000 91.839 -147.8218
1241.000000 92.043 -147.8177
1250.000000 92.131 -147.8269
1265.000000 92.275 -147.8739
1280.000000 92.412 -147.9504
1315.000000 92.713 -148.1618
1320.000000 92.755 -148.1991
1340.000000 92.916 -148.3913
1360.000000 93.056 -148.6243
1380.000000 93.188 -148.8547
1400.000000 93.328 -149.1281
1430.000000 93.543 -149.5728
1450.000000 93.683 -149.9306
1475.000000 93.843 -150.3960
1500.000000 93.986 -150.8495
1525.000000 94.129 -151.3801
1550.000000 94.275 -151.9500
1575.000000 94.415 -152.5618
1600.000000 94.541 -153.1956
1625.000000 94.650 -153.8396
1650.000000 94.754 -154.5141
1675.000000 94.864 -155.2384
1700.000000 94.972 -155.9885
1725.000000 95.068 -156.7683
1750.000000 95.143 -157.5294
1775.000000 95.200 -158.3004
1800.000000 95.252 -159.0924
1825.000000 95.298 -159.8975
1850.000000 95.332 -160.6787
1875.000000 95.357 -161.4456
1900.000000 95.377 -162.2149
1925.000000 95.391 -162.9581
1950.000000 95.399 -163.6749
1975.000000 95.402 -164.3797
2000.000000 95.393 -165.0272
2030.000000 95.368 -165.7589
2060.000000 95.332 -166.4542
2090.000000 95.282 -167.0638
2120.000000 95.223 -167.6123
2140.000000 95.182 -167.9490
2180.000000 95.096 -168.5292
2200.000000 95.051 -168.7776
2240.000000 94.959 -169.1844
2270.000000 94.889 -169.4106
2300.000000 94.822 -169.5802
2330.000000 94.755 -169.6893
2360.000000 94.689 -169.7225
2400.000000 94.605 -169.6962
2430.000000 94.545 -169.6258
2470.000000 94.465 -169.4307
2500.000000 94.409 -169.2460
2540.000000 94.341 -168.9244
2580.000000 94.285 -168.5365
2620.000000 94.246 -168.1066
2650.000000 94.222 -167.7477
2690.000000 94.193 -167.2282
2720.000000 94.173 -166.8095
2760.000000 94.149 -166.2242
2800.000000 94.131 -165.6009
2850.000000 94.135 -164.8002
2900.000000 94.167 -163.9993
2950.000000 94.212 -163.1737
3000.000000 94.268 -162.3640
3040.000000 94.321 -161.7257
3070.000000 94.371 -161.2716
3110.000000 94.453 -160.7047
3150.000000 94.548 -160.1720
3200.000000 94.685 -159.5667
3250.000000 94.838 -159.0459
3300.000000 94.999 -158.6060
3350.000000 95.180 -158.2742
3400.000000 95.389 -158.1011
3450.000000 95.619 -158.0734
3500.000000 95.861 -158.2295
3550.000000 96.102 -158.5761
3600.000000 96.343 -159.1497
3650.000000 96.590 -159.9888
3700.000000 96.838 -161.1085
3750.000000 97.074 -162.5216
3820.000000 97.352 -164.9924
3870.000000 97.501 -167.1100
3950.000000 97.630 -171.0100
4000.000000 97.635 -173.6806
4060.000000 97.548 -176.9672
4120.000000 97.352 179.8418
4180.000000 97.054 176.9038
4250.000000 96.585 174.0541
4310.000000 96.099 172.2591
4370.000000 95.560 171.1666
4440.000000 94.898 170.9025
4500.000000 94.342 171.5707
4550.000000 93.911 172.7548
4620.000000 93.399 175.2640
4680.000000 93.098 177.9572
4750.000000 92.963 -178.8174
4820.000000 93.042 -176.2021
4870.000000 93.182 -175.0855
4940.000000 93.387 -174.7901
5000.000000 93.479 -175.5226
5080.000000 93.416 -177.2431
5150.000000 93.191 -178.7562
5220.000000 92.842 -179.7930
5300.000000 92.355 179.8380
5380.000000 91.842 -179.6694
5450.000000 91.414 -178.6672
5520.000000 91.028 -177.2994
5600.000000 90.629 -175.4079
5700.000000 90.175 -172.6065
5800.000000 89.774 -169.3681
5900.000000 89.439 -165.7978
6000.000000 89.169 -161.9708
6080.000000 89.008 -158.7841
6150.000000 88.905 -155.9201
6220.000000 88.837 -153.0011
6300.000000 88.805 -149.6220
6400.000000 88.832 -145.3616
6500.000000 88.934 -141.1012
6600.000000 89.122 -136.9235
6700.000000 89.400 -132.9202
6800.000000 89.767 -129.1842
6900.000000 90.242 -125.8533
7000.000000 90.811 -123.0189
7100.000000 91.449 -120.7590
7200.000000 92.145 -119.1514
7300.000000 92.879 -118.2437
7400.000000 93.643 -118.1126
7500.000000 94.427 -118.8571
7620.000000 95.384 -121.0803
7750.000000 96.364 -125.4832
7880.000000 97.093 -132.3488
8000.000000 97.408 -140.7470
8120.000000 97.265 -150.0931
8250.000000 96.564 -159.3733
8380.000000 95.420 -166.1516
8500.000000 94.164 -169.7705
8620.000000 92.870 -171.1505
8750.000000 91.517 -170.6911
8850.000000 90.540 -169.3115
9000.000000 89.213 -166.0613
9120.000000 88.275 -162.7317
9250.000000 87.378 -158.6279
9380.000000 86.588 -154.1528
9500.000000 85.925 -149.7621
9620.000000 85.329 -145.1840
9750.000000 84.774 -140.0681
9880.000000 84.308 -134.8166
10000.000000 83.949 -129.8884
10150.000000 83.589 -123.6784
10300.000000 83.309 -117.4827
10440.000000 83.130 -111.8244
10600.000000 83.038 -105.6312
10750.000000 83.043 -100.1801
10900.000000 83.121 -95.1798
11060.000000 83.256 -90.4490
11200.000000 83.394 -86.8958
11380.000000 83.566 -83.1638
11500.000000 83.655 -81.1344
11720.000000 83.715 -77.9479
11800.000000 83.703 -76.8207
12060.000000 83.593 -72.9907
12200.000000 83.484 -71.0094
12410.000000 83.216 -68.0499
12500.000000 83.066 -66.6098
12650.000000 82.790 -63.8052
12800.000000 82.512 -60.4490
13150.000000 82.028 -50.8829
13200.000000 81.992 -49.3835
13400.000000 81.967 -43.2431
13600.000000 82.169 -37.1845
13800.000000 82.613 -31.7710
14000.000000 83.285 -27.6766
14300.000000 84.548 -25.7943
14500.000000 85.300 -28.6559
14750.000000 85.656 -36.7990
15000.000000 85.023 -46.1784
15250.000000 83.543 -51.8130
15500.000000 81.719 -51.9641
15750.000000 80.030 -47.7532
16000.000000 78.694 -40.9800
16250.000000 77.748 -33.1222
16500.000000 77.170 -25.3307
16750.000000 76.900 -18.6691
17000.000000 76.810 -14.1777
17250.000000 76.669 -12.3938
17500.000000 76.203 -12.4807
17750.000000 75.259 -12.1356
18000.000000 73.930 -9.0882
18250.000000 72.480 -2.4488
18500.000000 71.274 7.9752
18750.000000 71.046 22.4571
19000.000000 72.596 37.0124
19250.000000 74.592 42.0621
19500.000000 75.358 36.1050
19750.000000 74.536 28.5235
20000.000000 72.494 26.6610
20300.000000 69.184 32.1235
20600.000000 65.560 42.3928
20900.000000 61.704 54.7861
21200.000000 57.421 66.1768
21400.000000 54.267 61.6194
21800.000000 47.302 112.2815
22000.000000 43.513 98.1304
22400.000000 35.074 -11.0771
22700.000000 27.697 -172.1025
23000.000000 19.577 38.6367
23300.000000 12.667 21.7344
23600.000000 10.331 169.0430
24000.000000 10.316 67.1758
