* Measurement data measured by REW V5.20.13
* Source: Headset (DS by VECLAN.COM), MICROPHONE (Master Volume), L, volume: 0.880. Timing signal peak level -16.5 dBFS, measurement signal peak level -15.7 dBFS
* Format: 2M Log Swept Sine, 1 sweep at -12.0 dBFS using an acoustic timing reference
* Dated: Nov 11, 2023 4:54:54 PM
* REW Settings:
*  C-weighting compensation: Off
*  Target level: 75.0 dB
* Note: ; Delay -0.0608 ms (-21 mm, -0.82 in) using estimated IR delay relative to Acoustic reference played from HEADPHONE R with no timing offset
* Measurement: TangZu Zetian Wu R
* Smoothing: 1/24 octave
* Frequency Step: 1/48 octave
* Start Frequency: 1.000 Hz
*
* Freq(Hz) SPL(dB) Phase(degrees)
1.000000 72.800 46.5732
1.015000 72.853 45.9871
1.030000 72.908 45.3264
1.044000 72.959 44.6395
1.060000 73.019 43.7682
1.075000 73.076 42.8643
1.090000 73.134 41.8730
1.106000 73.198 40.7079
1.120000 73.252 39.5556
1.138000 73.319 37.8937
1.150000 73.362 36.6818
1.172000 73.439 34.2656
1.180000 73.467 33.3302
1.206000 73.556 30.1085
1.220000 73.604 28.2737
1.241000 73.676 25.4149
1.250000 73.707 24.1572
1.265000 73.760 22.0267
1.280000 73.814 19.8630
1.315000 73.947 14.7484
1.320000 73.967 14.0164
1.340000 74.050 11.1012
1.360000 74.137 8.2271
1.380000 74.231 5.4207
1.400000 74.331 2.7086
1.430000 74.495 -1.1243
1.450000 74.615 -3.4839
1.475000 74.778 -6.1884
1.500000 74.957 -8.7850
1.525000 75.150 -11.3167
1.550000 75.355 -13.7819
1.575000 75.571 -16.1794
1.600000 75.796 -18.5077
1.625000 76.028 -20.7654
1.650000 76.266 -22.9512
1.675000 76.507 -25.0635
1.700000 76.750 -27.1011
1.725000 76.994 -29.0625
1.750000 77.237 -30.9463
1.775000 77.477 -32.7511
1.800000 77.711 -34.4756
1.825000 77.940 -36.1182
1.850000 78.164 -37.6689
1.875000 78.389 -39.1101
1.900000 78.616 -40.4491
1.925000 78.844 -41.6939
1.950000 79.073 -42.8529
1.975000 79.301 -43.9342
2.000000 79.528 -44.9459
2.030000 79.800 -46.0798
2.060000 80.069 -47.1394
2.090000 80.334 -48.1391
2.120000 80.594 -49.0929
2.140000 80.765 -49.7102
2.180000 81.099 -50.9194
2.200000 81.261 -51.5191
2.240000 81.577 -52.6325
2.270000 81.810 -53.3755
2.300000 82.038 -54.0501
2.330000 82.262 -54.6657
2.360000 82.482 -55.2319
2.400000 82.769 -55.9261
2.430000 82.980 -56.4134
2.470000 83.256 -57.0367
2.500000 83.459 -57.4966
2.540000 83.725 -58.1175
2.580000 83.985 -58.7603
2.620000 84.238 -59.3758
2.650000 84.422 -59.8137
2.690000 84.663 -60.3709
2.720000 84.839 -60.7721
2.760000 85.069 -61.2894
2.800000 85.294 -61.7921
2.850000 85.569 -62.4092
2.900000 85.840 -63.0247
2.950000 86.106 -63.6477
3.000000 86.365 -64.2634
3.040000 86.567 -64.7473
3.070000 86.716 -65.1054
3.110000 86.911 -65.5765
3.150000 87.103 -66.0403
3.200000 87.338 -66.6102
3.250000 87.569 -67.1693
3.300000 87.797 -67.7179
3.350000 88.020 -68.2456
3.400000 88.238 -68.7510
3.450000 88.451 -69.2425
3.500000 88.660 -69.7284
3.550000 88.865 -70.2173
3.600000 89.066 -70.7175
3.650000 89.265 -71.2375
3.700000 89.459 -71.7816
3.750000 89.650 -72.3418
3.820000 89.911 -73.1458
3.870000 90.093 -73.7291
3.950000 90.377 -74.6679
4.000000 90.551 -75.2525
4.060000 90.754 -75.9458
4.120000 90.953 -76.6313
4.180000 91.148 -77.3147
4.250000 91.368 -78.1176
4.310000 91.551 -78.8175
4.370000 91.730 -79.5346
4.440000 91.933 -80.3999
4.500000 92.101 -81.1642
4.550000 92.237 -81.8128
4.620000 92.423 -82.7321
4.680000 92.576 -83.5244
4.750000 92.749 -84.4461
4.820000 92.916 -85.3636
4.870000 93.031 -86.0215
4.940000 93.186 -86.9449
5.000000 93.314 -87.7376
5.080000 93.478 -88.7944
5.150000 93.614 -89.7177
5.220000 93.744 -90.6460
5.300000 93.884 -91.7094
5.380000 94.017 -92.7670
5.450000 94.128 -93.6808
5.520000 94.233 -94.5789
5.600000 94.347 -95.5945
5.700000 94.478 -96.8458
5.800000 94.601 -98.0676
5.900000 94.716 -99.2513
6.000000 94.822 -100.4014
6.080000 94.901 -101.2974
6.150000 94.967 -102.0629
6.220000 95.032 -102.8104
6.300000 95.103 -103.6419
6.400000 95.186 -104.6482
6.500000 95.265 -105.6199
6.600000 95.343 -106.5595
6.700000 95.419 -107.4613
6.800000 95.494 -108.3285
6.900000 95.567 -109.1733
7.000000 95.641 -110.0052
7.100000 95.716 -110.8153
7.200000 95.790 -111.6094
7.300000 95.864 -112.3979
7.400000 95.939 -113.1850
7.500000 96.014 -113.9641
7.620000 96.103 -114.8977
7.750000 96.198 -115.9192
7.880000 96.291 -116.9491
8.000000 96.374 -117.9035
8.120000 96.452 -118.8613
8.250000 96.534 -119.9062
8.380000 96.609 -120.9459
8.500000 96.674 -121.8936
8.620000 96.732 -122.8358
8.750000 96.790 -123.8342
8.850000 96.831 -124.5776
9.000000 96.886 -125.6625
9.120000 96.926 -126.4933
9.250000 96.968 -127.3460
9.380000 97.008 -128.1543
9.500000 97.043 -128.8631
9.620000 97.076 -129.5340
9.750000 97.111 -130.2188
9.880000 97.142 -130.8734
10.000000 97.167 -131.4523
10.150000 97.194 -132.1419
10.300000 97.220 -132.8156
10.440000 97.243 -133.4248
10.600000 97.269 -134.1191
10.750000 97.300 -134.7841
10.900000 97.333 -135.4599
11.060000 97.370 -136.2139
11.200000 97.403 -136.9022
11.380000 97.444 -137.8105
11.500000 97.468 -138.4309
11.720000 97.507 -139.5852
11.800000 97.519 -140.0053
12.060000 97.552 -141.3742
12.200000 97.566 -142.1046
12.410000 97.582 -143.1890
12.500000 97.586 -143.6445
12.650000 97.590 -144.3928
12.800000 97.590 -145.1262
13.150000 97.577 -146.7756
13.200000 97.574 -147.0033
13.400000 97.558 -147.8972
13.600000 97.537 -148.7495
13.800000 97.512 -149.5564
14.000000 97.484 -150.3074
14.300000 97.438 -151.3246
14.500000 97.409 -151.9229
14.750000 97.381 -152.6079
15.000000 97.365 -153.2435
15.250000 97.366 -153.8895
15.500000 97.376 -154.5819
15.750000 97.392 -155.3371
16.000000 97.403 -156.1632
16.250000 97.406 -157.0238
16.500000 97.398 -157.8889
16.750000 97.381 -158.7090
17.000000 97.364 -159.4527
17.250000 97.349 -160.1247
17.500000 97.346 -160.7367
17.750000 97.354 -161.3482
18.000000 97.372 -161.9914
18.250000 97.396 -162.7022
18.500000 97.415 -163.4828
18.750000 97.426 -164.2999
19.000000 97.424 -165.1217
19.250000 97.411 -165.8812
19.500000 97.393 -166.5535
19.750000 97.373 -167.1221
20.000000 97.362 -167.6031
20.299999 97.362 -168.1280
20.600000 97.375 -168.6585
20.900000 97.394 -169.2469
21.200001 97.409 -169.9031
21.400000 97.412 -170.3546
21.799999 97.399 -171.2310
22.000000 97.385 -171.6303
22.400000 97.353 -172.3257
22.700001 97.329 -172.7776
23.000000 97.309 -173.2038
23.299999 97.290 -173.6233
23.600000 97.271 -174.0361
24.000000 97.248 -174.5696
24.299999 97.237 -174.9716
24.700001 97.236 -175.5789
25.000000 97.237 -176.1577
25.400000 97.230 -177.1479
25.799999 97.180 -178.3159
26.200001 97.076 -179.4356
26.500000 96.970 179.9174
26.900000 96.824 179.4201
27.200001 96.737 179.2790
27.600000 96.674 179.2068
28.000000 96.663 178.9985
28.500000 96.662 178.3806
29.000000 96.632 177.6364
29.500000 96.586 177.1565
30.000000 96.587 176.9376
30.400000 96.639 176.6617
30.700001 96.692 176.2559
31.100000 96.746 175.4378
31.500000 96.756 174.4695
32.000000 96.705 173.4204
32.500000 96.633 172.7613
33.000000 96.585 172.3270
33.500000 96.555 171.8532
34.000000 96.515 171.3105
34.500000 96.459 170.8683
35.000000 96.411 170.5795
35.500000 96.387 170.2778
36.000000 96.370 169.8058
36.500000 96.333 169.2223
37.000000 96.273 168.7142
37.500000 96.217 168.3475
38.200001 96.168 167.8546
38.700001 96.139 167.3910
39.500000 96.074 166.6124
40.000000 96.031 166.1863
40.599998 95.985 165.6786
41.200001 95.932 165.1458
41.799999 95.868 164.6741
42.500000 95.797 164.2443
43.099998 95.747 163.8826
43.700001 95.697 163.4855
44.400002 95.634 163.0337
45.000000 95.583 162.6532
45.500000 95.541 162.3074
46.200001 95.475 161.8208
46.799999 95.419 161.4700
47.500000 95.370 161.0751
48.200001 95.324 160.5989
48.700001 95.283 160.2665
49.400002 95.224 159.9163
50.000000 95.184 159.6605
50.799999 95.128 159.2792
51.500000 95.068 159.0270
52.200001 95.019 158.8622
53.000000 94.973 158.5593
53.799999 94.903 158.1811
54.500000 94.835 157.9494
55.200001 94.781 157.7205
56.000000 94.725 157.3275
57.000000 94.636 156.7988
58.000000 94.547 156.3710
59.000000 94.464 155.9978
60.000000 94.384 155.7694
60.799999 94.340 155.6532
61.500000 94.309 155.4552
62.200001 94.264 155.1603
63.000000 94.184 154.8686
64.000000 94.073 154.7062
65.000000 93.982 154.6098
66.000000 93.897 154.4030
67.000000 93.797 154.2265
68.000000 93.715 154.2264
69.000000 93.669 154.1342
70.000000 93.619 153.8651
71.000000 93.554 153.5528
72.000000 93.475 153.2585
73.000000 93.394 153.0685
74.000000 93.327 152.8699
75.000000 93.256 152.6332
76.199997 93.170 152.4509
77.500000 93.090 152.3578
78.800003 93.018 152.2165
80.000000 92.936 152.0825
81.199997 92.852 151.9080
82.500000 92.749 151.7049
83.800003 92.663 151.5202
85.000000 92.593 151.3611
86.199997 92.538 151.3001
87.500000 92.491 151.3403
88.500000 92.459 151.3555
90.000000 92.367 151.3887
91.199997 92.298 151.5636
92.500000 92.232 151.3755
93.800003 92.112 151.1137
95.000000 92.011 151.1153
96.199997 91.929 151.1122
97.500000 91.831 151.3443
98.800003 91.788 151.8087
100.000000 91.780 151.8589
101.500000 91.706 151.5273
103.000000 91.583 151.2253
104.400002 91.461 151.1815
106.000000 91.382 151.3518
107.500000 91.347 151.3443
109.000000 91.284 151.2712
110.599998 91.207 151.3511
112.000000 91.148 151.3434
113.800003 91.057 151.2110
115.000000 90.984 151.0871
117.199997 90.802 151.1641
118.000000 90.743 151.3641
120.599998 90.647 151.8535
122.000000 90.610 151.8068
124.099998 90.541 151.7208
125.000000 90.509 151.7403
126.500000 90.454 151.8709
128.000000 90.398 152.0679
131.500000 90.241 152.2962
132.000000 90.215 152.3196
134.000000 90.133 152.4850
136.000000 90.095 152.6067
138.000000 90.044 152.6274
140.000000 89.962 152.8693
143.000000 89.892 153.2527
145.000000 89.850 153.2568
147.500000 89.770 153.3753
150.000000 89.685 153.7525
152.500000 89.601 154.0482
155.000000 89.527 154.2799
157.500000 89.460 154.5016
160.000000 89.386 154.7390
162.500000 89.302 154.9402
165.000000 89.236 155.2130
167.500000 89.194 155.4921
170.000000 89.131 155.7823
172.500000 89.053 156.1307
175.000000 88.982 156.4252
177.500000 88.918 156.6558
180.000000 88.859 156.8191
182.500000 88.800 157.0772
185.000000 88.739 157.4551
187.500000 88.669 157.7438
190.000000 88.597 157.9757
192.500000 88.558 158.4119
195.000000 88.549 158.8954
197.500000 88.514 158.8040
200.000000 88.426 158.1750
203.000000 88.300 157.7694
206.000000 88.215 158.3783
209.000000 88.188 159.2497
212.000000 88.188 159.9204
214.000000 88.174 160.3032
218.000000 88.090 160.9310
220.000000 88.059 161.1060
224.000000 88.011 161.4186
227.000000 87.956 161.8238
230.000000 87.903 162.2687
233.000000 87.867 162.6758
236.000000 87.824 162.9729
240.000000 87.763 163.3242
243.000000 87.724 163.6828
247.000000 87.658 164.1940
250.000000 87.612 164.4537
254.000000 87.570 164.7944
258.000000 87.530 165.2624
262.000000 87.469 165.7979
265.000000 87.421 166.1810
269.000000 87.377 166.6079
272.000000 87.348 166.9851
276.000000 87.314 167.4992
280.000000 87.277 167.9660
285.000000 87.242 168.6499
290.000000 87.231 169.0373
295.000000 87.199 169.4427
300.000000 87.149 170.0303
304.000000 87.100 170.6459
307.000000 87.051 171.0792
311.000000 87.016 171.3385
315.000000 87.031 171.3702
320.000000 87.015 171.7421
325.000000 86.955 172.5099
330.000000 86.914 173.3114
335.000000 86.899 173.9750
340.000000 86.887 174.5252
345.000000 86.852 174.8925
350.000000 86.812 175.2280
355.000000 86.791 175.6331
360.000000 86.787 176.1093
365.000000 86.775 176.6885
370.000000 86.741 177.3005
375.000000 86.680 177.6746
382.000000 86.576 177.9370
387.000000 86.570 178.5525
395.000000 86.620 179.6223
400.000000 86.611 -179.9424
406.000000 86.568 -179.3639
412.000000 86.525 -178.9380
418.000000 86.510 -178.4296
425.000000 86.493 -177.7364
431.000000 86.474 -177.2289
437.000000 86.484 -176.7112
444.000000 86.511 -176.0526
450.000000 86.505 -175.5094
455.000000 86.481 -175.0509
462.000000 86.449 -174.3097
468.000000 86.433 -173.6141
475.000000 86.413 -172.9345
482.000000 86.404 -172.4642
487.000000 86.402 -172.0786
494.000000 86.404 -171.4074
500.000000 86.400 -170.7771
508.000000 86.385 -169.9119
515.000000 86.365 -169.3301
522.000000 86.356 -168.7995
530.000000 86.371 -168.4278
538.000000 86.426 -167.9543
545.000000 86.484 -167.1857
552.000000 86.491 -166.5175
560.000000 86.423 -165.9164
570.000000 86.361 -164.8332
580.000000 86.369 -163.7643
590.000000 86.397 -162.8910
600.000000 86.412 -162.1670
608.000000 86.409 -161.6627
615.000000 86.402 -161.1463
622.000000 86.399 -160.5454
630.000000 86.411 -159.8227
640.000000 86.435 -158.9214
650.000000 86.453 -158.1309
660.000000 86.471 -157.3698
670.000000 86.484 -156.5045
680.000000 86.492 -155.6401
690.000000 86.509 -154.9543
700.000000 86.485 -154.0739
710.000000 86.534 -153.2325
720.000000 86.584 -152.3300
730.000000 86.637 -151.3523
740.000000 86.704 -150.5641
750.000000 86.739 -149.8587
762.000000 86.764 -148.8980
775.000000 86.802 -147.8989
788.000000 86.854 -146.9337
800.000000 86.900 -145.9513
812.000000 86.949 -145.0034
825.000000 87.014 -144.0702
838.000000 87.078 -143.1470
850.000000 87.124 -142.2204
862.000000 87.179 -141.3011
875.000000 87.260 -140.3327
885.000000 87.321 -139.5905
900.000000 87.397 -138.5378
912.000000 87.463 -137.7406
925.000000 87.546 -136.9082
938.000000 87.634 -136.1361
950.000000 87.712 -135.4126
962.000000 87.788 -134.6571
975.000000 87.868 -133.8403
988.000000 87.951 -133.0733
1000.000000 88.029 -132.4480
1015.000000 88.124 -131.6792
1030.000000 88.219 -130.8944
1044.000000 88.307 -130.1971
1060.000000 88.405 -129.4415
1075.000000 88.504 -128.7371
1090.000000 88.610 -128.0477
1106.000000 88.727 -127.3188
1120.000000 88.826 -126.7005
1138.000000 88.956 -125.9536
1150.000000 89.046 -125.4648
1172.000000 89.211 -124.5705
1180.000000 89.272 -124.2433
1206.000000 89.469 -123.1647
1220.000000 89.581 -122.5878
1241.000000 89.764 -121.7890
1250.000000 89.843 -121.4638
1265.000000 89.973 -120.9288
1280.000000 90.100 -120.4223
1315.000000 90.394 -119.3798
1320.000000 90.435 -119.2482
1340.000000 90.590 -118.7199
1360.000000 90.721 -118.1727
1380.000000 90.847 -117.6779
1400.000000 90.987 -117.1928
1430.000000 91.207 -116.4269
1450.000000 91.354 -115.8913
1475.000000 91.540 -115.2415
1500.000000 91.735 -114.6272
1525.000000 91.932 -114.0473
1550.000000 92.123 -113.4527
1575.000000 92.316 -112.8994
1600.000000 92.517 -112.4051
1625.000000 92.727 -111.9706
1650.000000 92.948 -111.5838
1675.000000 93.187 -111.2685
1700.000000 93.434 -111.0997
1725.000000 93.684 -111.0315
1750.000000 93.943 -111.1281
1775.000000 94.215 -111.5084
1800.000000 94.483 -112.1821
1825.000000 94.729 -113.2179
1850.000000 94.935 -114.6765
1875.000000 95.068 -116.5305
1900.000000 95.093 -118.5899
1925.000000 94.988 -120.4765
1950.000000 94.771 -121.7321
1975.000000 94.501 -122.0523
2000.000000 94.258 -121.4661
2030.000000 94.073 -120.0001
2060.000000 94.026 -118.2935
2090.000000 94.089 -116.7988
2120.000000 94.217 -115.6427
2140.000000 94.319 -115.0575
2180.000000 94.542 -114.3349
2200.000000 94.648 -114.1493
2240.000000 94.837 -114.0452
2270.000000 94.957 -114.1667
2300.000000 95.054 -114.4144
2330.000000 95.121 -114.7529
2360.000000 95.154 -115.1396
2400.000000 95.132 -115.5957
2430.000000 95.063 -115.7181
2470.000000 94.922 -115.2228
2500.000000 94.829 -114.1757
2540.000000 94.827 -112.0473
2580.000000 95.030 -109.9439
2620.000000 95.363 -108.7895
2650.000000 95.616 -108.6579
2690.000000 95.889 -109.1242
2720.000000 96.036 -109.7063
2760.000000 96.168 -110.5668
2800.000000 96.245 -111.3733
2850.000000 96.286 -112.2229
2900.000000 96.289 -112.8846
2950.000000 96.270 -113.3686
3000.000000 96.234 -113.6945
3040.000000 96.189 -113.8252
3070.000000 96.152 -113.8616
3110.000000 96.102 -113.8382
3150.000000 96.055 -113.7427
3200.000000 95.997 -113.5293
3250.000000 95.939 -113.2047
3300.000000 95.882 -112.7762
3350.000000 95.836 -112.2528
3400.000000 95.807 -111.6835
3450.000000 95.793 -111.0896
3500.000000 95.791 -110.4867
3550.000000 95.795 -109.8782
3600.000000 95.806 -109.2625
3650.000000 95.827 -108.6426
3700.000000 95.861 -108.0080
3750.000000 95.912 -107.4008
3820.000000 96.016 -106.6985
3870.000000 96.111 -106.4048
3950.000000 96.277 -106.6003
4000.000000 96.344 -107.3423
4060.000000 96.283 -108.7041
4120.000000 96.005 -109.2995
4180.000000 95.741 -107.9752
4250.000000 95.816 -105.9800
4310.000000 96.059 -106.1592
4370.000000 96.178 -108.4083
4440.000000 95.898 -112.7218
4500.000000 95.107 -115.6246
4550.000000 94.064 -114.6552
4620.000000 92.748 -105.7932
4680.000000 92.757 -95.7312
4750.000000 93.700 -88.9322
4820.000000 94.540 -87.7797
4870.000000 94.910 -88.4111
4940.000000 95.198 -89.6481
5000.000000 95.318 -90.6234
5080.000000 95.368 -91.7168
5150.000000 95.340 -92.5085
5220.000000 95.259 -93.1717
5300.000000 95.101 -93.7385
5380.000000 94.884 -93.9233
5450.000000 94.683 -93.7245
5520.000000 94.495 -93.3488
5600.000000 94.278 -92.8592
5700.000000 93.972 -92.1767
5800.000000 93.612 -91.1382
5900.000000 93.246 -89.6207
6000.000000 92.886 -87.7029
6080.000000 92.601 -85.8774
6150.000000 92.361 -84.0511
6220.000000 92.134 -82.0070
6300.000000 91.888 -79.2856
6400.000000 91.678 -75.1757
6500.000000 91.653 -71.1089
6600.000000 91.711 -67.7290
6700.000000 91.779 -64.8148
6800.000000 91.833 -62.2455
6900.000000 91.828 -59.6389
7000.000000 91.811 -55.8696
7100.000000 92.063 -50.6779
7200.000000 92.707 -46.2355
7300.000000 93.470 -43.9589
7400.000000 94.175 -43.2701
7500.000000 94.831 -43.4560
7620.000000 95.608 -44.6989
7750.000000 96.400 -47.5974
7880.000000 97.068 -52.2665
8000.000000 97.529 -59.3042
8120.000000 97.506 -69.3620
8250.000000 96.636 -80.2021
8380.000000 95.087 -87.2253
8500.000000 93.415 -90.0962
8620.000000 91.697 -90.5641
8750.000000 89.770 -88.6004
8850.000000 88.231 -84.6475
9000.000000 86.133 -74.3906
9120.000000 84.986 -64.4125
9250.000000 84.260 -54.1737
9380.000000 83.811 -45.0996
9500.000000 83.499 -37.5136
9620.000000 83.237 -30.3311
9750.000000 83.006 -22.6655
9880.000000 82.854 -15.0769
10000.000000 82.781 -8.2594
10150.000000 82.752 0.0792
10300.000000 82.807 8.4392
10440.000000 82.981 16.2082
10600.000000 83.349 24.5873
10750.000000 83.811 31.3468
10900.000000 84.240 36.7166
11060.000000 84.485 41.9725
11200.000000 84.596 47.9779
11380.000000 85.110 58.1033
11500.000000 85.869 64.8662
11720.000000 87.825 73.4721
11800.000000 88.585 74.9434
12060.000000 90.764 73.8638
12200.000000 91.615 70.4073
12410.000000 92.362 63.1242
12500.000000 92.484 59.6329
12650.000000 92.429 53.8692
12800.000000 92.077 48.7791
13150.000000 90.427 41.5545
13200.000000 90.119 41.1467
13400.000000 88.746 41.6286
13600.000000 87.308 46.0787
13800.000000 86.144 54.1931
14000.000000 85.591 64.4941
14300.000000 86.242 79.2786
14500.000000 87.432 85.0059
14750.000000 89.022 84.4496
15000.000000 89.963 75.1762
15250.000000 89.642 61.0945
15500.000000 87.913 50.0811
15750.000000 85.243 48.2679
16000.000000 82.469 55.2529
16250.000000 80.249 67.2699
16500.000000 78.717 82.2269
16750.000000 78.028 99.0699
17000.000000 78.414 115.2114
17250.000000 79.665 127.2343
17500.000000 81.184 132.7927
17750.000000 82.372 131.6363
18000.000000 82.880 126.1059
18250.000000 82.711 119.6085
18500.000000 82.131 114.0481
18750.000000 81.410 109.4358
19000.000000 80.577 105.3857
19250.000000 79.392 102.3041
19500.000000 77.592 101.5917
19750.000000 75.162 105.2316
20000.000000 72.337 114.4180
20300.000000 69.072 131.0002
20600.000000 66.621 149.5620
20900.000000 64.799 172.5482
21200.000000 65.172 -159.3784
21400.000000 66.732 -154.5208
21800.000000 68.298 -22.1904
22000.000000 67.515 106.1767
22400.000000 62.589 -7.9326
22700.000000 56.724 179.5068
23000.000000 50.542 133.9219
23300.000000 47.513 14.7812
23600.000000 48.494 -31.2031
24000.000000 50.294 -144.5391
