* Measurement data measured by REW V5.20.13
* Source: TangZu Wan'er S2 L Filtered
* Format: 
* Dated: Sep 28, 2023 9:44:55 PM
* REW Settings:
*  C-weighting compensation: Off
*  Target level: 75.0 dB
* Note: ; Delay -0.0714 ms (-24 mm, -0.96 in) using estimated IR delay relative to Acoustic reference played from HEADPHONE L with no timing offset PK       Fc    1750 Hz  Gain   3.00 dB  Q  1.000
* Measurement: TangZu Waner S2 L
* Smoothing: 1/24 octave
* Frequency Step: 1/48 octave
* Start Frequency: 1.000 Hz
*
* Freq(Hz) SPL(dB) Phase(degrees)
1.000000 66.665 -60.6843
1.015000 67.362 -60.2438
1.030000 68.028 -59.8168
1.044000 68.618 -59.4323
1.060000 69.247 -59.0118
1.075000 69.788 -58.6381
1.090000 70.276 -58.2864
1.106000 70.735 -57.9356
1.120000 71.107 -57.6377
1.138000 71.553 -57.2639
1.150000 71.832 -57.0205
1.172000 72.305 -56.5865
1.180000 72.466 -56.4328
1.206000 72.952 -55.9484
1.220000 73.192 -55.6974
1.241000 73.526 -55.3342
1.250000 73.661 -55.1836
1.265000 73.875 -54.9392
1.280000 74.078 -54.7034
1.315000 74.514 -54.1874
1.320000 74.573 -54.1176
1.340000 74.802 -53.8489
1.360000 75.023 -53.5968
1.380000 75.240 -53.3616
1.400000 75.456 -53.1437
1.430000 75.785 -52.8501
1.450000 76.013 -52.6771
1.475000 76.310 -52.4880
1.500000 76.594 -52.3375
1.525000 76.861 -52.2246
1.550000 77.112 -52.1460
1.575000 77.348 -52.0984
1.600000 77.573 -52.0784
1.625000 77.786 -52.0826
1.650000 77.991 -52.1077
1.675000 78.189 -52.1503
1.700000 78.382 -52.2071
1.725000 78.572 -52.2747
1.750000 78.760 -52.3498
1.775000 78.948 -52.4290
1.800000 79.138 -52.5089
1.825000 79.332 -52.5862
1.850000 79.529 -52.6619
1.875000 79.722 -52.7453
1.900000 79.912 -52.8371
1.925000 80.098 -52.9376
1.950000 80.282 -53.0473
1.975000 80.463 -53.1666
2.000000 80.641 -53.2959
2.030000 80.852 -53.4646
2.060000 81.060 -53.6489
2.090000 81.266 -53.8494
2.120000 81.469 -54.0668
2.140000 81.604 -54.2215
2.180000 81.872 -54.5549
2.200000 82.005 -54.7342
2.240000 82.269 -55.1260
2.270000 82.465 -55.4484
2.300000 82.658 -55.7921
2.330000 82.850 -56.1542
2.360000 83.039 -56.5319
2.400000 83.287 -57.0546
2.430000 83.471 -57.4573
2.470000 83.711 -58.0030
2.500000 83.887 -58.4151
2.540000 84.118 -58.9628
2.580000 84.344 -59.5045
2.620000 84.564 -60.0533
2.650000 84.726 -60.4715
2.690000 84.937 -61.0374
2.720000 85.092 -61.4674
2.760000 85.295 -62.0475
2.800000 85.493 -62.6347
2.850000 85.735 -63.3771
2.900000 85.970 -64.1274
2.950000 86.200 -64.8848
3.000000 86.422 -65.6570
3.040000 86.594 -66.2846
3.070000 86.721 -66.7596
3.110000 86.886 -67.3972
3.150000 87.047 -68.0379
3.200000 87.243 -68.8400
3.250000 87.433 -69.6397
3.300000 87.618 -70.4334
3.350000 87.797 -71.2276
3.400000 87.970 -72.0266
3.450000 88.137 -72.8265
3.500000 88.298 -73.6239
3.550000 88.455 -74.4151
3.600000 88.606 -75.1965
3.650000 88.754 -75.9644
3.700000 88.897 -76.7178
3.750000 89.035 -77.4614
3.820000 89.219 -78.4868
3.870000 89.345 -79.2085
3.950000 89.540 -80.3455
4.000000 89.657 -81.0455
4.060000 89.794 -81.8762
4.120000 89.925 -82.6996
4.180000 90.050 -83.5128
4.250000 90.190 -84.4438
4.310000 90.306 -85.2224
4.370000 90.419 -85.9792
4.440000 90.548 -86.8306
4.500000 90.653 -87.5349
4.550000 90.738 -88.1063
4.620000 90.854 -88.8856
4.680000 90.950 -89.5377
4.750000 91.061 -90.2839
4.820000 91.170 -91.0147
4.870000 91.245 -91.5247
4.940000 91.349 -92.2226
5.000000 91.435 -92.8067
5.080000 91.549 -93.5669
5.150000 91.648 -94.2153
5.220000 91.746 -94.8426
5.300000 91.855 -95.5370
5.380000 91.963 -96.2150
5.450000 92.056 -96.8012
5.520000 92.149 -97.3852
5.600000 92.253 -98.0427
5.700000 92.383 -98.8510
5.800000 92.510 -99.6510
5.900000 92.635 -100.4493
6.000000 92.757 -101.2421
6.080000 92.854 -101.8727
6.150000 92.937 -102.4228
6.220000 93.018 -102.9721
6.300000 93.109 -103.5996
6.400000 93.220 -104.3822
6.500000 93.327 -105.1613
6.600000 93.431 -105.9351
6.700000 93.531 -106.7064
6.800000 93.628 -107.4737
6.900000 93.721 -108.2312
7.000000 93.810 -108.9739
7.100000 93.895 -109.7055
7.200000 93.977 -110.4245
7.300000 94.056 -111.1270
7.400000 94.132 -111.8114
7.500000 94.206 -112.4797
7.620000 94.291 -113.2591
7.750000 94.381 -114.0735
7.880000 94.468 -114.8555
8.000000 94.546 -115.5539
8.120000 94.625 -116.2335
8.250000 94.708 -116.9451
8.380000 94.791 -117.6385
8.500000 94.867 -118.2680
8.620000 94.943 -118.8837
8.750000 95.024 -119.5418
8.850000 95.086 -120.0453
9.000000 95.177 -120.7931
9.120000 95.249 -121.3859
9.250000 95.326 -122.0241
9.380000 95.403 -122.6574
9.500000 95.470 -123.2367
9.620000 95.533 -123.8112
9.750000 95.598 -124.4281
9.880000 95.654 -125.0357
10.000000 95.698 -125.5884
10.150000 95.742 -126.2674
10.300000 95.779 -126.9233
10.440000 95.805 -127.5123
10.600000 95.830 -128.1654
10.750000 95.855 -128.7594
10.900000 95.880 -129.3381
11.060000 95.908 -129.9543
11.200000 95.933 -130.4917
11.380000 95.966 -131.1785
11.500000 95.986 -131.6342
11.720000 96.023 -132.4630
11.800000 96.036 -132.7619
12.060000 96.077 -133.7231
12.200000 96.099 -134.2341
12.410000 96.131 -134.9882
12.500000 96.143 -135.3020
12.650000 96.163 -135.8139
12.800000 96.181 -136.3106
13.150000 96.220 -137.4057
13.200000 96.226 -137.5566
13.400000 96.251 -138.1456
13.600000 96.277 -138.7210
13.800000 96.306 -139.2856
14.000000 96.335 -139.8500
14.300000 96.377 -140.6991
14.500000 96.404 -141.2665
14.750000 96.434 -141.9698
15.000000 96.463 -142.6627
15.250000 96.491 -143.3403
15.500000 96.519 -143.9960
15.750000 96.547 -144.6274
16.000000 96.575 -145.2356
16.250000 96.603 -145.8313
16.500000 96.632 -146.4200
16.750000 96.662 -147.0080
17.000000 96.693 -147.5994
17.250000 96.725 -148.1950
17.500000 96.755 -148.7952
17.750000 96.783 -149.3967
18.000000 96.809 -149.9967
18.250000 96.831 -150.5921
18.500000 96.851 -151.1743
18.750000 96.869 -151.7381
19.000000 96.885 -152.2784
19.250000 96.901 -152.7917
19.500000 96.919 -153.2811
19.750000 96.939 -153.7494
20.000000 96.963 -154.2089
20.299999 96.994 -154.7677
20.600000 97.027 -155.3516
20.900000 97.058 -155.9707
21.200001 97.083 -156.6207
21.400000 97.095 -157.0579
21.799999 97.105 -157.9059
22.000000 97.104 -158.2986
22.400000 97.099 -158.9924
22.700001 97.097 -159.4331
23.000000 97.102 -159.8269
23.299999 97.114 -160.2100
23.600000 97.134 -160.6131
24.000000 97.166 -161.2155
24.299999 97.188 -161.7188
24.700001 97.207 -162.4299
25.000000 97.212 -162.9592
25.400000 97.210 -163.6172
25.799999 97.204 -164.1979
26.200001 97.200 -164.7144
26.500000 97.202 -165.0827
26.900000 97.210 -165.5765
27.200001 97.217 -165.9605
27.600000 97.226 -166.4891
28.000000 97.230 -167.0179
28.500000 97.232 -167.6482
29.000000 97.233 -168.2359
29.500000 97.237 -168.8029
30.000000 97.242 -169.3743
30.400000 97.243 -169.8376
30.700001 97.242 -170.1837
31.100000 97.239 -170.6354
31.500000 97.234 -171.0716
32.000000 97.227 -171.5982
32.500000 97.221 -172.1161
33.000000 97.214 -172.6375
33.500000 97.206 -173.1672
34.000000 97.196 -173.7058
34.500000 97.183 -174.2502
35.000000 97.164 -174.7871
35.500000 97.140 -175.2863
36.000000 97.114 -175.7206
36.500000 97.095 -176.0949
37.000000 97.086 -176.4573
37.500000 97.085 -176.8606
38.200001 97.081 -177.5104
38.700001 97.071 -177.9892
39.500000 97.046 -178.7014
40.000000 97.028 -179.1104
40.599998 97.005 -179.5601
41.200001 96.985 -179.9592
41.799999 96.971 179.6538
42.500000 96.959 179.1519
43.099998 96.943 178.6910
43.700001 96.920 178.2511
44.400002 96.892 177.7684
45.000000 96.867 177.3589
45.500000 96.844 177.0287
46.200001 96.812 176.6020
46.799999 96.789 176.2499
47.500000 96.766 175.8171
48.200001 96.740 175.3770
48.700001 96.720 175.0795
49.400002 96.694 174.6871
50.000000 96.673 174.3544
50.799999 96.645 173.9017
51.500000 96.617 173.5130
52.200001 96.587 173.1451
53.000000 96.556 172.7296
53.799999 96.523 172.2988
54.500000 96.490 171.9297
55.200001 96.459 171.5814
56.000000 96.425 171.1906
57.000000 96.381 170.7151
58.000000 96.333 170.3035
59.000000 96.286 169.9582
60.000000 96.239 169.6592
60.799999 96.203 169.4513
61.500000 96.177 169.2629
62.200001 96.154 169.0159
63.000000 96.119 168.6519
64.000000 96.058 168.1989
65.000000 95.999 167.8105
66.000000 95.948 167.4168
67.000000 95.899 167.0520
68.000000 95.858 166.7406
69.000000 95.823 166.4439
70.000000 95.786 166.1939
71.000000 95.759 165.9818
72.000000 95.735 165.6427
73.000000 95.682 165.2360
74.000000 95.612 164.9668
75.000000 95.553 164.7648
76.199997 95.485 164.5158
77.500000 95.416 164.3203
78.800003 95.365 164.1171
80.000000 95.316 163.8362
81.199997 95.258 163.5441
82.500000 95.191 163.1352
83.800003 95.105 162.7202
85.000000 95.021 162.4635
86.199997 94.958 162.4156
87.500000 94.939 162.3903
88.500000 94.928 162.2511
90.000000 94.886 162.0629
91.199997 94.840 161.9603
92.500000 94.778 161.8105
93.800003 94.705 161.6631
95.000000 94.647 161.5042
96.199997 94.597 161.2572
97.500000 94.542 160.9827
98.800003 94.491 160.8151
100.000000 94.453 160.7333
101.500000 94.407 160.6396
103.000000 94.348 160.5444
104.400002 94.285 160.4697
106.000000 94.217 160.3616
107.500000 94.155 160.2239
109.000000 94.087 160.1050
110.599998 94.017 160.2021
112.000000 94.009 160.2811
113.800003 93.987 159.7407
115.000000 93.915 159.4188
117.199997 93.792 159.4620
118.000000 93.765 159.5596
120.599998 93.710 159.7890
122.000000 93.672 159.7739
124.099998 93.588 159.6985
125.000000 93.549 159.6677
126.500000 93.486 159.6213
128.000000 93.429 159.5962
131.500000 93.312 159.5594
132.000000 93.296 159.5508
134.000000 93.231 159.5192
136.000000 93.174 159.5155
138.000000 93.121 159.5612
140.000000 93.067 159.6464
143.000000 92.981 159.6854
145.000000 92.922 159.6575
147.500000 92.865 159.7723
150.000000 92.822 159.8450
152.500000 92.755 159.9054
155.000000 92.689 160.0321
157.500000 92.643 160.1204
160.000000 92.600 160.1545
162.500000 92.539 160.0903
165.000000 92.465 160.1817
167.500000 92.402 160.3768
170.000000 92.333 160.5051
172.500000 92.257 160.5787
175.000000 92.186 160.6635
177.500000 92.130 160.8676
180.000000 92.081 161.0233
182.500000 92.027 161.1494
185.000000 91.994 161.2842
187.500000 91.979 161.2821
190.000000 91.940 161.1517
192.500000 91.834 161.0751
195.000000 91.666 161.6321
197.500000 91.612 162.6512
200.000000 91.660 162.7475
203.000000 91.636 162.2729
206.000000 91.582 162.3779
209.000000 91.544 162.7961
212.000000 91.485 163.2368
214.000000 91.439 163.4249
218.000000 91.349 163.5439
220.000000 91.313 163.6343
224.000000 91.258 163.9467
227.000000 91.225 164.1768
230.000000 91.189 164.4027
233.000000 91.142 164.6630
236.000000 91.090 164.9133
240.000000 91.034 165.2321
243.000000 91.001 165.4595
247.000000 90.951 165.7488
250.000000 90.913 165.9737
254.000000 90.868 166.2989
258.000000 90.827 166.6719
262.000000 90.780 167.0394
265.000000 90.742 167.2248
269.000000 90.692 167.3610
272.000000 90.655 167.5425
276.000000 90.619 167.9809
280.000000 90.596 168.4878
285.000000 90.585 169.0505
290.000000 90.555 169.3247
295.000000 90.501 169.6210
300.000000 90.449 170.1329
304.000000 90.408 170.5602
307.000000 90.385 170.8481
311.000000 90.355 171.1396
315.000000 90.318 171.3083
320.000000 90.272 171.5322
325.000000 90.240 171.8982
330.000000 90.219 172.3074
335.000000 90.190 172.6990
340.000000 90.158 173.0994
345.000000 90.135 173.5246
350.000000 90.105 173.9667
355.000000 90.064 174.3596
360.000000 90.031 174.7436
365.000000 90.011 175.1290
370.000000 89.986 175.5226
375.000000 89.969 175.9269
382.000000 89.960 176.5342
387.000000 89.923 177.1074
395.000000 89.875 177.9510
400.000000 89.846 178.2332
406.000000 89.815 178.5794
412.000000 89.792 178.9307
418.000000 89.782 179.3176
425.000000 89.769 179.8547
431.000000 89.752 -179.7041
437.000000 89.735 -179.2749
444.000000 89.728 -178.7024
450.000000 89.714 -178.1040
455.000000 89.680 -177.6561
462.000000 89.629 -177.1675
468.000000 89.599 -176.7541
475.000000 89.588 -176.2500
482.000000 89.606 -175.7322
487.000000 89.609 -175.3740
494.000000 89.594 -174.9097
500.000000 89.586 -174.5119
508.000000 89.581 -173.9350
515.000000 89.576 -173.4238
522.000000 89.569 -172.9184
530.000000 89.565 -172.3226
538.000000 89.565 -171.7064
545.000000 89.566 -171.1833
552.000000 89.565 -170.6592
560.000000 89.565 -170.0521
570.000000 89.569 -169.3095
580.000000 89.577 -168.5867
590.000000 89.583 -167.8845
600.000000 89.588 -167.1757
608.000000 89.597 -166.5820
615.000000 89.605 -166.0575
622.000000 89.612 -165.5368
630.000000 89.621 -164.9565
640.000000 89.618 -164.2607
650.000000 89.609 -163.3926
660.000000 89.628 -162.6910
670.000000 89.644 -162.0669
680.000000 89.696 -161.2829
690.000000 89.727 -160.6400
700.000000 89.743 -160.0140
710.000000 89.765 -159.3071
720.000000 89.784 -158.5931
730.000000 89.802 -157.9033
740.000000 89.820 -157.2278
750.000000 89.837 -156.5384
762.000000 89.848 -155.6407
775.000000 89.856 -154.4795
788.000000 89.894 -153.0505
800.000000 89.987 -151.7605
812.000000 90.108 -150.8283
825.000000 90.227 -150.1227
838.000000 90.340 -149.3787
850.000000 90.446 -148.6654
862.000000 90.540 -147.9979
875.000000 90.629 -147.3373
885.000000 90.694 -146.8403
900.000000 90.796 -146.0834
912.000000 90.881 -145.4903
925.000000 90.972 -144.8647
938.000000 91.063 -144.2510
950.000000 91.150 -143.7030
962.000000 91.239 -143.1806
975.000000 91.335 -142.6381
988.000000 91.431 -142.1229
1000.000000 91.519 -141.6735
1015.000000 91.628 -141.1418
1030.000000 91.738 -140.6356
1044.000000 91.840 -140.2054
1060.000000 91.956 -139.7680
1075.000000 92.064 -139.3689
1090.000000 92.177 -138.9777
1106.000000 92.305 -138.5852
1120.000000 92.419 -138.2627
1138.000000 92.567 -137.8989
1150.000000 92.662 -137.6798
1172.000000 92.832 -137.2567
1180.000000 92.893 -137.1158
1206.000000 93.094 -136.7350
1220.000000 93.203 -136.5205
1241.000000 93.363 -136.2149
1250.000000 93.430 -136.0959
1265.000000 93.542 -135.8988
1280.000000 93.651 -135.7006
1315.000000 93.900 -135.2587
1320.000000 93.935 -135.1991
1340.000000 94.067 -134.9740
1360.000000 94.181 -134.7719
1380.000000 94.291 -134.5661
1400.000000 94.414 -134.3551
1430.000000 94.607 -134.0561
1450.000000 94.736 -133.8756
1475.000000 94.897 -133.6671
1500.000000 95.063 -133.5128
1525.000000 95.225 -133.3699
1550.000000 95.383 -133.2211
1575.000000 95.539 -133.0900
1600.000000 95.694 -132.9881
1625.000000 95.850 -132.9241
1650.000000 96.006 -132.8892
1675.000000 96.162 -132.8856
1700.000000 96.317 -132.9178
1725.000000 96.470 -132.9841
1750.000000 96.621 -133.0847
1775.000000 96.770 -133.2146
1800.000000 96.918 -133.3785
1825.000000 97.062 -133.5736
1850.000000 97.205 -133.8070
1875.000000 97.344 -134.0715
1900.000000 97.481 -134.3587
1925.000000 97.615 -134.6685
1950.000000 97.750 -135.0044
1975.000000 97.885 -135.3770
2000.000000 98.020 -135.7994
2030.000000 98.179 -136.3931
2060.000000 98.330 -137.0878
2090.000000 98.470 -137.8667
2120.000000 98.596 -138.7036
2140.000000 98.673 -139.2823
2180.000000 98.807 -140.4762
2200.000000 98.864 -141.0837
2240.000000 98.958 -142.3105
2270.000000 99.015 -143.2364
2300.000000 99.059 -144.1574
2330.000000 99.091 -145.0680
2360.000000 99.112 -145.9651
2400.000000 99.124 -147.1261
2430.000000 99.121 -147.9645
2470.000000 99.103 -149.0359
2500.000000 99.079 -149.8013
2540.000000 99.035 -150.7562
2580.000000 98.978 -151.6326
2620.000000 98.910 -152.4283
2650.000000 98.852 -152.9668
2690.000000 98.769 -153.6099
2720.000000 98.702 -154.0369
2760.000000 98.607 -154.5297
2800.000000 98.507 -154.9479
2850.000000 98.381 -155.3552
2900.000000 98.252 -155.6228
2950.000000 98.122 -155.7760
3000.000000 97.994 -155.8198
3040.000000 97.895 -155.7744
3070.000000 97.823 -155.6923
3110.000000 97.730 -155.5266
3150.000000 97.645 -155.3013
3200.000000 97.550 -154.9387
3250.000000 97.471 -154.5085
3300.000000 97.412 -154.0480
3350.000000 97.376 -153.6200
3400.000000 97.354 -153.2794
3450.000000 97.338 -153.0360
3500.000000 97.323 -152.8594
3550.000000 97.304 -152.7074
3600.000000 97.282 -152.5567
3650.000000 97.255 -152.4036
3700.000000 97.228 -152.2577
3750.000000 97.200 -152.1293
3820.000000 97.155 -151.9989
3870.000000 97.109 -151.9716
3950.000000 96.978 -152.0867
4000.000000 96.820 -152.0799
4060.000000 96.531 -151.2310
4120.000000 96.294 -148.6028
4180.000000 96.404 -145.0859
4250.000000 96.892 -142.9708
4310.000000 97.247 -143.2354
4370.000000 97.453 -144.1562
4440.000000 97.580 -145.3406
4500.000000 97.631 -146.3607
4550.000000 97.643 -147.2133
4620.000000 97.621 -148.4005
4680.000000 97.568 -149.3909
4750.000000 97.472 -150.4918
4820.000000 97.343 -151.5163
4870.000000 97.234 -152.1929
4940.000000 97.057 -153.0560
5000.000000 96.885 -153.7087
5080.000000 96.629 -154.4364
5150.000000 96.381 -154.9164
5220.000000 96.114 -155.2268
5300.000000 95.790 -155.3477
5380.000000 95.450 -155.1850
5450.000000 95.146 -154.7828
5520.000000 94.847 -154.1324
5600.000000 94.522 -153.1054
5700.000000 94.146 -151.4731
5800.000000 93.812 -149.5609
5900.000000 93.519 -147.4378
6000.000000 93.268 -145.1526
6080.000000 93.098 -143.2438
6150.000000 92.972 -141.5364
6220.000000 92.865 -139.8071
6300.000000 92.765 -137.8155
6400.000000 92.670 -135.3091
6500.000000 92.607 -132.7761
6600.000000 92.577 -130.2051
6700.000000 92.587 -127.5807
6800.000000 92.653 -124.9127
6900.000000 92.801 -122.2497
7000.000000 93.039 -119.6700
7100.000000 93.358 -117.2615
7200.000000 93.753 -115.1201
7300.000000 94.228 -113.3606
7400.000000 94.785 -112.1291
7500.000000 95.427 -111.6378
7620.000000 96.301 -112.4409
7750.000000 97.270 -115.6597
7880.000000 98.002 -121.7956
8000.000000 98.292 -129.7118
8120.000000 98.106 -138.4913
8250.000000 97.372 -147.0020
8380.000000 96.236 -153.0048
8500.000000 95.012 -155.9991
8620.000000 93.760 -156.8656
8750.000000 92.461 -155.9682
8850.000000 91.531 -154.3176
9000.000000 90.274 -150.7282
9120.000000 89.391 -147.1490
9250.000000 88.552 -142.7402
9380.000000 87.828 -137.9237
9500.000000 87.258 -133.2340
9620.000000 86.776 -128.3946
9750.000000 86.347 -123.0360
9880.000000 86.011 -117.5910
10000.000000 85.779 -112.5100
10150.000000 85.591 -106.1170
10300.000000 85.518 -99.7243
10440.000000 85.562 -93.8155
10600.000000 85.757 -87.2440
10750.000000 86.079 -81.4396
10900.000000 86.511 -76.0712
11060.000000 87.130 -70.3726
11200.000000 87.962 -65.5709
11380.000000 89.463 -61.3996
11500.000000 90.681 -60.6719
11720.000000 93.061 -66.2978
11800.000000 93.787 -71.4021
12060.000000 94.511 -97.3701
12200.000000 93.621 -111.0612
12410.000000 91.118 -122.5651
12500.000000 89.880 -124.2015
12650.000000 87.887 -123.9044
12800.000000 86.127 -121.1649
13150.000000 83.004 -110.1473
13200.000000 82.652 -108.2893
13400.000000 81.433 -100.4939
13600.000000 80.478 -92.3473
13800.000000 79.760 -84.0671
14000.000000 79.256 -75.8062
14300.000000 78.852 -63.7077
14500.000000 78.804 -56.0565
14750.000000 78.975 -47.2913
15000.000000 79.385 -39.7218
15250.000000 80.039 -33.7828
15500.000000 80.952 -30.2729
15750.000000 81.964 -30.5391
16000.000000 82.637 -35.5779
16250.000000 82.489 -43.3875
16500.000000 81.424 -48.6916
16750.000000 79.908 -48.0810
17000.000000 78.627 -42.8571
17250.000000 77.951 -36.3605
17500.000000 77.782 -31.1713
17750.000000 77.826 -28.3412
18000.000000 77.841 -27.8731
18250.000000 77.702 -29.4216
18500.000000 77.357 -32.4541
18750.000000 76.791 -35.9522
19000.000000 75.957 -38.4110
19250.000000 74.744 -38.4106
19500.000000 73.062 -35.2213
19750.000000 70.976 -28.8563
20000.000000 68.623 -20.1025
20300.000000 65.524 -7.7356
20600.000000 62.120 6.5933
20900.000000 58.379 20.7163
21200.000000 54.221 14.9792
21400.000000 51.125 -58.3089
21800.000000 43.784 -102.7778
22000.000000 39.396 176.1611
22400.000000 29.188 101.1592
22700.000000 20.991 123.5781
23000.000000 14.263 51.3750
23300.000000 11.152 -121.2148
23600.000000 10.243 99.0234
24000.000000 9.560 -173.8594
