* Measurement data measured by REW V5.20.13
* Source: Headset (DS by VECLAN.COM), MICROPHONE (Master Volume), L, volume: 0.720. Timing signal peak level -15.3 dBFS, measurement signal peak level -13.9 dBFS
* Format: 2M Log Swept Sine, 1 sweep at -12.0 dBFS using an acoustic timing reference
* Dated: Feb 6, 2024 1:06:59 PM
* REW Settings:
*  C-weighting compensation: Off
*  Target level: 75.0 dB
* Note: ; Delay -0.0663 ms (-23 mm, -0.9 in) using estimated IR delay relative to Acoustic reference played from HEADPHONE L with no timing offset
* Measurement: TangZu Nezha S2 L
* Smoothing: 1/24 octave
* Frequency Step: 1/48 octave
* Start Frequency: 1.000 Hz
*
* Freq(Hz) SPL(dB) Phase(degrees)
1.000000 68.277 -95.6644
1.015000 68.322 -94.6316
1.030000 68.361 -93.7298
1.044000 68.392 -93.0167
1.060000 68.419 -92.3665
1.075000 68.437 -91.9288
1.090000 68.446 -91.6695
1.106000 68.446 -91.5975
1.120000 68.436 -91.6807
1.138000 68.408 -91.9717
1.150000 68.383 -92.2754
1.172000 68.321 -93.0479
1.180000 68.294 -93.3948
1.206000 68.193 -94.7490
1.220000 68.132 -95.6133
1.241000 68.032 -97.0728
1.250000 67.987 -97.7543
1.265000 67.909 -98.9596
1.280000 67.830 -100.2462
1.315000 67.641 -103.5274
1.320000 67.614 -104.0246
1.340000 67.508 -106.0744
1.360000 67.406 -108.2107
1.380000 67.310 -110.4180
1.400000 67.223 -112.6810
1.430000 67.112 -116.1459
1.450000 67.055 -118.4803
1.475000 67.002 -121.4283
1.500000 66.945 -124.6397
1.525000 66.881 -128.1348
1.550000 66.814 -131.8699
1.575000 66.748 -135.8013
1.600000 66.686 -139.8854
1.625000 66.634 -144.0784
1.650000 66.594 -148.3366
1.675000 66.572 -152.6163
1.700000 66.571 -156.8739
1.725000 66.595 -161.0655
1.750000 66.648 -165.1476
1.775000 66.735 -169.0764
1.800000 66.859 -172.8082
1.825000 67.024 -176.2993
1.850000 67.238 -179.5839
1.875000 67.507 177.1790
1.900000 67.823 173.9918
1.925000 68.181 170.8648
1.950000 68.572 167.8080
1.975000 68.992 164.8315
2.000000 69.432 161.9454
2.030000 69.978 158.6158
2.060000 70.532 155.4484
2.090000 71.083 152.4608
2.120000 71.618 149.6703
2.140000 71.960 147.9282
2.180000 72.594 144.7511
2.200000 72.879 143.3268
2.240000 73.421 140.9062
2.270000 73.816 139.4486
2.300000 74.202 138.2501
2.330000 74.577 137.2678
2.360000 74.943 136.4588
2.400000 75.417 135.5758
2.430000 75.761 135.0047
2.470000 76.205 134.2833
2.500000 76.528 133.7168
2.540000 76.945 132.8459
2.580000 77.345 131.7783
2.620000 77.725 130.6923
2.650000 77.997 129.8979
2.690000 78.344 128.8629
2.720000 78.594 128.1032
2.760000 78.914 127.1099
2.800000 79.222 126.1361
2.850000 79.592 124.9418
2.900000 79.950 123.7674
2.950000 80.299 122.6080
3.000000 80.632 121.4692
3.040000 80.885 120.5753
3.070000 81.068 119.9150
3.110000 81.304 119.0491
3.150000 81.531 118.1999
3.200000 81.804 117.1631
3.250000 82.067 116.1547
3.300000 82.321 115.1760
3.350000 82.565 114.2441
3.400000 82.795 113.3604
3.450000 83.014 112.5098
3.500000 83.223 111.6775
3.550000 83.422 110.8484
3.600000 83.611 110.0078
3.650000 83.794 109.1404
3.700000 83.968 108.2324
3.750000 84.133 107.2872
3.820000 84.347 105.9337
3.870000 84.491 104.9683
3.950000 84.704 103.4735
4.000000 84.828 102.5970
4.060000 84.968 101.6265
4.120000 85.097 100.7266
4.180000 85.215 99.8809
4.250000 85.339 98.9447
4.310000 85.437 98.1700
4.370000 85.526 97.4066
4.440000 85.621 96.5105
4.500000 85.691 95.7349
4.550000 85.743 95.0985
4.620000 85.807 94.2469
4.680000 85.856 93.5764
4.750000 85.910 92.8929
4.820000 85.957 92.3282
4.870000 85.984 91.9827
4.940000 86.017 91.5726
5.000000 86.042 91.2834
5.080000 86.078 90.9769
5.150000 86.115 90.7755
5.220000 86.151 90.6539
5.300000 86.191 90.6063
5.380000 86.237 90.6361
5.450000 86.288 90.7094
5.520000 86.353 90.8188
5.600000 86.439 91.0408
5.700000 86.564 91.4102
5.800000 86.712 91.7747
5.900000 86.885 92.0409
6.000000 87.089 92.2896
6.080000 87.268 92.4468
6.150000 87.432 92.5146
6.220000 87.598 92.4852
6.300000 87.795 92.3317
6.400000 88.057 92.0013
6.500000 88.321 91.5101
6.600000 88.574 90.8498
6.700000 88.819 89.9992
6.800000 89.057 88.9763
6.900000 89.279 87.8233
7.000000 89.476 86.5704
7.100000 89.653 85.1681
7.200000 89.809 83.6657
7.300000 89.939 82.1370
7.400000 90.041 80.6039
7.500000 90.116 79.0168
7.620000 90.172 77.1393
7.750000 90.193 75.2487
7.880000 90.167 73.4388
8.000000 90.113 71.9376
8.120000 90.038 70.7001
8.250000 89.923 69.6031
8.380000 89.797 68.8056
8.500000 89.688 68.3961
8.620000 89.574 68.2945
8.750000 89.473 68.4341
8.850000 89.428 68.6858
9.000000 89.398 69.3833
9.120000 89.415 70.0048
9.250000 89.488 70.6072
9.380000 89.613 71.2182
9.500000 89.751 71.6244
9.620000 89.905 71.7852
9.750000 90.096 71.7526
9.880000 90.276 71.4952
10.000000 90.421 71.0194
10.150000 90.583 70.1538
10.300000 90.700 69.1658
10.440000 90.765 68.0901
10.600000 90.796 66.8543
10.750000 90.781 65.8141
10.900000 90.729 64.8715
11.060000 90.653 64.1631
11.200000 90.564 63.7799
11.380000 90.460 63.6307
11.500000 90.400 63.7939
11.720000 90.334 64.4203
11.800000 90.337 64.7128
12.060000 90.427 65.8210
12.200000 90.531 66.2542
12.410000 90.744 66.6796
12.500000 90.839 66.6954
12.650000 91.011 66.5081
12.800000 91.176 66.1010
13.150000 91.467 64.3490
13.200000 91.495 64.0661
13.400000 91.570 62.8200
13.600000 91.592 61.6912
13.800000 91.562 60.7789
14.000000 91.513 60.2341
14.300000 91.433 60.1331
14.500000 91.423 60.5137
14.750000 91.489 61.1517
15.000000 91.650 61.7758
15.250000 91.886 61.9676
15.500000 92.140 61.6352
15.750000 92.380 60.7748
16.000000 92.560 59.5288
16.250000 92.673 58.1880
16.500000 92.725 56.9161
16.750000 92.732 55.9309
17.000000 92.732 55.2731
17.250000 92.745 54.8777
17.500000 92.792 54.6357
17.750000 92.871 54.3172
18.000000 92.964 53.8477
18.250000 93.053 53.1481
18.500000 93.110 52.3044
18.750000 93.130 51.4473
19.000000 93.112 50.6996
19.250000 93.074 50.2281
19.500000 93.037 50.0319
19.750000 93.020 50.1004
20.000000 93.046 50.2912
20.299999 93.127 50.4731
20.600000 93.248 50.4362
20.900000 93.379 50.0925
21.200001 93.492 49.4915
21.400000 93.550 49.0312
21.799999 93.628 48.1096
22.000000 93.654 47.7059
22.400000 93.698 47.0612
22.700001 93.735 46.6926
23.000000 93.781 46.3817
23.299999 93.835 46.1007
23.600000 93.899 45.8290
24.000000 93.999 45.4392
24.299999 94.080 45.0847
24.700001 94.184 44.4905
25.000000 94.248 43.9722
25.400000 94.302 43.2834
25.799999 94.322 42.7655
26.200001 94.335 42.5304
26.500000 94.357 42.5117
26.900000 94.418 42.5598
27.200001 94.484 42.5250
27.600000 94.578 42.2697
28.000000 94.648 41.7954
28.500000 94.672 41.1872
29.000000 94.656 41.0057
29.500000 94.693 41.3356
30.000000 94.858 41.5624
30.400000 95.053 41.0580
30.700001 95.185 40.1123
31.100000 95.268 38.2784
31.500000 95.202 36.3467
32.000000 94.946 34.9217
32.500000 94.684 35.2729
33.000000 94.652 36.6486
33.500000 94.875 37.5054
34.000000 95.158 36.9803
34.500000 95.333 35.5704
35.000000 95.385 34.2163
35.500000 95.394 33.3899
36.000000 95.427 32.9004
36.500000 95.481 32.4413
37.000000 95.528 31.9643
37.500000 95.563 31.5849
38.200001 95.619 31.2358
38.700001 95.670 30.9986
39.500000 95.756 30.5390
40.000000 95.811 30.1821
40.599998 95.871 29.6265
41.200001 95.907 28.9901
41.799999 95.924 28.4305
42.500000 95.951 27.9076
43.099998 95.986 27.4456
43.700001 96.017 26.9690
44.400002 96.052 26.5058
45.000000 96.092 26.1752
45.500000 96.131 25.8893
46.200001 96.186 25.4806
46.799999 96.234 25.1464
47.500000 96.294 24.6936
48.200001 96.337 24.1358
48.700001 96.350 23.7556
49.400002 96.358 23.3478
50.000000 96.371 23.0538
50.799999 96.393 22.6053
51.500000 96.403 22.1937
52.200001 96.407 21.8438
53.000000 96.420 21.5348
53.799999 96.457 21.2461
54.500000 96.503 20.8533
55.200001 96.528 20.3165
56.000000 96.522 19.8574
57.000000 96.552 19.6611
58.000000 96.637 19.0679
59.000000 96.646 18.1302
60.000000 96.605 17.5980
60.799999 96.595 17.3938
61.500000 96.612 17.2390
62.200001 96.656 16.9785
63.000000 96.709 16.3244
64.000000 96.686 15.2700
65.000000 96.608 14.8777
66.000000 96.601 14.8792
67.000000 96.647 14.8383
68.000000 96.742 14.5940
69.000000 96.820 13.9219
70.000000 96.853 13.2057
71.000000 96.857 12.4958
72.000000 96.834 12.0085
73.000000 96.845 11.6707
74.000000 96.863 11.1389
75.000000 96.864 10.6895
76.199997 96.881 10.1853
77.500000 96.854 9.7914
78.800003 96.850 10.0592
80.000000 96.908 10.1342
81.199997 96.920 9.8848
82.500000 96.885 9.6859
83.800003 96.861 9.4302
85.000000 96.829 8.9271
86.199997 96.788 8.5325
87.500000 96.802 8.2514
88.500000 96.867 7.9343
90.000000 96.972 6.7754
91.199997 96.943 5.8046
92.500000 96.891 5.4278
93.800003 96.877 5.3028
95.000000 96.904 5.2550
96.199997 96.958 4.9286
97.500000 96.975 4.2925
98.800003 96.941 3.7452
100.000000 96.898 3.3943
101.500000 96.838 3.0105
103.000000 96.787 2.7928
104.400002 96.780 2.5776
106.000000 96.794 2.2212
107.500000 96.805 1.8414
109.000000 96.800 1.5129
110.599998 96.782 1.2527
112.000000 96.763 1.0140
113.800003 96.733 0.6821
115.000000 96.711 0.4224
117.199997 96.654 -0.0640
118.000000 96.630 -0.2148
120.599998 96.564 -0.6292
122.000000 96.547 -0.8403
124.099998 96.537 -1.2272
125.000000 96.529 -1.3783
126.500000 96.511 -1.5461
128.000000 96.495 -1.6832
131.500000 96.434 -2.1718
132.000000 96.424 -2.2518
134.000000 96.388 -2.5621
136.000000 96.368 -2.8682
138.000000 96.350 -3.1987
140.000000 96.321 -3.4886
143.000000 96.276 -3.7625
145.000000 96.252 -3.9179
147.500000 96.218 -4.1430
150.000000 96.177 -4.3784
152.500000 96.140 -4.5914
155.000000 96.107 -4.8010
157.500000 96.071 -5.0192
160.000000 96.033 -5.2421
162.500000 95.996 -5.4515
165.000000 95.959 -5.6583
167.500000 95.921 -5.8373
170.000000 95.887 -5.9773
172.500000 95.850 -6.0631
175.000000 95.807 -6.1593
177.500000 95.757 -6.3150
180.000000 95.715 -6.4847
182.500000 95.681 -6.6057
185.000000 95.647 -6.6600
187.500000 95.608 -6.7198
190.000000 95.566 -6.8304
192.500000 95.524 -6.9162
195.000000 95.483 -6.9451
197.500000 95.444 -6.9562
200.000000 95.409 -6.9874
203.000000 95.367 -7.0063
206.000000 95.324 -6.9927
209.000000 95.277 -7.0672
212.000000 95.226 -7.1609
214.000000 95.198 -7.1886
218.000000 95.149 -7.1859
220.000000 95.122 -7.1677
224.000000 95.056 -7.1409
227.000000 95.006 -7.1115
230.000000 94.970 -7.0803
233.000000 94.934 -7.0359
236.000000 94.895 -6.9910
240.000000 94.847 -6.9454
243.000000 94.819 -6.8783
247.000000 94.785 -6.7861
250.000000 94.758 -6.7084
254.000000 94.719 -6.5737
258.000000 94.676 -6.4459
262.000000 94.641 -6.3857
265.000000 94.619 -6.3358
269.000000 94.587 -6.2454
272.000000 94.560 -6.1991
276.000000 94.525 -6.1467
280.000000 94.492 -6.0289
285.000000 94.447 -5.8127
290.000000 94.404 -5.6434
295.000000 94.366 -5.5380
300.000000 94.330 -5.4211
304.000000 94.304 -5.3097
307.000000 94.284 -5.2201
311.000000 94.260 -5.0728
315.000000 94.237 -4.9025
320.000000 94.211 -4.7264
325.000000 94.186 -4.5835
330.000000 94.158 -4.4288
335.000000 94.124 -4.2369
340.000000 94.090 -4.0337
345.000000 94.056 -3.8312
350.000000 94.020 -3.6493
355.000000 93.983 -3.4530
360.000000 93.949 -3.2220
365.000000 93.916 -2.9702
370.000000 93.887 -2.7323
375.000000 93.861 -2.5195
382.000000 93.837 -2.2256
387.000000 93.822 -2.0126
395.000000 93.792 -1.6263
400.000000 93.770 -1.3630
406.000000 93.745 -1.0637
412.000000 93.719 -0.8035
418.000000 93.700 -0.5690
425.000000 93.692 -0.3469
431.000000 93.684 -0.1886
437.000000 93.669 -0.0377
444.000000 93.647 0.1935
450.000000 93.622 0.4041
455.000000 93.596 0.5538
462.000000 93.560 0.7617
468.000000 93.532 0.9963
475.000000 93.505 1.2803
482.000000 93.487 1.4994
487.000000 93.472 1.6300
494.000000 93.447 1.8536
500.000000 93.424 2.0800
508.000000 93.385 2.3932
515.000000 93.351 2.6870
522.000000 93.320 2.9948
530.000000 93.290 3.3274
538.000000 93.263 3.6243
545.000000 93.242 3.8943
552.000000 93.222 4.1947
560.000000 93.194 4.5562
570.000000 93.154 5.0157
580.000000 93.111 5.4904
590.000000 93.072 5.9852
600.000000 93.040 6.4579
608.000000 93.018 6.8239
615.000000 92.997 7.1487
622.000000 92.977 7.5019
630.000000 92.952 7.9050
640.000000 92.916 8.4166
650.000000 92.874 8.9705
660.000000 92.835 9.5460
670.000000 92.801 10.0912
680.000000 92.772 10.6213
690.000000 92.747 11.2065
700.000000 92.721 11.8140
710.000000 92.694 12.4274
720.000000 92.669 13.0361
730.000000 92.644 13.6858
740.000000 92.623 14.3576
750.000000 92.606 15.0432
762.000000 92.593 15.8651
775.000000 92.585 16.8086
788.000000 92.585 17.7445
800.000000 92.588 18.6268
812.000000 92.598 19.5562
825.000000 92.617 20.5582
838.000000 92.650 21.4877
850.000000 92.687 22.3329
862.000000 92.733 23.1443
875.000000 92.789 23.9581
885.000000 92.833 24.5331
900.000000 92.892 25.3752
912.000000 92.941 26.0255
925.000000 93.000 26.6487
938.000000 93.062 27.2155
950.000000 93.120 27.7333
962.000000 93.170 28.2490
975.000000 93.223 28.7754
988.000000 93.273 29.2745
1000.000000 93.318 29.7216
1015.000000 93.373 30.2742
1030.000000 93.429 30.7863
1044.000000 93.481 31.2198
1060.000000 93.535 31.7130
1075.000000 93.584 32.1716
1090.000000 93.637 32.5850
1106.000000 93.706 32.9946
1120.000000 93.768 33.3467
1138.000000 93.848 33.7759
1150.000000 93.898 34.0412
1172.000000 93.981 34.5316
1180.000000 94.008 34.7111
1206.000000 94.097 35.2750
1220.000000 94.151 35.5524
1241.000000 94.230 35.9596
1250.000000 94.261 36.1505
1265.000000 94.309 36.4646
1280.000000 94.351 36.7694
1315.000000 94.439 37.5337
1320.000000 94.451 37.6443
1340.000000 94.500 38.0768
1360.000000 94.534 38.5025
1380.000000 94.562 38.9520
1400.000000 94.595 39.4406
1430.000000 94.652 40.1782
1450.000000 94.690 40.6717
1475.000000 94.734 41.3370
1500.000000 94.780 42.0164
1525.000000 94.836 42.6877
1550.000000 94.894 43.3708
1575.000000 94.943 44.0719
1600.000000 94.979 44.8155
1625.000000 95.010 45.5739
1650.000000 95.050 46.3394
1675.000000 95.104 47.0851
1700.000000 95.167 47.8308
1725.000000 95.226 48.6147
1750.000000 95.285 49.4020
1775.000000 95.350 50.1794
1800.000000 95.418 50.9505
1825.000000 95.484 51.7366
1850.000000 95.550 52.5321
1875.000000 95.621 53.3175
1900.000000 95.701 54.0906
1925.000000 95.787 54.8620
1950.000000 95.879 55.6322
1975.000000 95.978 56.3734
2000.000000 96.077 57.1056
2030.000000 96.192 57.9909
2060.000000 96.310 58.8504
2090.000000 96.441 59.6599
2120.000000 96.585 60.4295
2140.000000 96.685 60.9263
2180.000000 96.900 61.8367
2200.000000 97.010 62.2503
2240.000000 97.230 63.0136
2270.000000 97.397 63.4963
2300.000000 97.561 63.9021
2330.000000 97.718 64.2541
2360.000000 97.873 64.5279
2400.000000 98.094 64.7574
2430.000000 98.268 64.8170
2470.000000 98.495 64.7921
2500.000000 98.654 64.6992
2540.000000 98.849 64.4718
2580.000000 99.023 64.1540
2620.000000 99.183 63.7533
2650.000000 99.300 63.3897
2690.000000 99.450 62.8208
2720.000000 99.547 62.3530
2760.000000 99.651 61.6761
2800.000000 99.731 60.9607
2850.000000 99.808 60.0184
2900.000000 99.856 59.0988
2950.000000 99.871 58.2255
3000.000000 99.857 57.4376
3040.000000 99.837 56.8528
3070.000000 99.820 56.4419
3110.000000 99.792 55.9292
3150.000000 99.755 55.4646
3200.000000 99.696 54.9211
3250.000000 99.627 54.3969
3300.000000 99.547 53.8878
3350.000000 99.457 53.3995
3400.000000 99.355 52.9499
3450.000000 99.237 52.5727
3500.000000 99.103 52.2808
3550.000000 98.958 52.0698
3600.000000 98.804 51.9446
3650.000000 98.638 51.9113
3700.000000 98.457 51.9814
3750.000000 98.265 52.1560
3820.000000 97.983 52.6068
3870.000000 97.768 53.1099
3950.000000 97.397 54.3086
4000.000000 97.151 55.3562
4060.000000 96.859 56.9568
4120.000000 96.588 58.9531
4180.000000 96.352 61.3604
4250.000000 96.143 64.6218
4310.000000 96.033 67.7136
4370.000000 95.999 70.9376
4440.000000 96.071 74.6606
4500.000000 96.229 77.6387
4550.000000 96.422 79.8528
4620.000000 96.760 82.4411
4680.000000 97.098 84.0687
4750.000000 97.517 85.2397
4820.000000 97.931 85.5984
4870.000000 98.201 85.3949
4940.000000 98.527 84.5158
5000.000000 98.740 83.2965
5080.000000 98.903 81.2206
5150.000000 98.939 79.1458
5220.000000 98.874 77.0436
5300.000000 98.688 74.7984
5380.000000 98.378 72.9648
5450.000000 98.030 71.7889
5520.000000 97.637 71.0623
5600.000000 97.155 70.7978
5700.000000 96.527 71.2916
5800.000000 95.899 72.5271
5900.000000 95.290 74.4778
6000.000000 94.720 77.0154
6080.000000 94.291 79.3712
6150.000000 93.927 81.6540
6220.000000 93.553 84.2294
6300.000000 93.090 87.9011
6400.000000 92.629 94.8529
6500.000000 92.867 102.6388
6600.000000 93.288 105.9456
6700.000000 93.295 108.0575
6800.000000 93.229 111.4293
6900.000000 93.290 115.5231
7000.000000 93.493 119.6767
7100.000000 93.769 123.5848
7200.000000 94.119 127.5552
7300.000000 94.655 131.3386
7400.000000 95.321 134.0028
7500.000000 96.018 135.4363
7620.000000 96.864 135.6918
7750.000000 97.712 134.0374
7880.000000 98.280 130.3575
8000.000000 98.468 125.6946
8120.000000 98.297 120.8981
8250.000000 97.756 116.8708
8380.000000 96.981 114.8821
8500.000000 96.207 114.8790
8620.000000 95.489 116.2364
8750.000000 94.828 118.6637
8850.000000 94.405 120.8410
9000.000000 93.889 124.0660
9120.000000 93.530 126.3275
9250.000000 93.143 128.3440
9380.000000 92.699 130.0818
9500.000000 92.200 131.7640
9620.000000 91.606 133.8951
9750.000000 90.884 137.0565
9880.000000 90.136 141.3007
10000.000000 89.467 146.2184
10150.000000 88.730 153.5687
10300.000000 88.155 162.0143
10440.000000 87.795 170.6254
10600.000000 87.627 -178.9784
10750.000000 87.757 -169.0290
10900.000000 88.222 -159.3379
11060.000000 89.119 -150.0533
11200.000000 90.207 -143.8387
11380.000000 91.735 -140.3709
11500.000000 92.551 -141.5407
11720.000000 93.010 -147.9364
11800.000000 92.820 -149.8599
12060.000000 91.558 -149.0784
12200.000000 90.920 -144.6643
12410.000000 90.425 -135.6171
12500.000000 90.396 -131.5029
12650.000000 90.563 -124.9508
12800.000000 90.937 -119.2155
13150.000000 92.159 -110.3763
13200.000000 92.333 -109.6365
13400.000000 92.961 -107.6593
13600.000000 93.459 -106.7025
13800.000000 93.887 -106.4113
14000.000000 94.285 -107.1075
14300.000000 94.612 -111.1166
14500.000000 94.411 -115.0834
14750.000000 93.717 -118.8582
15000.000000 92.823 -121.9512
15250.000000 91.503 -123.8598
15500.000000 89.996 -123.2969
15750.000000 88.445 -121.4369
16000.000000 86.733 -117.6809
16250.000000 85.014 -112.0731
16500.000000 83.236 -106.6054
16750.000000 80.890 -97.2375
17000.000000 78.333 -80.2933
17250.000000 76.512 -57.4811
17500.000000 76.136 -34.8941
17750.000000 76.509 -17.3137
18000.000000 76.821 -3.0562
18250.000000 77.112 10.9910
18500.000000 77.791 25.4883
18750.000000 79.125 39.1469
19000.000000 80.879 50.0945
19250.000000 82.429 56.8203
19500.000000 83.305 59.6480
19750.000000 83.371 60.5436
20000.000000 82.625 62.0828
20300.000000 80.896 67.7063
20600.000000 78.689 79.0006
20900.000000 76.356 95.5561
21200.000000 74.150 115.6727
21400.000000 72.797 129.2475
21800.000000 70.325 103.6208
22000.000000 68.695 -68.2968
22400.000000 62.962 -160.8594
22700.000000 56.527 -108.9717
23000.000000 48.724 -85.3828
23300.000000 40.294 164.5898
23600.000000 33.940 -144.8203
24000.000000 31.852 176.8125
