* Measurement data measured by REW V5.31
* Source: Headset (DS by VECLAN.COM), MICROPHONE (Master Volume), L, volume: 0.720. Timing signal peak level -18.2 dBFS, measurement signal peak level -14.3 dBFS
* Format: 2M Log Swept Sine, 1 sweep at -12.0 dBFS using an acoustic timing reference
* Dated: Apr 27, 2024 7:43:33 PM
* REW Settings:
*  C-weighting compensation: Off
*  Target level: 85.0 dB
* Note: ; Delay -0.0691 ms (-24 mm, -0.93 in) using estimated IR delay relative to Acoustic reference played from HEADPHONE L with no timing offset
* Measurement: TangZu Waner S4 L
* Smoothing: 1/24 octave
* Frequency Step: 1/48 octave
* Start Frequency: 1.000 Hz
*
* Freq(Hz), SPL(dB), Phase(degrees)
1.000000, 72.557, -47.3738
1.015000, 72.978, -47.3249
1.030000, 73.390, -47.3170
1.044000, 73.769, -47.3455
1.060000, 74.191, -47.4190
1.075000, 74.579, -47.5259
1.090000, 74.956, -47.6648
1.106000, 75.349, -47.8278
1.120000, 75.688, -47.9516
1.138000, 76.117, -48.0691
1.150000, 76.400, -48.1244
1.172000, 76.910, -48.1958
1.180000, 77.092, -48.2194
1.206000, 77.675, -48.2741
1.220000, 77.982, -48.2953
1.241000, 78.432, -48.3241
1.250000, 78.621, -48.3371
1.265000, 78.932, -48.3615
1.280000, 79.235, -48.3914
1.315000, 79.917, -48.4930
1.320000, 80.011, -48.5119
1.340000, 80.379, -48.6009
1.360000, 80.734, -48.7112
1.380000, 81.074, -48.8838
1.400000, 81.399, -49.0968
1.430000, 81.858, -49.4663
1.450000, 82.143, -49.7449
1.475000, 82.474, -50.1094
1.500000, 82.769, -50.4422
1.525000, 83.029, -50.7277
1.550000, 83.258, -50.9752
1.575000, 83.459, -51.2172
1.600000, 83.637, -51.4808
1.625000, 83.796, -51.7353
1.650000, 83.939, -51.9882
1.675000, 84.071, -52.2458
1.700000, 84.196, -52.5135
1.725000, 84.319, -52.7960
1.750000, 84.442, -53.0970
1.775000, 84.571, -53.4368
1.800000, 84.709, -53.8336
1.825000, 84.859, -54.2517
1.850000, 85.017, -54.6749
1.875000, 85.177, -55.0805
1.900000, 85.336, -55.4637
1.925000, 85.493, -55.8274
1.950000, 85.649, -56.1753
1.975000, 85.803, -56.5284
2.000000, 85.955, -56.9065
2.030000, 86.136, -57.3536
2.060000, 86.315, -57.8009
2.090000, 86.491, -58.2534
2.120000, 86.665, -58.7161
2.140000, 86.780, -59.0322
2.180000, 87.007, -59.7070
2.200000, 87.119, -60.0729
2.240000, 87.340, -60.7985
2.270000, 87.503, -61.3258
2.300000, 87.664, -61.8379
2.330000, 87.822, -62.3369
2.360000, 87.978, -62.8255
2.400000, 88.183, -63.5132
2.430000, 88.335, -64.0302
2.470000, 88.533, -64.7174
2.500000, 88.680, -65.2347
2.540000, 88.872, -65.9311
2.580000, 89.061, -66.6530
2.620000, 89.247, -67.4073
2.650000, 89.384, -67.9635
2.690000, 89.563, -68.6918
2.720000, 89.695, -69.2281
2.760000, 89.869, -69.9291
2.800000, 90.038, -70.6577
2.850000, 90.245, -71.5611
2.900000, 90.447, -72.4548
2.950000, 90.644, -73.3440
3.000000, 90.835, -74.2585
3.040000, 90.983, -74.9928
3.070000, 91.092, -75.5362
3.110000, 91.235, -76.2497
3.150000, 91.375, -76.9496
3.200000, 91.545, -77.8361
3.250000, 91.711, -78.7168
3.300000, 91.873, -79.5810
3.350000, 92.031, -80.4339
3.400000, 92.185, -81.3109
3.450000, 92.334, -82.1878
3.500000, 92.479, -83.0459
3.550000, 92.620, -83.8816
3.600000, 92.757, -84.7199
3.650000, 92.891, -85.5467
3.700000, 93.022, -86.3570
3.750000, 93.148, -87.1572
3.820000, 93.318, -88.2929
3.870000, 93.436, -89.0923
3.950000, 93.619, -90.3283
4.000000, 93.730, -91.0932
4.060000, 93.860, -91.9973
4.120000, 93.987, -92.8834
4.180000, 94.109, -93.7599
4.250000, 94.248, -94.7893
4.310000, 94.364, -95.6432
4.370000, 94.476, -96.4738
4.440000, 94.604, -97.4475
4.500000, 94.710, -98.2657
4.550000, 94.796, -98.9351
4.620000, 94.913, -99.8787
4.680000, 95.011, -100.6715
4.750000, 95.123, -101.5685
4.820000, 95.232, -102.4641
4.870000, 95.308, -103.0974
4.940000, 95.412, -103.9669
5.000000, 95.499, -104.7104
5.080000, 95.611, -105.6875
5.150000, 95.706, -106.5179
5.220000, 95.798, -107.3540
5.300000, 95.899, -108.2994
5.380000, 95.997, -109.2239
5.450000, 96.079, -110.0297
5.520000, 96.159, -110.8133
5.600000, 96.247, -111.7019
5.700000, 96.351, -112.8046
5.800000, 96.450, -113.8764
5.900000, 96.544, -114.9260
6.000000, 96.632, -115.9532
6.080000, 96.699, -116.7690
6.150000, 96.755, -117.4587
6.220000, 96.809, -118.1413
6.300000, 96.868, -118.9004
6.400000, 96.938, -119.8274
6.500000, 97.004, -120.7346
6.600000, 97.066, -121.6047
6.700000, 97.126, -122.4513
6.800000, 97.183, -123.2694
6.900000, 97.238, -124.0665
7.000000, 97.291, -124.8315
7.100000, 97.344, -125.5756
7.200000, 97.395, -126.2958
7.300000, 97.445, -127.0014
7.400000, 97.495, -127.6869
7.500000, 97.543, -128.3636
7.620000, 97.600, -129.1544
7.750000, 97.661, -129.9909
7.880000, 97.721, -130.8159
8.000000, 97.774, -131.5591
8.120000, 97.826, -132.2943
8.250000, 97.880, -133.0815
8.380000, 97.932, -133.8538
8.500000, 97.977, -134.5587
8.620000, 98.021, -135.2521
8.750000, 98.065, -135.9894
8.850000, 98.098, -136.5464
9.000000, 98.145, -137.3618
9.120000, 98.181, -138.0023
9.250000, 98.218, -138.6850
9.380000, 98.254, -139.3532
9.500000, 98.286, -139.9631
9.620000, 98.317, -140.5603
9.750000, 98.348, -141.1970
9.880000, 98.371, -141.8279
10.000000, 98.381, -142.3971
10.150000, 98.381, -143.1294
10.300000, 98.372, -143.8340
10.440000, 98.355, -144.4664
10.600000, 98.332, -145.1544
10.750000, 98.309, -145.7620
10.900000, 98.286, -146.3330
11.060000, 98.264, -146.9249
11.200000, 98.246, -147.4455
11.380000, 98.225, -148.0704
11.500000, 98.212, -148.4609
11.720000, 98.193, -149.1373
11.800000, 98.189, -149.3746
12.060000, 98.186, -150.1522
12.200000, 98.190, -150.6140
12.410000, 98.200, -151.3141
12.500000, 98.204, -151.6187
12.650000, 98.208, -152.1323
12.800000, 98.210, -152.6489
13.150000, 98.199, -153.8941
13.200000, 98.196, -154.0764
13.400000, 98.180, -154.7819
13.600000, 98.159, -155.4356
13.800000, 98.133, -156.0248
14.000000, 98.106, -156.5477
14.300000, 98.067, -157.2791
14.500000, 98.046, -157.6895
14.750000, 98.026, -158.1346
15.000000, 98.019, -158.5351
15.250000, 98.029, -158.9810
15.500000, 98.050, -159.4516
15.750000, 98.075, -159.9706
16.000000, 98.100, -160.5563
16.250000, 98.117, -161.2522
16.500000, 98.121, -161.9926
16.750000, 98.107, -162.7368
17.000000, 98.074, -163.4330
17.250000, 98.026, -164.0536
17.500000, 97.967, -164.5244
17.750000, 97.910, -164.8215
18.000000, 97.865, -164.9644
18.250000, 97.842, -165.0242
18.500000, 97.847, -165.0590
18.750000, 97.877, -165.1469
19.000000, 97.925, -165.3529
19.250000, 97.981, -165.7361
19.500000, 98.031, -166.2669
19.750000, 98.067, -166.9147
20.000000, 98.082, -167.6311
20.299999, 98.071, -168.5350
20.600000, 98.029, -169.3687
20.900000, 97.962, -170.0529
21.200001, 97.880, -170.5429
21.400000, 97.824, -170.7370
21.799999, 97.733, -170.7949
22.000000, 97.709, -170.6964
22.400000, 97.725, -170.4604
22.700001, 97.792, -170.4184
23.000000, 97.887, -170.6505
23.299999, 97.983, -171.2296
23.600000, 98.052, -172.0854
24.000000, 98.072, -173.4085
24.299999, 98.033, -174.3323
24.700001, 97.938, -175.1935
25.000000, 97.868, -175.5135
25.400000, 97.817, -175.6694
25.799999, 97.826, -175.7830
26.200001, 97.868, -176.1116
26.500000, 97.897, -176.5285
26.900000, 97.912, -177.2001
27.200001, 97.901, -177.6967
27.600000, 97.868, -178.2291
28.000000, 97.834, -178.5669
28.500000, 97.817, -178.8264
29.000000, 97.835, -179.1178
29.500000, 97.861, -179.6384
30.000000, 97.853, 179.6839
30.400000, 97.810, 179.1978
30.700001, 97.766, 178.9649
31.100000, 97.716, 178.8388
31.500000, 97.695, 178.7957
32.000000, 97.708, 178.5860
32.500000, 97.713, 178.0435
33.000000, 97.666, 177.3871
33.500000, 97.579, 176.9199
34.000000, 97.502, 176.7115
34.500000, 97.457, 176.5409
35.000000, 97.422, 176.2476
35.500000, 97.371, 175.8985
36.000000, 97.311, 175.6594
36.500000, 97.268, 175.5421
37.000000, 97.257, 175.4146
37.500000, 97.266, 175.1422
38.200001, 97.279, 174.5090
38.700001, 97.276, 173.9479
39.500000, 97.244, 173.0552
40.000000, 97.213, 172.6122
40.599998, 97.187, 172.2213
41.200001, 97.183, 171.8949
41.799999, 97.192, 171.5195
42.500000, 97.198, 171.0089
43.099998, 97.192, 170.5661
43.700001, 97.173, 170.1368
44.400002, 97.123, 169.6842
45.000000, 97.055, 169.4485
45.500000, 96.995, 169.4315
46.200001, 96.946, 169.5686
46.799999, 96.944, 169.5149
47.500000, 96.932, 169.0355
48.200001, 96.862, 168.4289
48.700001, 96.797, 168.1479
49.400002, 96.737, 167.9313
50.000000, 96.728, 167.6553
50.799999, 96.724, 166.9533
51.500000, 96.683, 166.3394
52.200001, 96.642, 166.1369
53.000000, 96.678, 166.1562
53.799999, 96.746, 165.7787
54.500000, 96.739, 165.4531
55.200001, 96.729, 165.6173
56.000000, 96.799, 165.7204
57.000000, 96.810, 164.8473
58.000000, 96.629, 164.3129
59.000000, 96.463, 164.4512
60.000000, 96.356, 164.5678
60.799999, 96.322, 164.3927
61.500000, 96.294, 163.8114
62.200001, 96.214, 163.1149
63.000000, 96.088, 162.7686
64.000000, 96.025, 162.9740
65.000000, 96.065, 162.8509
66.000000, 96.072, 162.3343
67.000000, 96.031, 161.9264
68.000000, 95.965, 161.6699
69.000000, 95.892, 161.5993
70.000000, 95.838, 161.5099
71.000000, 95.778, 161.3659
72.000000, 95.741, 161.3118
73.000000, 95.734, 161.0266
74.000000, 95.696, 160.5522
75.000000, 95.634, 160.2315
76.199997, 95.561, 160.0662
77.500000, 95.520, 160.0245
78.800003, 95.500, 159.6453
80.000000, 95.430, 159.1696
81.199997, 95.335, 159.0448
82.500000, 95.270, 159.1046
83.800003, 95.221, 158.9629
85.000000, 95.154, 158.7325
86.199997, 95.085, 158.5328
87.500000, 95.014, 158.2552
88.500000, 94.961, 158.0842
90.000000, 94.906, 157.8819
91.199997, 94.867, 157.7514
92.500000, 94.839, 157.7386
93.800003, 94.821, 157.6002
95.000000, 94.773, 157.3804
96.199997, 94.698, 157.3009
97.500000, 94.615, 157.3338
98.800003, 94.540, 157.3555
100.000000, 94.484, 157.2585
101.500000, 94.404, 156.8004
103.000000, 94.292, 156.4491
104.400002, 94.233, 156.4817
106.000000, 94.227, 156.4548
107.500000, 94.194, 156.3910
109.000000, 94.119, 156.5363
110.599998, 94.023, 156.7642
112.000000, 93.956, 156.7446
113.800003, 93.869, 156.1922
115.000000, 93.810, 155.8949
117.199997, 93.751, 155.8944
118.000000, 93.750, 156.0609
120.599998, 93.724, 156.0983
122.000000, 93.647, 156.0924
124.099998, 93.535, 156.0662
125.000000, 93.489, 155.9904
126.500000, 93.392, 155.9837
128.000000, 93.304, 156.3151
131.500000, 93.220, 156.9241
132.000000, 93.219, 156.8811
134.000000, 93.209, 156.4166
136.000000, 93.137, 155.9553
138.000000, 93.035, 156.1905
140.000000, 92.951, 156.4108
143.000000, 92.814, 156.5477
145.000000, 92.814, 156.7110
147.500000, 92.767, 156.3123
150.000000, 92.664, 156.4367
152.500000, 92.548, 157.0106
155.000000, 92.585, 157.4232
157.500000, 92.570, 156.9012
160.000000, 92.431, 156.7225
162.500000, 92.362, 157.5271
165.000000, 92.406, 157.7128
167.500000, 92.348, 157.7953
170.000000, 92.318, 158.3287
172.500000, 92.217, 157.2782
175.000000, 92.050, 157.4482
177.500000, 92.080, 158.5150
180.000000, 92.091, 158.8054
182.500000, 91.897, 158.7185
185.000000, 91.678, 158.8867
187.500000, 91.595, 158.9128
190.000000, 91.596, 159.0395
192.500000, 91.612, 159.5744
195.000000, 91.596, 160.0963
197.500000, 91.520, 160.4851
200.000000, 91.425, 160.6145
203.000000, 91.322, 160.6430
206.000000, 91.249, 160.8539
209.000000, 91.174, 161.3018
212.000000, 91.114, 161.9991
214.000000, 91.087, 162.4490
218.000000, 91.107, 162.7496
220.000000, 91.156, 162.5265
224.000000, 91.211, 162.2802
227.000000, 91.174, 162.7060
230.000000, 91.098, 163.0082
233.000000, 91.036, 163.1911
236.000000, 90.984, 163.2693
240.000000, 90.895, 163.3504
243.000000, 90.844, 163.5661
247.000000, 90.785, 164.0565
250.000000, 90.748, 164.3817
254.000000, 90.658, 164.8231
258.000000, 90.517, 164.9061
262.000000, 90.481, 165.0529
265.000000, 90.479, 165.5902
269.000000, 90.370, 166.0335
272.000000, 90.339, 165.8454
276.000000, 90.384, 166.0828
280.000000, 90.333, 166.6262
285.000000, 90.255, 166.8967
290.000000, 90.262, 167.4717
295.000000, 90.158, 167.8215
300.000000, 90.058, 168.6860
304.000000, 90.068, 169.6429
307.000000, 90.110, 169.9723
311.000000, 90.132, 169.9512
315.000000, 90.127, 169.8924
320.000000, 90.084, 169.8716
325.000000, 89.971, 170.1661
330.000000, 89.889, 170.8008
335.000000, 89.863, 171.7338
340.000000, 89.835, 172.5399
345.000000, 89.791, 173.0599
350.000000, 89.743, 173.3916
355.000000, 89.720, 173.6907
360.000000, 89.704, 174.0995
365.000000, 89.673, 174.6311
370.000000, 89.630, 175.0353
375.000000, 89.595, 175.4220
382.000000, 89.548, 176.0860
387.000000, 89.522, 176.4843
395.000000, 89.485, 177.1788
400.000000, 89.451, 177.5739
406.000000, 89.428, 178.2303
412.000000, 89.402, 178.8584
418.000000, 89.371, 179.3410
425.000000, 89.340, 179.8510
431.000000, 89.322, -179.7859
437.000000, 89.303, -179.3223
444.000000, 89.280, -178.5107
450.000000, 89.243, -177.8566
455.000000, 89.221, -177.3982
462.000000, 89.207, -176.9265
468.000000, 89.194, -176.4358
475.000000, 89.177, -175.7937
482.000000, 89.166, -175.2554
487.000000, 89.148, -174.8685
494.000000, 89.123, -174.1040
500.000000, 89.140, -173.3385
508.000000, 89.218, -172.7367
515.000000, 89.202, -172.1126
522.000000, 89.130, -171.4833
530.000000, 89.075, -170.9657
538.000000, 89.041, -170.4048
545.000000, 89.048, -169.8676
552.000000, 89.069, -169.2430
560.000000, 89.088, -168.5172
570.000000, 89.094, -168.1698
580.000000, 89.031, -167.2766
590.000000, 89.047, -166.3108
600.000000, 89.099, -165.3012
608.000000, 89.090, -164.5769
615.000000, 89.094, -164.0938
622.000000, 89.100, -163.5661
630.000000, 89.090, -162.9629
640.000000, 89.080, -162.1391
650.000000, 89.093, -161.3477
660.000000, 89.095, -160.5839
670.000000, 89.117, -160.0581
680.000000, 89.098, -159.3942
690.000000, 89.079, -158.5035
700.000000, 89.161, -157.4939
710.000000, 89.203, -156.4577
720.000000, 89.219, -155.6262
730.000000, 89.236, -154.7914
740.000000, 89.259, -153.9767
750.000000, 89.294, -153.2054
762.000000, 89.344, -152.2634
775.000000, 89.374, -151.1669
788.000000, 89.406, -150.0392
800.000000, 89.465, -149.1295
812.000000, 89.528, -148.2430
825.000000, 89.592, -147.2697
838.000000, 89.646, -146.2218
850.000000, 89.701, -145.2790
862.000000, 89.763, -144.4099
875.000000, 89.847, -143.4986
885.000000, 89.919, -142.7897
900.000000, 90.018, -141.7566
912.000000, 90.092, -140.9247
925.000000, 90.177, -139.9588
938.000000, 90.273, -139.1235
950.000000, 90.365, -138.4079
962.000000, 90.454, -137.6699
975.000000, 90.545, -136.8682
988.000000, 90.640, -136.1595
1000.000000, 90.733, -135.5268
1015.000000, 90.850, -134.7230
1030.000000, 90.965, -134.0223
1044.000000, 91.071, -133.3925
1060.000000, 91.193, -132.6260
1075.000000, 91.310, -131.9731
1090.000000, 91.439, -131.4057
1106.000000, 91.585, -130.8539
1120.000000, 91.712, -130.3734
1138.000000, 91.868, -129.7593
1150.000000, 91.971, -129.3680
1172.000000, 92.160, -128.7571
1180.000000, 92.229, -128.5590
1206.000000, 92.449, -127.8482
1220.000000, 92.568, -127.4946
1241.000000, 92.749, -127.0172
1250.000000, 92.825, -126.8047
1265.000000, 92.950, -126.4718
1280.000000, 93.075, -126.1689
1315.000000, 93.360, -125.4812
1320.000000, 93.398, -125.3814
1340.000000, 93.544, -125.0124
1360.000000, 93.672, -124.6695
1380.000000, 93.801, -124.3488
1400.000000, 93.948, -124.0162
1430.000000, 94.162, -123.5554
1450.000000, 94.306, -123.2756
1475.000000, 94.490, -122.9568
1500.000000, 94.669, -122.6226
1525.000000, 94.841, -122.3487
1550.000000, 95.005, -122.0454
1575.000000, 95.171, -121.7863
1600.000000, 95.348, -121.6123
1625.000000, 95.520, -121.4374
1650.000000, 95.682, -121.2626
1675.000000, 95.845, -121.1257
1700.000000, 96.015, -121.0397
1725.000000, 96.188, -121.0244
1750.000000, 96.354, -121.0039
1775.000000, 96.513, -121.0315
1800.000000, 96.674, -121.1010
1825.000000, 96.837, -121.2236
1850.000000, 96.998, -121.3861
1875.000000, 97.155, -121.6031
1900.000000, 97.307, -121.8582
1925.000000, 97.453, -122.1559
1950.000000, 97.597, -122.4938
1975.000000, 97.743, -122.9148
2000.000000, 97.886, -123.4032
2030.000000, 98.041, -124.0156
2060.000000, 98.183, -124.7114
2090.000000, 98.319, -125.4774
2120.000000, 98.443, -126.3301
2140.000000, 98.518, -126.9534
2180.000000, 98.636, -128.2243
2200.000000, 98.678, -128.9082
2240.000000, 98.724, -130.3438
2270.000000, 98.716, -131.4027
2300.000000, 98.660, -132.2920
2330.000000, 98.570, -132.7588
2360.000000, 98.502, -132.7193
2400.000000, 98.529, -132.4075
2430.000000, 98.619, -132.4957
2470.000000, 98.742, -133.2261
2500.000000, 98.795, -134.0143
2540.000000, 98.809, -135.1094
2580.000000, 98.782, -136.1538
2620.000000, 98.735, -137.1015
2650.000000, 98.685, -137.7360
2690.000000, 98.601, -138.4476
2720.000000, 98.528, -138.9376
2760.000000, 98.422, -139.4858
2800.000000, 98.312, -139.9342
2850.000000, 98.169, -140.3797
2900.000000, 98.018, -140.6787
2950.000000, 97.866, -140.8517
3000.000000, 97.714, -140.9132
3040.000000, 97.597, -140.8939
3070.000000, 97.513, -140.8578
3110.000000, 97.400, -140.7571
3150.000000, 97.281, -140.5801
3200.000000, 97.138, -140.3146
3250.000000, 97.006, -140.0163
3300.000000, 96.877, -139.6340
3350.000000, 96.750, -139.2220
3400.000000, 96.630, -138.7628
3450.000000, 96.519, -138.2722
3500.000000, 96.422, -137.7749
3550.000000, 96.337, -137.2786
3600.000000, 96.253, -136.8851
3650.000000, 96.147, -136.6122
3700.000000, 95.981, -136.1963
3750.000000, 95.826, -134.8670
3820.000000, 95.833, -133.3213
3870.000000, 95.828, -132.9771
3950.000000, 95.730, -132.5154
4000.000000, 95.655, -132.1728
4060.000000, 95.560, -131.7464
4120.000000, 95.453, -131.2705
4180.000000, 95.342, -130.7969
4250.000000, 95.207, -130.2454
4310.000000, 95.082, -129.7407
4370.000000, 94.944, -129.2471
4440.000000, 94.771, -128.6442
4500.000000, 94.615, -128.1553
4550.000000, 94.478, -127.7083
4620.000000, 94.274, -127.0789
4680.000000, 94.087, -126.4689
4750.000000, 93.861, -125.6887
4820.000000, 93.630, -124.8184
4870.000000, 93.459, -124.1408
4940.000000, 93.217, -123.0935
5000.000000, 93.013, -122.1350
5080.000000, 92.739, -120.7400
5150.000000, 92.496, -119.4287
5220.000000, 92.258, -117.9982
5300.000000, 91.987, -116.2733
5380.000000, 91.717, -114.3835
5450.000000, 91.490, -112.6399
5520.000000, 91.278, -110.7822
5600.000000, 91.059, -108.4906
5700.000000, 90.835, -105.5493
5800.000000, 90.648, -102.9113
5900.000000, 90.432, -100.5185
6000.000000, 90.166, -98.0084
6080.000000, 89.932, -95.6654
6150.000000, 89.733, -93.3857
6220.000000, 89.554, -90.9443
6300.000000, 89.370, -87.8641
6400.000000, 89.189, -83.7494
6500.000000, 89.086, -79.4141
6600.000000, 89.060, -74.9776
6700.000000, 89.108, -70.5352
6800.000000, 89.245, -66.1676
6900.000000, 89.488, -61.9538
7000.000000, 89.832, -57.9614
7100.000000, 90.265, -54.2971
7200.000000, 90.783, -51.0750
7300.000000, 91.390, -48.3729
7400.000000, 92.075, -46.4307
7500.000000, 92.825, -45.4244
7620.000000, 93.807, -45.9078
7750.000000, 94.867, -48.9884
7880.000000, 95.637, -55.0077
8000.000000, 95.911, -62.6458
8120.000000, 95.657, -70.9295
8250.000000, 94.808, -78.7669
8380.000000, 93.548, -83.9909
8500.000000, 92.233, -86.2424
8620.000000, 90.912, -86.2791
8750.000000, 89.540, -84.5036
8850.000000, 88.557, -82.1659
9000.000000, 87.225, -77.6034
9120.000000, 86.275, -73.2486
9250.000000, 85.345, -68.0516
9380.000000, 84.508, -62.4015
9500.000000, 83.816, -56.9366
9620.000000, 83.200, -51.2294
9750.000000, 82.611, -44.8473
9880.000000, 82.100, -38.3513
10000.000000, 81.701, -32.1906
10150.000000, 81.295, -24.4002
10300.000000, 80.986, -16.6868
10440.000000, 80.765, -9.6640
10600.000000, 80.576, -1.7312
10750.000000, 80.463, 5.7989
10900.000000, 80.433, 13.2514
11060.000000, 80.492, 21.0542
11200.000000, 80.618, 27.7279
11380.000000, 80.883, 35.9579
11500.000000, 81.118, 41.2024
11720.000000, 81.668, 50.1865
11800.000000, 81.904, 53.2340
12060.000000, 82.797, 61.8929
12200.000000, 83.333, 65.6858
12410.000000, 84.167, 69.9616
12500.000000, 84.522, 71.2192
12650.000000, 85.083, 72.5673
12800.000000, 85.567, 72.9753
13150.000000, 86.222, 71.2002
13200.000000, 86.248, 70.7974
13400.000000, 86.175, 69.2248
13600.000000, 85.864, 68.3444
13800.000000, 85.420, 68.5021
