* Measurement data measured by REW V5.20.13
* Source: Headset (DS by VECLAN.COM), MICROPHONE (Master Volume), L, volume: 0.800. Timing signal peak level -12.1 dBFS, measurement signal peak level -10.3 dBFS
* Format: 2M Log Swept Sine, 1 sweep at -12.0 dBFS using an acoustic timing reference
* Dated: Oct 15, 2023 2:19:16 PM
* REW Settings:
*  C-weighting compensation: Off
*  Target level: 75.0 dB
* Note: ; Delay -0.0644 ms (-22 mm, -0.87 in) using estimated IR delay relative to Acoustic reference played from HEADPHONE R with no timing offset
* Measurement: TangZu Fudu R
* Smoothing: 1/24 octave
* Frequency Step: 1/48 octave
* Start Frequency: 1.000 Hz
*
* Freq(Hz) SPL(dB) Phase(degrees)
1.000000 68.080 23.2345
1.015000 68.809 20.3716
1.030000 69.509 17.6047
1.044000 70.129 15.1197
1.060000 70.794 12.4086
1.075000 71.366 10.0047
1.090000 71.883 7.7471
1.106000 72.372 5.5062
1.120000 72.776 3.6471
1.138000 73.270 1.3780
1.150000 73.585 -0.0628
1.172000 74.136 -2.5637
1.180000 74.327 -3.4303
1.206000 74.921 -6.1007
1.220000 75.223 -7.4523
1.241000 75.656 -9.3766
1.250000 75.835 -10.1663
1.265000 76.123 -11.4393
1.280000 76.401 -12.6626
1.315000 77.016 -15.3497
1.320000 77.101 -15.7170
1.340000 77.431 -17.1518
1.360000 77.751 -18.5397
1.380000 78.062 -19.8918
1.400000 78.368 -21.2193
1.430000 78.821 -23.1884
1.450000 79.121 -24.5027
1.475000 79.496 -26.1536
1.500000 79.851 -27.7143
1.525000 80.184 -29.1678
1.550000 80.496 -30.5247
1.575000 80.790 -31.7954
1.600000 81.067 -32.9902
1.625000 81.330 -34.1197
1.650000 81.580 -35.1944
1.675000 81.820 -36.2245
1.700000 82.052 -37.2206
1.725000 82.278 -38.1931
1.750000 82.500 -39.1524
1.775000 82.720 -40.1090
1.800000 82.940 -41.0734
1.825000 83.162 -42.0559
1.850000 83.384 -43.0478
1.875000 83.599 -44.0101
1.900000 83.808 -44.9437
1.925000 84.010 -45.8514
1.950000 84.206 -46.7361
1.975000 84.397 -47.6006
2.000000 84.583 -48.4478
2.030000 84.800 -49.4454
2.060000 85.011 -50.4269
2.090000 85.217 -51.3973
2.120000 85.420 -52.3614
2.140000 85.552 -53.0031
2.180000 85.814 -54.2903
2.200000 85.944 -54.9386
2.240000 86.198 -56.2285
2.270000 86.383 -57.1842
2.300000 86.563 -58.1306
2.330000 86.738 -59.0680
2.360000 86.909 -59.9969
2.400000 87.130 -61.2228
2.430000 87.291 -62.1334
2.470000 87.499 -63.3367
2.500000 87.650 -64.2315
2.540000 87.846 -65.4152
2.580000 88.036 -66.5893
2.620000 88.217 -67.7545
2.650000 88.348 -68.6219
2.690000 88.515 -69.7686
2.720000 88.636 -70.6206
2.760000 88.792 -71.7447
2.800000 88.941 -72.8539
2.850000 89.118 -74.2174
2.900000 89.287 -75.5529
2.950000 89.448 -76.8585
3.000000 89.598 -78.1398
3.040000 89.711 -79.1476
3.070000 89.792 -79.8929
3.110000 89.895 -80.8717
3.150000 89.992 -81.8328
3.200000 90.106 -83.0080
3.250000 90.214 -84.1525
3.300000 90.315 -85.2649
3.350000 90.408 -86.3537
3.400000 90.492 -87.4216
3.450000 90.568 -88.4620
3.500000 90.637 -89.4685
3.550000 90.700 -90.4347
3.600000 90.759 -91.3540
3.650000 90.814 -92.2200
3.700000 90.865 -93.0305
3.750000 90.909 -93.7931
3.820000 90.961 -94.7829
3.870000 90.993 -95.4362
3.950000 91.039 -96.3917
4.000000 91.068 -96.9346
4.060000 91.103 -97.5315
4.120000 91.133 -98.0624
4.180000 91.160 -98.5301
4.250000 91.191 -99.0011
4.310000 91.220 -99.3456
4.370000 91.255 -99.6399
4.440000 91.303 -99.9123
4.500000 91.346 -100.0637
4.550000 91.385 -100.1445
4.620000 91.444 -100.2112
4.680000 91.501 -100.2469
4.750000 91.578 -100.2910
4.820000 91.666 -100.3315
4.870000 91.735 -100.3353
4.940000 91.839 -100.3238
5.000000 91.935 -100.3158
5.080000 92.070 -100.3369
5.150000 92.195 -100.4088
5.220000 92.328 -100.5042
5.300000 92.491 -100.6408
5.380000 92.659 -100.8249
5.450000 92.806 -101.0398
5.520000 92.952 -101.3171
5.600000 93.121 -101.7047
5.700000 93.335 -102.2807
5.800000 93.544 -102.9444
5.900000 93.742 -103.6856
6.000000 93.931 -104.5271
6.080000 94.077 -105.2562
6.150000 94.198 -105.9186
6.220000 94.313 -106.5905
6.300000 94.435 -107.3783
6.400000 94.576 -108.4088
6.500000 94.704 -109.4576
6.600000 94.821 -110.4895
6.700000 94.924 -111.5148
6.800000 95.014 -112.5374
6.900000 95.095 -113.5306
7.000000 95.167 -114.4717
7.100000 95.229 -115.3741
7.200000 95.283 -116.2358
7.300000 95.334 -117.0484
7.400000 95.381 -117.8048
7.500000 95.423 -118.5084
7.620000 95.471 -119.2936
7.750000 95.526 -120.0801
7.880000 95.582 -120.7874
8.000000 95.635 -121.3978
8.120000 95.693 -121.9914
8.250000 95.761 -122.5980
8.380000 95.833 -123.1953
8.500000 95.902 -123.7612
8.620000 95.974 -124.3297
8.750000 96.052 -124.9599
8.850000 96.111 -125.4633
9.000000 96.200 -126.2446
9.120000 96.268 -126.8836
9.250000 96.338 -127.5872
9.380000 96.404 -128.3051
9.500000 96.460 -128.9650
9.620000 96.508 -129.6162
9.750000 96.554 -130.3173
9.880000 96.590 -130.9986
10.000000 96.614 -131.6051
10.150000 96.631 -132.3371
10.300000 96.642 -133.0290
10.440000 96.643 -133.6336
10.600000 96.642 -134.2930
10.750000 96.644 -134.8871
10.900000 96.647 -135.4595
11.060000 96.653 -136.0718
11.200000 96.660 -136.6082
11.380000 96.668 -137.2911
11.500000 96.672 -137.7445
11.720000 96.677 -138.5551
11.800000 96.678 -138.8385
12.060000 96.682 -139.7184
12.200000 96.685 -140.1547
12.410000 96.693 -140.7629
12.500000 96.699 -141.0069
12.650000 96.711 -141.3858
12.800000 96.727 -141.7537
13.150000 96.787 -142.6170
13.200000 96.797 -142.7517
13.400000 96.845 -143.3204
13.600000 96.894 -143.9568
13.800000 96.942 -144.6749
14.000000 96.978 -145.4442
14.300000 97.008 -146.6609
14.500000 97.007 -147.4483
14.750000 96.991 -148.3330
15.000000 96.963 -149.0746
15.250000 96.939 -149.6497
15.500000 96.927 -150.1028
15.750000 96.932 -150.4714
16.000000 96.955 -150.8312
16.250000 96.989 -151.2361
16.500000 97.030 -151.7006
16.750000 97.071 -152.2272
17.000000 97.108 -152.7777
17.250000 97.143 -153.3352
17.500000 97.178 -153.8782
17.750000 97.215 -154.4193
18.000000 97.254 -154.9791
18.250000 97.295 -155.5820
18.500000 97.332 -156.2462
18.750000 97.359 -156.9521
19.000000 97.374 -157.6805
19.250000 97.372 -158.3681
19.500000 97.360 -158.9745
19.750000 97.341 -159.4701
20.000000 97.325 -159.8436
20.299999 97.318 -160.1841
20.600000 97.330 -160.4753
20.900000 97.357 -160.7949
21.200001 97.391 -161.1934
21.400000 97.410 -161.4968
21.799999 97.437 -162.1409
22.000000 97.446 -162.4537
22.400000 97.457 -163.0187
22.700001 97.468 -163.4034
23.000000 97.484 -163.7985
23.299999 97.501 -164.2429
23.600000 97.512 -164.7403
24.000000 97.509 -165.4414
24.299999 97.492 -165.9289
24.700001 97.458 -166.4520
25.000000 97.436 -166.7383
25.400000 97.423 -167.0291
25.799999 97.436 -167.3267
26.200001 97.470 -167.7388
26.500000 97.502 -168.1613
26.900000 97.544 -168.8918
27.200001 97.567 -169.5579
27.600000 97.575 -170.5672
28.000000 97.547 -171.6189
28.500000 97.459 -172.7541
29.000000 97.342 -173.4112
29.500000 97.255 -173.5343
30.000000 97.250 -173.4150
30.400000 97.302 -173.4413
30.700001 97.360 -173.6361
31.100000 97.434 -174.1480
31.500000 97.483 -174.8650
32.000000 97.495 -175.8281
32.500000 97.460 -176.6271
33.000000 97.409 -177.1414
33.500000 97.371 -177.4279
34.000000 97.359 -177.6618
34.500000 97.361 -178.0023
35.000000 97.356 -178.4723
35.500000 97.330 -178.9660
36.000000 97.290 -179.3690
36.500000 97.254 -179.6681
37.000000 97.234 -179.9456
37.500000 97.226 179.7149
38.200001 97.218 179.1046
38.700001 97.206 178.6209
39.500000 97.176 177.8789
40.000000 97.155 177.4678
40.599998 97.131 177.0370
41.200001 97.113 176.6635
41.799999 97.101 176.3064
42.500000 97.086 175.8303
43.099998 97.052 175.3860
43.700001 96.991 175.0836
44.400002 96.922 175.0898
45.000000 96.912 175.2516
45.500000 96.941 175.2320
46.200001 96.992 174.7642
46.799999 97.001 174.0912
47.500000 96.970 173.3383
48.200001 96.930 172.7492
48.700001 96.908 172.3791
49.400002 96.884 171.8748
50.000000 96.868 171.4677
50.799999 96.853 170.9308
51.500000 96.832 170.4243
52.200001 96.788 170.0059
53.000000 96.733 169.7861
53.799999 96.704 169.6715
54.500000 96.688 169.5207
55.200001 96.676 169.3472
56.000000 96.678 169.0305
57.000000 96.665 168.3190
58.000000 96.608 167.6196
59.000000 96.559 167.1086
60.000000 96.530 166.5065
60.799999 96.486 165.9615
61.500000 96.431 165.6135
62.200001 96.382 165.4040
63.000000 96.337 165.1845
64.000000 96.278 164.9315
65.000000 96.238 164.7602
66.000000 96.223 164.3888
67.000000 96.190 163.7437
68.000000 96.110 163.1455
69.000000 96.030 162.8999
70.000000 95.999 162.7534
71.000000 95.980 162.4698
72.000000 95.959 162.1731
73.000000 95.930 161.7981
74.000000 95.871 161.4610
75.000000 95.811 161.2654
76.199997 95.748 160.9834
77.500000 95.675 160.6545
78.800003 95.609 160.3673
80.000000 95.572 160.1651
81.199997 95.559 159.8528
82.500000 95.527 159.3839
83.800003 95.468 159.0320
85.000000 95.415 158.7858
86.199997 95.366 158.4852
87.500000 95.309 158.0213
88.500000 95.245 157.6249
90.000000 95.142 157.3819
91.199997 95.103 157.3154
92.500000 95.071 157.1416
93.800003 95.026 156.9676
95.000000 94.975 156.8497
96.199997 94.926 156.7435
97.500000 94.878 156.4843
98.800003 94.811 156.2069
100.000000 94.765 156.1119
101.500000 94.734 155.8817
103.000000 94.671 155.6790
104.400002 94.606 155.5885
106.000000 94.507 155.4267
107.500000 94.406 155.3262
109.000000 94.319 155.2040
110.599998 94.247 155.0385
112.000000 94.187 154.8928
113.800003 94.115 154.7315
115.000000 94.057 154.5411
117.199997 93.946 154.2156
118.000000 93.919 154.0634
120.599998 93.868 153.3927
122.000000 93.821 153.1120
124.099998 93.733 153.2960
125.000000 93.704 153.4852
126.500000 93.672 153.6748
128.000000 93.631 153.5112
131.500000 93.442 153.0029
132.000000 93.423 153.0106
134.000000 93.391 153.0363
136.000000 93.365 152.8969
138.000000 93.294 152.8521
140.000000 93.219 152.9270
143.000000 93.124 152.8497
145.000000 93.070 152.6864
147.500000 92.971 152.5370
150.000000 92.893 152.5939
152.500000 92.822 152.4435
155.000000 92.800 152.6275
157.500000 92.734 152.8842
160.000000 92.662 153.2636
162.500000 92.658 152.9278
165.000000 92.608 152.3801
167.500000 92.502 152.7657
170.000000 92.418 152.9940
172.500000 92.345 152.9320
175.000000 92.336 153.6911
177.500000 92.349 154.7449
180.000000 92.239 154.7164
182.500000 92.056 153.9675
185.000000 91.981 153.4660
187.500000 91.956 153.4301
190.000000 91.899 153.5230
192.500000 91.803 153.2456
195.000000 91.688 152.9231
197.500000 91.576 152.8588
200.000000 91.497 152.9580
203.000000 91.470 153.0694
206.000000 91.443 153.2639
209.000000 91.386 153.4508
212.000000 91.354 153.5032
214.000000 91.353 153.5597
218.000000 91.355 153.5800
220.000000 91.350 153.5096
224.000000 91.439 153.9992
227.000000 91.438 154.0242
230.000000 91.145 153.5439
233.000000 90.799 153.6524
236.000000 90.689 154.3837
240.000000 90.681 155.0803
243.000000 90.607 155.6785
247.000000 90.574 156.6162
250.000000 90.557 156.6516
254.000000 90.425 156.3341
258.000000 90.308 156.1064
262.000000 90.294 155.7557
265.000000 90.305 155.7664
269.000000 90.260 156.5563
272.000000 90.197 157.1076
276.000000 90.165 156.8979
280.000000 90.151 156.2043
285.000000 90.029 156.5123
290.000000 89.955 157.7930
295.000000 89.894 158.6467
300.000000 89.835 159.2073
304.000000 89.771 159.6396
307.000000 89.691 159.9286
311.000000 89.596 160.2606
315.000000 89.555 160.5434
320.000000 89.532 160.7603
325.000000 89.499 160.8470
330.000000 89.446 161.1635
335.000000 89.388 161.5051
340.000000 89.338 161.8535
345.000000 89.343 162.3294
350.000000 89.336 162.8111
355.000000 89.306 163.1528
360.000000 89.253 163.1403
365.000000 89.214 163.1142
370.000000 89.112 163.3114
375.000000 88.994 163.7623
382.000000 88.978 164.5731
387.000000 88.960 165.0690
395.000000 88.902 165.9383
400.000000 88.911 166.5370
406.000000 88.927 167.2285
412.000000 88.925 167.8320
418.000000 88.816 167.9138
425.000000 88.656 167.9027
431.000000 88.619 168.2941
437.000000 88.584 168.5738
444.000000 88.429 169.1615
450.000000 88.344 169.8418
455.000000 88.361 170.2057
462.000000 88.405 170.9905
468.000000 88.418 171.6020
475.000000 88.392 172.1631
482.000000 88.357 172.5461
487.000000 88.345 172.8354
494.000000 88.346 173.3514
500.000000 88.349 173.6640
508.000000 88.281 174.0062
515.000000 88.191 174.5866
522.000000 88.150 175.2167
530.000000 88.174 175.7375
538.000000 88.200 176.6074
545.000000 88.160 177.4380
552.000000 88.143 177.8317
560.000000 88.142 178.3627
570.000000 88.098 179.0648
580.000000 88.072 179.8071
590.000000 88.098 -179.3654
600.000000 88.115 -178.6721
608.000000 88.108 -178.0488
615.000000 88.103 -177.3057
622.000000 88.130 -176.4879
630.000000 88.188 -175.9234
640.000000 88.206 -175.3372
650.000000 88.125 -174.6985
660.000000 88.156 -173.8055
670.000000 88.246 -172.7429
680.000000 88.222 -171.8347
690.000000 88.209 -171.1245
700.000000 88.204 -170.4174
710.000000 88.239 -169.8540
720.000000 88.293 -169.6337
730.000000 88.315 -169.2281
740.000000 88.356 -168.4900
750.000000 88.390 -167.6672
762.000000 88.411 -166.8167
775.000000 88.461 -166.2071
788.000000 88.491 -165.3988
800.000000 88.535 -164.5126
812.000000 88.598 -163.7765
825.000000 88.671 -162.9539
838.000000 88.757 -162.1406
850.000000 88.845 -161.4476
862.000000 88.926 -160.8325
875.000000 89.009 -160.1089
885.000000 89.074 -159.5240
900.000000 89.178 -158.7619
912.000000 89.257 -158.2473
925.000000 89.348 -157.7077
938.000000 89.450 -157.1245
950.000000 89.546 -156.6284
962.000000 89.636 -156.2435
975.000000 89.735 -155.8741
988.000000 89.840 -155.6538
1000.000000 89.913 -155.5231
1015.000000 90.024 -155.2103
1030.000000 90.150 -154.5609
1044.000000 90.237 -154.0200
1060.000000 90.324 -153.6328
1075.000000 90.411 -153.2464
1090.000000 90.515 -152.9036
1106.000000 90.635 -152.5967
1120.000000 90.740 -152.3389
1138.000000 90.898 -151.9833
1150.000000 91.007 -151.7585
1172.000000 91.205 -151.4864
1180.000000 91.274 -151.4305
1206.000000 91.501 -151.1907
1220.000000 91.622 -151.0650
1241.000000 91.800 -150.9367
1250.000000 91.877 -150.9254
1265.000000 92.008 -150.9678
1280.000000 92.142 -151.0062
1315.000000 92.447 -151.0368
1320.000000 92.489 -151.0566
1340.000000 92.648 -151.1831
1360.000000 92.790 -151.3658
1380.000000 92.919 -151.5752
1400.000000 93.053 -151.7889
1430.000000 93.260 -152.2410
1450.000000 93.396 -152.5721
1475.000000 93.560 -152.9546
1500.000000 93.718 -153.3386
1525.000000 93.871 -153.8904
1550.000000 94.017 -154.5226
1575.000000 94.148 -155.1052
1600.000000 94.268 -155.7410
1625.000000 94.377 -156.3948
1650.000000 94.478 -157.0727
1675.000000 94.576 -157.8034
1700.000000 94.665 -158.5266
1725.000000 94.746 -159.2775
1750.000000 94.817 -160.0423
1775.000000 94.872 -160.7832
1800.000000 94.917 -161.5390
1825.000000 94.954 -162.3076
1850.000000 94.979 -163.0492
1875.000000 94.994 -163.7748
1900.000000 95.000 -164.4878
1925.000000 95.000 -165.1724
1950.000000 94.993 -165.8366
1975.000000 94.978 -166.4646
2000.000000 94.955 -167.0559
2030.000000 94.918 -167.7132
2060.000000 94.877 -168.3131
2090.000000 94.834 -168.8617
2120.000000 94.784 -169.3388
2140.000000 94.748 -169.6194
2180.000000 94.669 -170.0909
2200.000000 94.630 -170.2844
2240.000000 94.555 -170.6091
2270.000000 94.496 -170.7766
2300.000000 94.429 -170.8641
2330.000000 94.361 -170.9043
2360.000000 94.295 -170.8932
2400.000000 94.209 -170.7959
2430.000000 94.148 -170.6697
2470.000000 94.069 -170.4244
2500.000000 94.016 -170.1945
2540.000000 93.956 -169.8444
2580.000000 93.905 -169.4218
2620.000000 93.863 -168.9463
2650.000000 93.841 -168.5713
2690.000000 93.818 -168.0257
2720.000000 93.806 -167.5907
2760.000000 93.799 -167.0021
2800.000000 93.800 -166.3833
2850.000000 93.818 -165.5827
2900.000000 93.860 -164.7939
2950.000000 93.912 -163.9874
3000.000000 93.985 -163.2119
3040.000000 94.060 -162.6243
3070.000000 94.125 -162.2011
3110.000000 94.223 -161.6871
3150.000000 94.329 -161.2264
3200.000000 94.461 -160.6974
3250.000000 94.611 -160.2794
3300.000000 94.786 -159.9876
3350.000000 94.980 -159.8192
3400.000000 95.194 -159.8253
3450.000000 95.422 -160.0000
3500.000000 95.664 -160.3834
3550.000000 95.915 -161.0122
3600.000000 96.160 -161.8904
3650.000000 96.388 -163.0378
3700.000000 96.604 -164.4867
3750.000000 96.798 -166.2388
3820.000000 97.009 -169.1802
3870.000000 97.098 -171.6035
3950.000000 97.103 -175.8768
4000.000000 97.023 -178.6906
4060.000000 96.834 177.9720
4120.000000 96.528 174.8920
4180.000000 96.113 172.2468
4250.000000 95.522 169.9091
4310.000000 94.953 168.6761
4370.000000 94.352 168.2249
4440.000000 93.637 168.7551
4500.000000 93.045 170.1254
4550.000000 92.598 171.8636
4620.000000 92.101 175.0385
4680.000000 91.828 178.1982
4750.000000 91.712 -178.1292
4820.000000 91.786 -175.1163
4870.000000 91.908 -173.6696
4940.000000 92.095 -172.8005
5000.000000 92.206 -172.9974
5080.000000 92.206 -174.0151
5150.000000 92.055 -175.0186
5220.000000 91.784 -175.6710
5300.000000 91.376 -175.6899
5380.000000 90.947 -174.9222
5450.000000 90.601 -173.7661
5520.000000 90.286 -172.3769
5600.000000 89.948 -170.6241
5700.000000 89.543 -168.0152
5800.000000 89.180 -164.8449
5900.000000 88.884 -161.2213
6000.000000 88.661 -157.2679
6080.000000 88.542 -153.9520
6150.000000 88.483 -150.9815
6220.000000 88.469 -147.9880
6300.000000 88.508 -144.5968
6400.000000 88.634 -140.4975
6500.000000 88.833 -136.6424
6600.000000 89.091 -133.0986
6700.000000 89.406 -129.8935
6800.000000 89.774 -127.0021
6900.000000 90.206 -124.4024
7000.000000 90.700 -122.0858
7100.000000 91.244 -120.0877
7200.000000 91.837 -118.4758
7300.000000 92.494 -117.3795
7400.000000 93.212 -116.9405
7500.000000 93.981 -117.3397
7620.000000 94.950 -119.2456
7750.000000 95.955 -123.5306
7880.000000 96.683 -130.4566
8000.000000 96.963 -138.8503
8120.000000 96.776 -147.9825
8250.000000 96.053 -156.8740
8380.000000 94.924 -163.2764
8500.000000 93.692 -166.6149
8620.000000 92.425 -167.7855
8750.000000 91.111 -167.1600
8850.000000 90.169 -165.6725
9000.000000 88.887 -162.2689
9120.000000 87.976 -158.8070
9250.000000 87.102 -154.5365
9380.000000 86.349 -149.8916
9500.000000 85.751 -145.3826
9620.000000 85.242 -140.7661
9750.000000 84.788 -135.7339
9880.000000 84.422 -130.7213
10000.000000 84.148 -126.1441
10150.000000 83.882 -120.5402
10300.000000 83.697 -115.1361
10440.000000 83.591 -110.3542
10600.000000 83.546 -105.3061
10750.000000 83.560 -101.0712
10900.000000 83.603 -97.3862
11060.000000 83.650 -94.0914
11200.000000 83.663 -91.7031
11380.000000 83.613 -89.1426
11500.000000 83.526 -87.5977
11720.000000 83.233 -84.6313
11800.000000 83.089 -83.4065
12060.000000 82.558 -78.6879
12200.000000 82.256 -75.6692
12410.000000 81.819 -70.4883
12500.000000 81.651 -68.0291
12650.000000 81.410 -63.6396
12800.000000 81.237 -58.9412
13150.000000 81.204 -47.3458
13200.000000 81.252 -45.7035
13400.000000 81.585 -39.5129
13600.000000 82.144 -34.3388
13800.000000 82.932 -30.7841
14000.000000 83.888 -29.9176
14300.000000 85.069 -36.1574
14500.000000 85.178 -44.6784
14750.000000 84.243 -55.1830
15000.000000 82.395 -60.4332
15250.000000 80.224 -59.4622
15500.000000 78.240 -54.0301
15750.000000 76.660 -45.9340
16000.000000 75.473 -36.3701
16250.000000 74.662 -26.1497
16500.000000 74.211 -15.9223
16750.000000 74.098 -6.3240
17000.000000 74.285 1.9099
17250.000000 74.696 7.9076
17500.000000 75.172 10.8662
17750.000000 75.440 10.7299
18000.000000 75.255 8.8911
18250.000000 74.566 7.8045
18500.000000 73.587 9.8507
18750.000000 72.886 16.2132
19000.000000 73.068 24.3258
19250.000000 73.756 30.0228
19500.000000 74.250 30.9096
19750.000000 73.846 27.5947
20000.000000 72.308 25.9065
20300.000000 69.510 29.3483
20600.000000 66.322 36.0941
20900.000000 62.803 43.0073
21200.000000 58.696 44.4625
21400.000000 55.520 25.4435
21800.000000 47.963 32.3793
22000.000000 43.567 65.3850
22400.000000 33.564 158.5723
22700.000000 25.113 -137.4766
23000.000000 16.628 -170.5137
23300.000000 11.276 170.2812
23600.000000 9.912 -139.9375
24000.000000 9.203 125.1758
