* Measurement data measured by REW V5.20.13
* Source: Headset (DS by VECLAN.COM), MICROPHONE (Master Volume), L, volume: 0.970. Timing signal peak level -14.6 dBFS, measurement signal peak level -10.8 dBFS
* Format: 2M Log Swept Sine, 1 sweep at -12.0 dBFS using an acoustic timing reference
* Dated: Oct 14, 2023 2:48:05 PM
* REW Settings:
*  C-weighting compensation: Off
*  Target level: 75.0 dB
* Note: ; Delay -0.0738 ms (-25 mm, -1 in) using estimated IR delay relative to Acoustic reference played from HEADPHONE R with no timing offset
* Measurement: Thieaudio Hype 2 R
* Smoothing: 1/24 octave
* Frequency Step: 1/48 octave
* Start Frequency: 1.000 Hz
*
* Freq(Hz) SPL(dB) Phase(degrees)
1.000000 92.339 -167.8968
1.015000 92.562 -168.6137
1.030000 92.777 -169.3210
1.044000 92.970 -169.9712
1.060000 93.181 -170.7006
1.075000 93.367 -171.3694
1.090000 93.543 -172.0218
1.106000 93.717 -172.6985
1.120000 93.862 -173.2777
1.138000 94.039 -174.0071
1.150000 94.152 -174.4846
1.172000 94.347 -175.3438
1.180000 94.415 -175.6516
1.206000 94.622 -176.6371
1.220000 94.726 -177.1599
1.241000 94.873 -177.9359
1.250000 94.933 -178.2661
1.265000 95.028 -178.8142
1.280000 95.118 -179.3603
1.315000 95.309 179.3674
1.320000 95.335 179.1853
1.340000 95.431 178.4545
1.360000 95.521 177.7179
1.380000 95.603 176.9731
1.400000 95.680 176.2177
1.430000 95.784 175.0591
1.450000 95.847 174.2662
1.475000 95.919 173.2482
1.500000 95.973 172.2032
1.525000 96.010 171.1354
1.550000 96.032 170.0489
1.575000 96.039 168.9473
1.600000 96.035 167.8344
1.625000 96.020 166.7140
1.650000 95.997 165.5899
1.675000 95.968 164.4659
1.700000 95.934 163.3457
1.725000 95.897 162.2332
1.750000 95.859 161.1320
1.775000 95.822 160.0461
1.800000 95.788 158.9792
1.825000 95.758 157.9350
1.850000 95.731 156.9147
1.875000 95.699 155.9127
1.900000 95.662 154.9265
1.925000 95.622 153.9539
1.950000 95.579 152.9928
1.975000 95.533 152.0410
2.000000 95.486 151.0963
2.030000 95.429 149.9688
2.060000 95.372 148.8447
2.090000 95.317 147.7200
2.120000 95.264 146.5911
2.140000 95.232 145.8342
2.180000 95.174 144.3053
2.200000 95.149 143.5309
2.240000 95.107 141.9654
2.270000 95.080 140.7805
2.300000 95.057 139.5892
2.330000 95.036 138.3938
2.360000 95.017 137.1969
2.400000 94.994 135.6028
2.430000 94.978 134.4119
2.470000 94.955 132.8348
2.500000 94.936 131.6633
2.540000 94.909 130.1210
2.580000 94.876 128.6047
2.620000 94.839 127.1029
2.650000 94.810 125.9843
2.690000 94.770 124.5041
2.720000 94.739 123.4027
2.760000 94.697 121.9469
2.800000 94.656 120.5065
2.850000 94.608 118.7288
2.900000 94.564 116.9785
2.950000 94.526 115.2568
3.000000 94.491 113.5606
3.040000 94.465 112.2217
3.070000 94.448 111.2283
3.110000 94.425 109.9182
3.150000 94.405 108.6250
3.200000 94.382 107.0328
3.250000 94.362 105.4680
3.300000 94.346 103.9313
3.350000 94.332 102.4193
3.400000 94.322 100.9311
3.450000 94.314 99.4692
3.500000 94.310 98.0361
3.550000 94.308 96.6341
3.600000 94.311 95.2658
3.650000 94.316 93.9336
3.700000 94.326 92.6421
3.750000 94.338 91.3943
3.820000 94.361 89.7092
3.870000 94.381 88.5408
3.950000 94.422 86.7145
4.000000 94.452 85.5899
4.060000 94.495 84.2505
4.120000 94.545 82.9353
4.180000 94.601 81.6456
4.250000 94.673 80.1717
4.310000 94.738 78.9335
4.370000 94.805 77.7172
4.440000 94.884 76.3282
4.500000 94.955 75.1696
4.550000 95.017 74.2228
4.620000 95.106 72.9193
4.680000 95.183 71.8158
4.750000 95.273 70.5364
4.820000 95.364 69.2610
4.870000 95.431 68.3559
4.940000 95.526 67.1008
5.000000 95.606 66.0396
5.080000 95.711 64.6511
5.150000 95.798 63.4652
5.220000 95.882 62.3004
5.300000 95.976 60.9957
5.380000 96.066 59.7246
5.450000 96.141 58.6443
5.520000 96.213 57.5967
5.600000 96.290 56.4310
5.700000 96.380 55.0269
5.800000 96.464 53.6954
5.900000 96.544 52.4491
6.000000 96.616 51.2834
6.080000 96.670 50.4070
6.150000 96.717 49.6808
6.220000 96.763 48.9925
6.300000 96.816 48.2582
6.400000 96.880 47.4181
6.500000 96.944 46.6441
6.600000 97.012 45.9145
6.700000 97.084 45.2421
6.800000 97.158 44.6248
6.900000 97.235 44.0324
7.000000 97.316 43.4410
7.100000 97.401 42.8728
7.200000 97.489 42.3138
7.300000 97.577 41.7390
7.400000 97.665 41.1352
7.500000 97.754 40.5158
7.620000 97.858 39.7480
7.750000 97.960 38.8773
7.880000 98.056 37.9604
8.000000 98.133 37.0967
8.120000 98.198 36.2333
8.250000 98.254 35.2803
8.380000 98.297 34.3502
8.500000 98.323 33.5413
8.620000 98.336 32.7623
8.750000 98.341 31.9820
8.850000 98.339 31.4454
9.000000 98.325 30.7302
9.120000 98.312 30.2341
9.250000 98.300 29.7816
9.380000 98.289 29.4163
9.500000 98.281 29.1205
9.620000 98.280 28.8559
9.750000 98.283 28.6141
9.880000 98.287 28.3641
10.000000 98.291 28.1096
10.150000 98.296 27.7731
10.300000 98.297 27.3756
10.440000 98.294 26.9454
10.600000 98.284 26.3969
10.750000 98.267 25.8226
10.900000 98.243 25.2012
11.060000 98.205 24.5337
11.200000 98.162 23.9334
11.380000 98.097 23.2158
11.500000 98.044 22.7844
11.720000 97.942 22.0987
11.800000 97.906 21.8968
12.060000 97.794 21.3802
12.200000 97.748 21.1660
12.410000 97.694 20.9078
12.500000 97.678 20.7877
12.650000 97.662 20.5916
12.800000 97.653 20.3602
13.150000 97.652 19.5847
13.200000 97.652 19.4493
13.400000 97.648 18.8301
13.600000 97.634 18.1640
13.800000 97.606 17.4664
14.000000 97.564 16.8275
14.300000 97.482 16.0258
14.500000 97.425 15.6577
14.750000 97.371 15.3422
15.000000 97.343 15.1509
15.250000 97.352 14.9500
15.500000 97.386 14.6419
15.750000 97.435 14.1823
16.000000 97.477 13.5469
16.250000 97.500 12.8221
16.500000 97.503 12.0746
16.750000 97.484 11.4116
17.000000 97.460 10.8980
17.250000 97.442 10.5233
17.500000 97.441 10.2615
17.750000 97.463 9.9896
18.000000 97.499 9.6449
18.250000 97.543 9.1576
18.500000 97.574 8.5312
18.750000 97.585 7.8351
19.000000 97.568 7.1357
19.250000 97.527 6.5662
19.500000 97.475 6.1685
19.750000 97.423 5.9694
20.000000 97.389 5.9235
20.299999 97.379 5.9308
20.600000 97.399 5.8705
20.900000 97.431 5.6359
21.200001 97.452 5.2153
21.400000 97.451 4.8890
21.799999 97.414 4.2684
22.000000 97.382 4.0365
22.400000 97.314 3.7944
22.700001 97.277 3.7584
23.000000 97.260 3.7540
23.299999 97.260 3.7043
23.600000 97.271 3.5753
24.000000 97.292 3.2637
24.299999 97.309 2.9265
24.700001 97.327 2.3300
25.000000 97.329 1.7717
25.400000 97.303 0.9335
25.799999 97.235 0.1609
26.200001 97.140 -0.3262
26.500000 97.076 -0.4479
26.900000 97.033 -0.3843
27.200001 97.042 -0.3396
27.600000 97.094 -0.5166
28.000000 97.145 -1.0571
28.500000 97.150 -1.9758
29.000000 97.092 -2.6300
29.500000 97.037 -2.8102
30.000000 97.040 -2.8227
30.400000 97.070 -2.9891
30.700001 97.090 -3.2473
31.100000 97.096 -3.6758
31.500000 97.078 -4.0629
32.000000 97.045 -4.3712
32.500000 97.026 -4.5687
33.000000 97.023 -4.8322
33.500000 97.016 -5.2023
34.000000 96.996 -5.5812
34.500000 96.975 -5.8916
35.000000 96.966 -6.1716
35.500000 96.966 -6.5082
36.000000 96.963 -6.9217
36.500000 96.949 -7.3504
37.000000 96.927 -7.7211
37.500000 96.906 -8.0171
38.200001 96.884 -8.3636
38.700001 96.874 -8.6044
39.500000 96.861 -9.0392
40.000000 96.849 -9.3696
40.599998 96.821 -9.8069
41.200001 96.776 -10.2067
41.799999 96.725 -10.5092
42.500000 96.679 -10.7642
43.099998 96.660 -10.9853
43.700001 96.654 -11.2983
44.400002 96.641 -11.7974
45.000000 96.612 -12.2043
45.500000 96.586 -12.4215
46.200001 96.578 -12.6268
46.799999 96.595 -12.9490
47.500000 96.594 -13.5706
48.200001 96.550 -14.2032
48.700001 96.503 -14.5642
49.400002 96.429 -14.9417
50.000000 96.368 -15.1194
50.799999 96.330 -15.2143
51.500000 96.342 -15.4810
52.200001 96.346 -16.0185
53.000000 96.311 -16.5449
53.799999 96.288 -16.6920
54.500000 96.309 -16.7539
55.200001 96.336 -16.9942
56.000000 96.322 -17.3117
57.000000 96.275 -17.3679
58.000000 96.245 -17.6575
59.000000 96.123 -18.2653
60.000000 95.978 -18.4477
60.799999 95.936 -18.6493
61.500000 95.934 -19.1344
62.200001 95.937 -19.7889
63.000000 95.965 -20.4362
64.000000 96.110 -21.4680
65.000000 96.179 -23.6234
66.000000 95.947 -24.8887
67.000000 95.741 -23.9113
68.000000 95.732 -22.8709
69.000000 95.724 -22.5023
70.000000 95.681 -22.4689
71.000000 95.609 -22.7289
72.000000 95.518 -23.1238
73.000000 95.433 -23.4961
74.000000 95.383 -23.8383
75.000000 95.346 -24.2470
76.199997 95.292 -24.5943
77.500000 95.228 -24.8195
78.800003 95.155 -25.0291
80.000000 95.079 -25.3426
81.199997 95.012 -25.6848
82.500000 94.957 -26.2930
83.800003 94.869 -26.7848
85.000000 94.785 -26.8898
86.199997 94.711 -26.5496
87.500000 94.729 -26.2551
88.500000 94.728 -26.7206
90.000000 94.603 -27.5353
91.199997 94.506 -27.9182
92.500000 94.453 -28.2996
93.800003 94.420 -28.7614
95.000000 94.362 -29.0960
96.199997 94.274 -29.0850
97.500000 94.194 -28.8530
98.800003 94.122 -28.9177
100.000000 94.015 -29.2410
101.500000 93.854 -29.4191
103.000000 93.788 -29.3444
104.400002 93.780 -29.5132
106.000000 93.754 -29.6655
107.500000 93.712 -29.6749
109.000000 93.657 -29.8243
110.599998 93.565 -30.2957
112.000000 93.468 -30.8015
113.800003 93.359 -31.4236
115.000000 93.289 -31.7278
117.199997 93.166 -31.6864
118.000000 93.135 -31.5558
120.599998 93.032 -31.5376
122.000000 92.942 -31.6522
124.099998 92.824 -31.9100
125.000000 92.777 -32.1268
126.500000 92.686 -32.4171
128.000000 92.632 -32.5400
131.500000 92.473 -32.9655
132.000000 92.435 -32.8448
134.000000 92.327 -32.0708
136.000000 92.269 -31.7828
138.000000 92.188 -32.0269
140.000000 92.111 -32.2113
143.000000 91.997 -31.7886
145.000000 91.893 -31.3660
147.500000 91.699 -31.3923
150.000000 91.549 -31.6636
152.500000 91.491 -31.7355
155.000000 91.438 -31.4365
157.500000 91.365 -31.2274
160.000000 91.253 -31.2826
162.500000 91.109 -31.0007
165.000000 90.974 -30.3179
167.500000 90.884 -29.7810
170.000000 90.833 -29.4672
172.500000 90.797 -29.0686
175.000000 90.758 -28.7491
177.500000 90.680 -28.5086
180.000000 90.582 -28.3610
182.500000 90.440 -28.3504
185.000000 90.287 -28.3694
187.500000 90.194 -28.2911
190.000000 90.164 -27.9108
192.500000 90.142 -27.2396
195.000000 90.077 -26.7737
197.500000 89.961 -26.5304
200.000000 89.900 -26.2822
203.000000 89.875 -26.1709
206.000000 89.777 -25.7988
209.000000 89.675 -25.0490
212.000000 89.606 -24.6125
214.000000 89.572 -24.5217
218.000000 89.565 -24.1317
220.000000 89.597 -23.7781
224.000000 89.560 -23.1942
227.000000 89.490 -22.7200
230.000000 89.394 -22.4088
233.000000 89.288 -21.7463
236.000000 89.232 -21.1136
240.000000 89.166 -20.7045
243.000000 89.104 -20.3116
247.000000 89.057 -19.5975
250.000000 89.058 -19.2690
254.000000 89.049 -19.0013
258.000000 88.986 -18.5585
262.000000 88.912 -17.9932
265.000000 88.899 -17.4197
269.000000 88.903 -16.7888
272.000000 88.890 -16.5278
276.000000 88.876 -15.8593
280.000000 88.874 -15.2751
285.000000 88.884 -15.3678
290.000000 88.928 -15.2212
295.000000 88.880 -14.5475
300.000000 88.856 -13.7427
304.000000 88.818 -13.2106
307.000000 88.778 -12.8837
311.000000 88.769 -12.7658
315.000000 88.795 -12.7648
320.000000 88.830 -12.1917
325.000000 88.790 -11.7168
330.000000 88.700 -11.3107
335.000000 88.704 -10.7441
340.000000 88.731 -10.2265
345.000000 88.719 -9.8513
350.000000 88.706 -9.4785
355.000000 88.708 -8.9948
360.000000 88.710 -8.5289
365.000000 88.688 -8.1736
370.000000 88.674 -8.0988
375.000000 88.690 -7.8050
382.000000 88.685 -7.1709
387.000000 88.685 -7.0055
395.000000 88.668 -6.5988
400.000000 88.646 -6.1977
406.000000 88.634 -5.7983
412.000000 88.641 -5.3927
418.000000 88.645 -4.9200
425.000000 88.624 -4.4636
431.000000 88.602 -4.2828
437.000000 88.608 -4.0183
444.000000 88.624 -3.6088
450.000000 88.611 -3.2104
455.000000 88.586 -2.8763
462.000000 88.569 -2.5322
468.000000 88.564 -2.1924
475.000000 88.542 -1.6893
482.000000 88.559 -1.3667
487.000000 88.591 -1.3356
494.000000 88.616 -1.2921
500.000000 88.624 -1.1444
508.000000 88.619 -0.7653
515.000000 88.597 -0.3420
522.000000 88.554 0.0364
530.000000 88.537 0.3576
538.000000 88.565 0.7109
545.000000 88.576 1.0513
552.000000 88.562 1.4543
560.000000 88.542 1.8954
570.000000 88.525 2.3892
580.000000 88.500 3.0096
590.000000 88.492 3.5592
600.000000 88.496 3.9143
608.000000 88.488 4.1953
615.000000 88.469 4.5656
622.000000 88.446 4.9554
630.000000 88.430 5.3594
640.000000 88.428 5.9990
650.000000 88.460 6.7014
660.000000 88.462 6.9863
670.000000 88.423 7.2864
680.000000 88.391 7.7993
690.000000 88.363 8.1649
700.000000 88.332 8.6465
710.000000 88.322 9.3626
720.000000 88.334 10.1081
730.000000 88.361 10.7441
740.000000 88.374 11.3008
750.000000 88.386 11.7933
762.000000 88.370 12.3870
775.000000 88.382 13.4820
788.000000 88.414 14.1307
800.000000 88.351 14.7840
812.000000 88.403 15.2948
825.000000 88.476 16.0860
838.000000 88.466 16.6700
850.000000 88.473 17.1260
862.000000 88.518 17.6929
875.000000 88.599 18.3060
885.000000 88.619 18.7511
900.000000 88.629 19.4189
912.000000 88.652 20.0723
925.000000 88.672 20.8604
938.000000 88.665 21.5813
950.000000 88.643 22.2602
962.000000 88.648 22.9832
975.000000 88.697 23.4884
988.000000 88.771 24.0250
1000.000000 88.812 24.9142
1015.000000 88.883 26.3465
1030.000000 89.001 27.2679
1044.000000 89.127 28.0119
1060.000000 89.271 28.9101
1075.000000 89.413 29.4495
1090.000000 89.590 29.7985
1106.000000 89.782 29.8947
1120.000000 89.914 29.6759
1138.000000 90.031 29.4598
1150.000000 90.098 29.3070
1172.000000 90.198 28.9720
1180.000000 90.226 28.9441
1206.000000 90.312 29.0836
1220.000000 90.362 29.1055
1241.000000 90.427 29.1976
1250.000000 90.451 29.2576
1265.000000 90.492 29.3542
1280.000000 90.533 29.4496
1315.000000 90.616 29.8055
1320.000000 90.627 29.8754
1340.000000 90.663 30.1684
1360.000000 90.688 30.4628
1380.000000 90.707 30.7858
1400.000000 90.742 31.1075
1430.000000 90.806 31.6010
1450.000000 90.845 31.9814
1475.000000 90.888 32.4923
1500.000000 90.936 32.9953
1525.000000 90.992 33.5145
1550.000000 91.046 34.0516
1575.000000 91.098 34.5751
1600.000000 91.149 35.1439
1625.000000 91.202 35.7198
1650.000000 91.259 36.2866
1675.000000 91.317 36.8742
1700.000000 91.376 37.4655
1725.000000 91.442 38.0388
1750.000000 91.514 38.6043
1775.000000 91.589 39.1777
1800.000000 91.666 39.7433
1825.000000 91.743 40.2909
1850.000000 91.821 40.8459
1875.000000 91.901 41.3997
1900.000000 91.985 41.9236
1925.000000 92.070 42.4482
1950.000000 92.154 42.9948
1975.000000 92.245 43.5547
2000.000000 92.348 44.0868
2030.000000 92.479 44.6628
2060.000000 92.605 45.2311
2090.000000 92.726 45.8174
2120.000000 92.856 46.3799
2140.000000 92.949 46.7446
2180.000000 93.145 47.4614
2200.000000 93.246 47.7936
2240.000000 93.461 48.3703
2270.000000 93.630 48.7307
2300.000000 93.804 49.0198
2330.000000 93.983 49.2222
2360.000000 94.164 49.3334
2400.000000 94.406 49.3278
2430.000000 94.586 49.2004
2470.000000 94.819 48.8512
2500.000000 94.983 48.4636
2540.000000 95.184 47.8026
2580.000000 95.362 47.0079
2620.000000 95.506 46.1675
2650.000000 95.590 45.5572
2690.000000 95.680 44.8101
2720.000000 95.737 44.3004
2760.000000 95.805 43.6763
2800.000000 95.861 43.1364
2850.000000 95.932 42.5217
2900.000000 96.004 41.9021
2950.000000 96.065 41.3185
3000.000000 96.133 40.7495
3040.000000 96.190 40.2242
3070.000000 96.227 39.7634
3110.000000 96.260 39.0877
3150.000000 96.275 38.3912
3200.000000 96.274 37.5404
3250.000000 96.249 36.7714
3300.000000 96.202 36.1177
3350.000000 96.149 35.5711
3400.000000 96.093 35.1359
3450.000000 96.038 34.8100
3500.000000 95.986 34.5670
3550.000000 95.937 34.4002
3600.000000 95.891 34.3050
3650.000000 95.850 34.2760
3700.000000 95.818 34.2935
3750.000000 95.797 34.3364
3820.000000 95.774 34.4272
3870.000000 95.758 34.4890
3950.000000 95.737 34.5287
4000.000000 95.721 34.5117
4060.000000 95.701 34.4228
4120.000000 95.675 34.2824
4180.000000 95.633 34.1469
4250.000000 95.554 34.1442
4310.000000 95.473 34.3588
4370.000000 95.403 34.7224
4440.000000 95.345 35.2033
4500.000000 95.316 35.5558
4550.000000 95.305 35.7627
4620.000000 95.296 35.9121
4680.000000 95.285 35.9158
4750.000000 95.263 35.7996
4820.000000 95.230 35.5883
4870.000000 95.198 35.3983
4940.000000 95.132 35.1162
5000.000000 95.054 34.8875
5080.000000 94.925 34.6254
5150.000000 94.796 34.4628
5220.000000 94.658 34.3744
5300.000000 94.496 34.3678
5380.000000 94.328 34.4832
5450.000000 94.176 34.6912
5520.000000 94.023 34.9987
5600.000000 93.848 35.4684
5700.000000 93.623 36.2324
5800.000000 93.402 37.1830
5900.000000 93.195 38.3121
6000.000000 93.003 39.6183
6080.000000 92.860 40.7838
6150.000000 92.747 41.8810
6220.000000 92.645 43.0367
6300.000000 92.543 44.4086
6400.000000 92.437 46.1738
6500.000000 92.362 47.9448
6600.000000 92.318 49.6943
6700.000000 92.305 51.4102
6800.000000 92.327 53.0636
6900.000000 92.402 54.6146
7000.000000 92.530 56.0219
7100.000000 92.696 57.2363
7200.000000 92.886 58.1646
7300.000000 93.079 58.7493
7400.000000 93.265 59.0641
7500.000000 93.445 59.0854
7620.000000 93.651 58.6951
7750.000000 93.833 57.8679
7880.000000 93.878 56.7913
8000.000000 93.811 55.7458
8120.000000 93.677 54.7910
8250.000000 93.477 53.9669
8380.000000 93.239 53.3933
8500.000000 93.001 53.0347
8620.000000 92.753 52.7478
8750.000000 92.462 52.4456
8850.000000 92.216 52.2206
9000.000000 91.814 51.9738
9120.000000 91.477 51.7876
9250.000000 91.085 51.3473
9380.000000 90.601 50.6584
9500.000000 90.028 50.1524
9620.000000 89.329 50.1858
9750.000000 88.467 51.2064
9880.000000 87.554 53.4838
10000.000000 86.722 56.7667
10150.000000 85.765 62.3561
10300.000000 84.977 69.2733
10440.000000 84.443 76.5286
10600.000000 84.098 85.2360
10750.000000 84.035 93.3313
10900.000000 84.201 101.0053
11060.000000 84.601 108.4080
11200.000000 85.108 113.9700
11380.000000 85.913 119.5230
11500.000000 86.504 122.0555
11720.000000 87.567 123.9978
11800.000000 87.908 123.8434
12060.000000 88.667 120.9298
12200.000000 88.796 118.6249
12410.000000 88.640 115.6502
12500.000000 88.476 114.8272
12650.000000 88.130 114.2302
12800.000000 87.753 114.5836
13150.000000 87.040 117.9983
13200.000000 86.972 118.6509
13400.000000 86.797 121.3141
13600.000000 86.771 123.6572
13800.000000 86.849 125.2459
14000.000000 86.972 125.7932
14300.000000 87.051 124.6808
14500.000000 86.940 123.1302
14750.000000 86.572 121.3447
15000.000000 86.041 120.7977
15250.000000 85.590 121.8117
15500.000000 85.537 123.5039
15750.000000 86.053 123.7066
16000.000000 86.931 119.3399
16250.000000 87.548 108.3852
16500.000000 87.599 92.7910
16750.000000 87.040 70.4899
17000.000000 84.633 49.2518
17250.000000 80.595 41.7888
17500.000000 76.439 43.5653
17750.000000 73.137 47.5182
18000.000000 70.638 50.0670
18250.000000 68.507 49.6757
18500.000000 66.360 45.9339
18750.000000 63.905 39.5769
19000.000000 60.880 30.2715
19250.000000 57.083 -7.1557
19500.000000 52.406 124.5082
19750.000000 46.805 -110.7222
20000.000000 40.443 -113.0117
20300.000000 34.316 -178.0449
20600.000000 33.300 -22.6738
20900.000000 32.683 -75.6348
21200.000000 30.956 -128.9512
21400.000000 29.273 -126.3574
21800.000000 24.771 119.0176
22000.000000 21.999 152.3164
22400.000000 16.119 52.9023
22700.000000 12.587 150.9766
23000.000000 10.712 -162.5234
23300.000000 10.017 -128.6094
23600.000000 9.794 66.0938
24000.000000 9.563 -132.7266
