* Measurement data measured by REW V5.20.13
* Source: Headset (DS by VECLAN.COM), MICROPHONE (Master Volume), L, volume: 0.710. Timing signal peak level -12.4 dBFS, measurement signal peak level -12.4 dBFS
* Format: 2M Log Swept Sine, 1 sweep at -12.0 dBFS using an acoustic timing reference
* Dated: Oct 30, 2023 5:24:15 PM
* REW Settings:
*  C-weighting compensation: Off
*  Target level: 75.0 dB
* Note: ; Delay -0.0637 ms (-22 mm, -0.86 in) using estimated IR delay relative to Acoustic reference played from HEADPHONE L with no timing offset
* Measurement: TIN T2 CP145 R
* Smoothing: 1/24 octave
* Frequency Step: 1/48 octave
* Start Frequency: 1.000 Hz
*
* Freq(Hz) SPL(dB) Phase(degrees)
1.000000 61.095 26.1304
1.015000 61.267 25.5437
1.030000 61.436 24.9344
1.044000 61.590 24.3452
1.060000 61.760 23.6477
1.075000 61.915 22.9702
1.090000 62.063 22.2699
1.106000 62.214 21.4937
1.120000 62.343 20.7687
1.138000 62.507 19.7727
1.150000 62.614 19.0720
1.172000 62.808 17.7191
1.180000 62.877 17.2072
1.206000 63.098 15.4809
1.220000 63.214 14.5169
1.241000 63.386 13.0352
1.250000 63.458 12.3894
1.265000 63.578 11.3020
1.280000 63.695 10.2045
1.315000 63.962 7.6274
1.320000 63.999 7.2597
1.340000 64.147 5.7959
1.360000 64.291 4.3509
1.380000 64.433 2.9347
1.400000 64.572 1.5569
1.430000 64.776 -0.4159
1.450000 64.909 -1.6542
1.475000 65.071 -3.1060
1.500000 65.225 -4.5078
1.525000 65.372 -5.8756
1.550000 65.511 -7.2102
1.575000 65.645 -8.5121
1.600000 65.774 -9.7822
1.625000 65.899 -11.0210
1.650000 66.021 -12.2292
1.675000 66.140 -13.4077
1.700000 66.258 -14.5570
1.725000 66.376 -15.6778
1.750000 66.494 -16.7708
1.775000 66.614 -17.8368
1.800000 66.737 -18.8764
1.825000 66.862 -19.8903
1.850000 66.991 -20.8758
1.875000 67.119 -21.8257
1.900000 67.248 -22.7415
1.925000 67.377 -23.6252
1.950000 67.506 -24.4786
1.975000 67.635 -25.3036
2.000000 67.764 -26.1020
2.030000 67.918 -27.0276
2.060000 68.073 -27.9208
2.090000 68.226 -28.7848
2.120000 68.380 -29.6230
2.140000 68.482 -30.1689
2.180000 68.684 -31.2342
2.200000 68.785 -31.7555
2.240000 68.988 -32.7595
2.270000 69.140 -33.4751
2.300000 69.292 -34.1605
2.330000 69.444 -34.8173
2.360000 69.595 -35.4471
2.400000 69.796 -36.2478
2.430000 69.945 -36.8212
2.470000 70.141 -37.5527
2.500000 70.286 -38.0786
2.540000 70.477 -38.7527
2.580000 70.662 -39.3969
2.620000 70.844 -39.9936
2.650000 70.977 -40.4100
2.690000 71.153 -40.9285
2.720000 71.282 -41.2933
2.760000 71.453 -41.7522
2.800000 71.622 -42.1853
2.850000 71.831 -42.6996
2.900000 72.039 -43.1947
2.950000 72.247 -43.6792
3.000000 72.452 -44.1336
3.040000 72.613 -44.4733
3.070000 72.734 -44.7154
3.110000 72.893 -45.0227
3.150000 73.052 -45.3141
3.200000 73.250 -45.6586
3.250000 73.448 -45.9845
3.300000 73.647 -46.2953
3.350000 73.846 -46.5771
3.400000 74.044 -46.8253
3.450000 74.242 -47.0496
3.500000 74.440 -47.2596
3.550000 74.637 -47.4651
3.600000 74.835 -47.6760
3.650000 75.032 -47.9018
3.700000 75.230 -48.1424
3.750000 75.429 -48.3809
3.820000 75.708 -48.7167
3.870000 75.907 -48.9633
3.950000 76.223 -49.3801
4.000000 76.419 -49.6604
4.060000 76.652 -50.0209
4.120000 76.885 -50.3985
4.180000 77.116 -50.7934
4.250000 77.384 -51.2786
4.310000 77.610 -51.7179
4.370000 77.831 -52.1809
4.440000 78.083 -52.7546
4.500000 78.296 -53.2762
4.550000 78.471 -53.7292
4.620000 78.710 -54.3862
4.680000 78.910 -54.9663
4.750000 79.135 -55.6568
4.820000 79.352 -56.3666
4.870000 79.503 -56.8917
4.940000 79.708 -57.6440
5.000000 79.877 -58.2973
5.080000 80.095 -59.1679
5.150000 80.276 -59.9193
5.220000 80.448 -60.6761
5.300000 80.635 -61.5452
5.380000 80.813 -62.4049
5.450000 80.961 -63.1382
5.520000 81.103 -63.8460
5.600000 81.255 -64.6391
5.700000 81.433 -65.6011
5.800000 81.601 -66.5114
5.900000 81.761 -67.3518
6.000000 81.910 -68.1294
6.080000 82.024 -68.7088
6.150000 82.121 -69.1843
6.220000 82.218 -69.6303
6.300000 82.328 -70.0989
6.400000 82.462 -70.6242
6.500000 82.595 -71.0988
6.600000 82.731 -71.5407
6.700000 82.870 -71.9382
6.800000 83.011 -72.2940
6.900000 83.156 -72.6350
7.000000 83.304 -72.9829
7.100000 83.456 -73.3189
7.200000 83.612 -73.6538
7.300000 83.769 -74.0079
7.400000 83.926 -74.3913
7.500000 84.086 -74.7928
7.620000 84.277 -75.3045
7.750000 84.478 -75.9049
7.880000 84.676 -76.5556
8.000000 84.854 -77.1865
8.120000 85.023 -77.8367
8.250000 85.199 -78.5733
8.380000 85.365 -79.3194
8.500000 85.511 -79.9997
8.620000 85.648 -80.6823
8.750000 85.789 -81.4064
8.850000 85.893 -81.9421
9.000000 86.039 -82.7206
9.120000 86.152 -83.3158
9.250000 86.272 -83.9259
9.380000 86.389 -84.5028
9.500000 86.494 -85.0130
9.620000 86.596 -85.5029
9.750000 86.703 -86.0093
9.880000 86.804 -86.5020
10.000000 86.890 -86.9489
10.150000 86.990 -87.4930
10.300000 87.084 -88.0267
10.440000 87.164 -88.5140
10.600000 87.252 -89.0640
10.750000 87.335 -89.5770
10.900000 87.417 -90.0873
11.060000 87.504 -90.6368
11.200000 87.580 -91.1227
11.380000 87.676 -91.7447
11.500000 87.738 -92.1562
11.720000 87.851 -92.9041
11.800000 87.891 -93.1729
12.060000 88.023 -94.0382
12.200000 88.095 -94.5032
12.410000 88.201 -95.1969
12.500000 88.245 -95.4907
12.650000 88.318 -95.9766
12.800000 88.389 -96.4558
13.150000 88.547 -97.5429
13.200000 88.570 -97.6945
13.400000 88.658 -98.2914
13.600000 88.746 -98.8728
13.800000 88.834 -99.4379
14.000000 88.922 -99.9931
14.300000 89.051 -100.8097
14.500000 89.136 -101.3452
14.750000 89.240 -102.0052
15.000000 89.344 -102.6553
15.250000 89.448 -103.2975
15.500000 89.552 -103.9253
15.750000 89.655 -104.5358
16.000000 89.755 -105.1267
16.250000 89.856 -105.7050
16.500000 89.955 -106.2747
16.750000 90.056 -106.8408
17.000000 90.157 -107.4076
17.250000 90.257 -107.9760
17.500000 90.356 -108.5464
17.750000 90.452 -109.1157
18.000000 90.546 -109.6825
18.250000 90.637 -110.2457
18.500000 90.727 -110.8037
18.750000 90.814 -111.3568
19.000000 90.900 -111.9055
19.250000 90.984 -112.4510
19.500000 91.066 -112.9907
19.750000 91.145 -113.5225
20.000000 91.222 -114.0418
20.299999 91.310 -114.6458
20.600000 91.397 -115.2283
20.900000 91.481 -115.7915
21.200001 91.565 -116.3417
21.400000 91.620 -116.7054
21.799999 91.729 -117.4307
22.000000 91.782 -117.7938
22.400000 91.884 -118.5189
22.700001 91.957 -119.0553
23.000000 92.027 -119.5792
23.299999 92.096 -120.0893
23.600000 92.163 -120.5874
24.000000 92.254 -121.2396
24.299999 92.321 -121.7269
24.700001 92.410 -122.3812
25.000000 92.473 -122.8753
25.400000 92.554 -123.5321
25.799999 92.629 -124.1744
26.200001 92.700 -124.7918
26.500000 92.752 -125.2364
26.900000 92.820 -125.8078
27.200001 92.872 -126.2258
27.600000 92.942 -126.7778
28.000000 93.011 -127.3313
28.500000 93.094 -128.0280
29.000000 93.173 -128.7227
29.500000 93.248 -129.4028
30.000000 93.319 -130.0601
30.400000 93.376 -130.5738
30.700001 93.418 -130.9581
31.100000 93.474 -131.4779
31.500000 93.528 -132.0096
32.000000 93.591 -132.6807
32.500000 93.646 -133.3305
33.000000 93.698 -133.9330
33.500000 93.751 -134.4902
34.000000 93.808 -135.0272
34.500000 93.869 -135.5666
35.000000 93.930 -136.1137
35.500000 93.989 -136.6643
36.000000 94.044 -137.2146
36.500000 94.094 -137.7598
37.000000 94.139 -138.2889
37.500000 94.180 -138.7916
38.200001 94.237 -139.4557
38.700001 94.277 -139.9205
39.500000 94.342 -140.6859
40.000000 94.379 -141.1852
40.599998 94.420 -141.7918
41.200001 94.456 -142.3759
41.799999 94.493 -142.9322
42.500000 94.543 -143.5826
43.099998 94.586 -144.1387
43.700001 94.632 -144.6534
44.400002 94.703 -145.2634
45.000000 94.766 -145.9253
45.500000 94.799 -146.5610
46.200001 94.804 -147.3298
46.799999 94.800 -147.7004
47.500000 94.828 -147.9509
48.200001 94.881 -148.2959
48.700001 94.916 -148.6198
49.400002 94.952 -149.0742
50.000000 94.983 -149.4474
50.799999 95.022 -149.9910
51.500000 95.047 -150.4941
52.200001 95.067 -150.9686
53.000000 95.093 -151.4893
53.799999 95.122 -152.0284
54.500000 95.145 -152.5104
55.200001 95.166 -152.9791
56.000000 95.190 -153.4799
57.000000 95.222 -154.0587
58.000000 95.256 -154.6037
59.000000 95.290 -155.1433
60.000000 95.315 -155.7084
60.799999 95.326 -156.1037
61.500000 95.341 -156.3999
62.200001 95.365 -156.7414
63.000000 95.386 -157.2307
64.000000 95.393 -157.8309
65.000000 95.400 -158.3440
66.000000 95.413 -158.8488
67.000000 95.429 -159.3429
68.000000 95.446 -159.8428
69.000000 95.460 -160.3385
70.000000 95.472 -160.8003
71.000000 95.484 -161.2397
72.000000 95.496 -161.6750
73.000000 95.506 -162.1110
74.000000 95.513 -162.5537
75.000000 95.516 -162.9775
76.199997 95.520 -163.4378
77.500000 95.530 -163.9325
78.800003 95.538 -164.4350
80.000000 95.543 -164.8837
81.199997 95.547 -165.2993
82.500000 95.551 -165.7403
83.800003 95.556 -166.1940
85.000000 95.555 -166.6211
86.199997 95.554 -167.0226
87.500000 95.554 -167.4464
88.500000 95.554 -167.7682
90.000000 95.553 -168.2109
91.199997 95.557 -168.5355
92.500000 95.565 -168.9291
93.800003 95.566 -169.3443
95.000000 95.562 -169.7083
96.199997 95.558 -170.0427
97.500000 95.556 -170.4109
98.800003 95.549 -170.7793
100.000000 95.540 -171.0860
101.500000 95.531 -171.4469
103.000000 95.521 -171.8103
104.400002 95.509 -172.1326
106.000000 95.499 -172.4907
107.500000 95.489 -172.8299
109.000000 95.478 -173.1624
110.599998 95.464 -173.5074
112.000000 95.451 -173.8059
113.800003 95.437 -174.2009
115.000000 95.428 -174.4608
117.199997 95.418 -174.8985
118.000000 95.416 -175.0596
120.599998 95.394 -175.6006
122.000000 95.374 -175.8364
124.099998 95.348 -176.1636
125.000000 95.340 -176.3047
126.500000 95.331 -176.5569
128.000000 95.322 -176.8164
131.500000 95.294 -177.3618
132.000000 95.290 -177.4392
134.000000 95.270 -177.7574
136.000000 95.254 -178.0726
138.000000 95.243 -178.3562
140.000000 95.234 -178.6182
143.000000 95.214 -179.0039
145.000000 95.197 -179.2640
147.500000 95.174 -179.5695
150.000000 95.154 -179.8495
152.500000 95.134 179.8573
155.000000 95.110 179.5599
157.500000 95.087 179.2889
160.000000 95.063 179.0293
162.500000 95.037 178.7806
165.000000 95.013 178.5453
167.500000 94.990 178.3241
170.000000 94.966 178.1084
172.500000 94.938 177.8984
175.000000 94.907 177.6927
177.500000 94.877 177.4908
180.000000 94.847 177.2949
182.500000 94.819 177.1149
185.000000 94.792 176.9402
187.500000 94.764 176.7725
190.000000 94.736 176.6209
192.500000 94.708 176.4847
195.000000 94.682 176.3530
197.500000 94.657 176.2090
200.000000 94.630 176.0657
203.000000 94.600 175.8997
206.000000 94.568 175.7391
209.000000 94.536 175.5991
212.000000 94.505 175.4776
214.000000 94.485 175.4005
218.000000 94.449 175.2463
220.000000 94.431 175.1750
224.000000 94.394 175.0332
227.000000 94.362 174.9266
230.000000 94.330 174.8344
233.000000 94.299 174.7481
236.000000 94.269 174.6566
240.000000 94.229 174.5362
243.000000 94.199 174.4705
247.000000 94.160 174.4045
250.000000 94.134 174.3597
254.000000 94.101 174.3027
258.000000 94.066 174.2375
262.000000 94.031 174.1725
265.000000 94.005 174.1215
269.000000 93.972 174.0607
272.000000 93.948 174.0267
276.000000 93.918 173.9923
280.000000 93.888 173.9716
285.000000 93.848 173.9526
290.000000 93.809 173.9332
295.000000 93.773 173.9255
300.000000 93.738 173.9215
304.000000 93.711 173.9228
307.000000 93.690 173.9295
311.000000 93.664 173.9423
315.000000 93.639 173.9508
320.000000 93.606 173.9697
325.000000 93.574 174.0126
330.000000 93.545 174.0470
335.000000 93.519 174.0890
340.000000 93.488 174.1397
345.000000 93.454 174.1880
350.000000 93.418 174.2411
355.000000 93.384 174.3012
360.000000 93.351 174.3715
365.000000 93.318 174.4495
370.000000 93.287 174.5235
375.000000 93.256 174.5975
382.000000 93.214 174.7147
387.000000 93.183 174.8019
395.000000 93.134 174.9458
400.000000 93.104 175.0396
406.000000 93.068 175.1587
412.000000 93.032 175.2831
418.000000 92.997 175.4102
425.000000 92.959 175.5586
431.000000 92.926 175.6937
437.000000 92.893 175.8375
444.000000 92.856 176.0053
450.000000 92.825 176.1498
455.000000 92.799 176.2753
462.000000 92.763 176.4587
468.000000 92.733 176.6197
475.000000 92.698 176.8118
482.000000 92.664 177.0076
487.000000 92.641 177.1503
494.000000 92.609 177.3571
500.000000 92.584 177.5400
508.000000 92.550 177.7844
515.000000 92.521 177.9986
522.000000 92.494 178.2188
530.000000 92.464 178.4731
538.000000 92.435 178.7279
545.000000 92.412 178.9530
552.000000 92.389 179.1866
560.000000 92.363 179.4640
570.000000 92.332 179.8133
580.000000 92.302 -179.8334
590.000000 92.273 -179.4687
600.000000 92.244 -179.0975
608.000000 92.220 -178.7985
615.000000 92.198 -178.5329
622.000000 92.177 -178.2612
630.000000 92.154 -177.9461
640.000000 92.127 -177.5483
650.000000 92.101 -177.1441
660.000000 92.077 -176.7348
670.000000 92.055 -176.3212
680.000000 92.034 -175.9001
690.000000 92.015 -175.4730
700.000000 91.999 -175.0421
710.000000 91.984 -174.6074
720.000000 91.971 -174.1694
730.000000 91.961 -173.7264
740.000000 91.953 -173.2784
750.000000 91.948 -172.8282
762.000000 91.945 -172.2863
775.000000 91.943 -171.7001
788.000000 91.945 -171.1128
800.000000 91.951 -170.5726
812.000000 91.961 -170.0283
825.000000 91.977 -169.4373
838.000000 92.001 -168.8549
850.000000 92.032 -168.3251
862.000000 92.072 -167.8075
875.000000 92.131 -167.2920
885.000000 92.192 -166.9651
900.000000 92.309 -166.7379
912.000000 92.405 -166.9670
925.000000 92.453 -167.6593
938.000000 92.397 -168.3979
950.000000 92.281 -168.6527
962.000000 92.166 -168.4391
975.000000 92.078 -167.9529
988.000000 92.024 -167.4586
1000.000000 91.988 -167.0889
1015.000000 91.939 -166.7447
1030.000000 91.868 -166.4546
1044.000000 91.772 -166.1003
1060.000000 91.633 -165.3887
1075.000000 91.510 -164.2888
1090.000000 91.445 -162.8493
1106.000000 91.464 -161.2474
1120.000000 91.538 -160.0305
1138.000000 91.665 -158.8452
1150.000000 91.752 -158.2626
1172.000000 91.894 -157.4730
1180.000000 91.939 -157.2413
1206.000000 92.068 -156.5893
1220.000000 92.129 -156.2724
1241.000000 92.215 -155.8130
1250.000000 92.249 -155.6173
1265.000000 92.302 -155.2940
1280.000000 92.351 -154.9758
1315.000000 92.450 -154.2238
1320.000000 92.462 -154.1117
1340.000000 92.504 -153.6501
1360.000000 92.526 -153.1745
1380.000000 92.547 -152.6868
1400.000000 92.581 -152.1841
1430.000000 92.642 -151.4009
1450.000000 92.684 -150.8667
1475.000000 92.738 -150.1795
1500.000000 92.793 -149.4729
1525.000000 92.848 -148.7524
1550.000000 92.902 -148.0203
1575.000000 92.956 -147.2751
1600.000000 93.012 -146.5198
1625.000000 93.072 -145.7611
1650.000000 93.138 -144.9999
1675.000000 93.209 -144.2374
1700.000000 93.285 -143.4763
1725.000000 93.367 -142.7227
1750.000000 93.454 -141.9794
1775.000000 93.546 -141.2510
1800.000000 93.643 -140.5441
1825.000000 93.746 -139.8621
1850.000000 93.852 -139.2095
1875.000000 93.962 -138.5885
1900.000000 94.075 -137.9984
1925.000000 94.189 -137.4343
1950.000000 94.304 -136.8950
1975.000000 94.422 -136.3772
2000.000000 94.543 -135.8791
2030.000000 94.694 -135.3102
2060.000000 94.850 -134.7765
2090.000000 95.012 -134.2849
2120.000000 95.182 -133.8393
2140.000000 95.300 -133.5669
2180.000000 95.547 -133.0887
2200.000000 95.677 -132.8930
2240.000000 95.951 -132.6327
2270.000000 96.168 -132.5991
2300.000000 96.389 -132.7395
2330.000000 96.607 -133.0639
2360.000000 96.816 -133.5657
2400.000000 97.074 -134.4813
2430.000000 97.250 -135.3310
2470.000000 97.454 -136.6519
2500.000000 97.583 -137.7653
2540.000000 97.717 -139.3765
2580.000000 97.804 -141.0762
2620.000000 97.844 -142.7897
2650.000000 97.846 -144.0411
2690.000000 97.815 -145.6313
2720.000000 97.772 -146.7630
2760.000000 97.689 -148.2042
2800.000000 97.575 -149.5730
2850.000000 97.388 -151.1387
2900.000000 97.151 -152.4518
2950.000000 96.875 -153.4264
3000.000000 96.575 -154.0174
3040.000000 96.327 -154.2072
3070.000000 96.141 -154.1902
3110.000000 95.898 -153.9699
3150.000000 95.666 -153.5471
3200.000000 95.398 -152.7786
3250.000000 95.156 -151.7967
3300.000000 94.944 -150.6537
3350.000000 94.761 -149.3932
3400.000000 94.608 -148.0501
3450.000000 94.487 -146.6531
3500.000000 94.397 -145.2277
3550.000000 94.336 -143.8039
3600.000000 94.300 -142.4170
3650.000000 94.287 -141.1062
3700.000000 94.289 -139.9010
3750.000000 94.299 -138.8054
3820.000000 94.311 -137.4088
3870.000000 94.312 -136.4509
3950.000000 94.307 -134.8673
4000.000000 94.311 -133.8172
4060.000000 94.338 -132.5270
4120.000000 94.393 -131.2803
4180.000000 94.478 -130.1709
4250.000000 94.605 -129.1768
4310.000000 94.724 -128.7161
4370.000000 94.824 -128.8207
4440.000000 94.818 -129.9447
4500.000000 94.523 -131.0864
4550.000000 94.033 -130.1685
4620.000000 93.613 -124.4877
4680.000000 93.949 -119.7640
4750.000000 94.546 -117.8798
4820.000000 94.959 -118.1435
4870.000000 95.148 -118.7179
4940.000000 95.313 -119.6559
5000.000000 95.389 -120.4933
5080.000000 95.416 -121.5947
5150.000000 95.381 -122.5001
5220.000000 95.296 -123.3087
5300.000000 95.145 -124.0631
5380.000000 94.945 -124.5820
5450.000000 94.738 -124.7998
5520.000000 94.509 -124.7682
5600.000000 94.230 -124.4040
5700.000000 93.869 -123.4423
5800.000000 93.513 -121.9429
5900.000000 93.178 -119.9686
6000.000000 92.875 -117.5843
6080.000000 92.661 -115.4209
6150.000000 92.497 -113.3626
6220.000000 92.358 -111.1633
6300.000000 92.230 -108.4898
6400.000000 92.123 -104.9301
6500.000000 92.081 -101.1646
6600.000000 92.114 -97.2481
6700.000000 92.229 -93.2442
6800.000000 92.440 -89.2208
6900.000000 92.768 -85.2506
7000.000000 93.220 -81.4199
7100.000000 93.792 -77.8375
7200.000000 94.482 -74.6538
7300.000000 95.292 -72.0631
7400.000000 96.213 -70.2908
7500.000000 97.238 -69.5615
7620.000000 98.608 -70.4940
7750.000000 100.123 -74.8421
7880.000000 101.258 -83.5226
8000.000000 101.699 -94.2968
8120.000000 101.484 -105.2033
8250.000000 100.653 -114.5416
8380.000000 99.488 -120.2701
8500.000000 98.345 -122.7176
8620.000000 97.261 -123.1365
8750.000000 96.203 -121.9695
8850.000000 95.486 -120.2489
9000.000000 94.579 -116.7284
9120.000000 93.996 -113.3379
9250.000000 93.500 -109.2735
9380.000000 93.141 -104.9356
9500.000000 92.929 -100.7819
9620.000000 92.835 -96.5634
9750.000000 92.878 -92.0156
9880.000000 93.080 -87.6123
10000.000000 93.415 -83.8142
10150.000000 94.051 -79.7065
10300.000000 94.944 -76.8024
10440.000000 95.999 -75.8886
10600.000000 97.349 -78.2136
10750.000000 98.476 -84.8837
10900.000000 99.082 -95.8514
11060.000000 98.853 -109.3296
11200.000000 97.932 -119.0391
11380.000000 96.154 -125.8110
11500.000000 94.880 -126.9023
11720.000000 92.855 -124.3901
11800.000000 92.258 -122.6240
12060.000000 90.822 -115.2033
12200.000000 90.362 -110.6690
12410.000000 90.081 -103.9273
12500.000000 90.116 -101.2706
12650.000000 90.393 -97.5224
12800.000000 90.937 -95.2071
13150.000000 92.682 -100.9853
13200.000000 92.856 -103.5765
13400.000000 92.919 -117.4579
13600.000000 91.733 -131.6832
13800.000000 89.521 -139.9207
14000.000000 86.893 -141.1386
14300.000000 83.238 -134.3513
14500.000000 81.248 -126.6985
14750.000000 79.264 -115.3323
15000.000000 77.772 -102.8877
15250.000000 76.730 -89.9537
15500.000000 76.160 -76.8776
15750.000000 76.114 -64.0265
16000.000000 76.637 -52.0887
16250.000000 77.830 -42.3945
16500.000000 79.651 -37.9325
16750.000000 81.389 -43.7281
17000.000000 81.810 -60.3621
17250.000000 80.283 -76.3056
17500.000000 77.330 -80.9431
17750.000000 74.031 -75.3323
18000.000000 71.148 -63.9675
18250.000000 68.900 -49.4543
18500.000000 67.368 -32.9107
18750.000000 66.769 -15.3599
19000.000000 67.080 1.0947
19250.000000 67.590 14.4454
19500.000000 67.586 25.8993
19750.000000 67.016 38.7055
20000.000000 66.171 53.8829
20300.000000 65.107 74.0457
20600.000000 64.150 95.2743
20900.000000 63.282 116.2141
21200.000000 62.454 134.6498
21400.000000 61.859 143.5850
21800.000000 60.146 126.3543
22000.000000 58.726 17.3976
22400.000000 53.958 155.7151
22700.000000 48.422 -23.9824
23000.000000 41.752 122.3008
23300.000000 37.131 -57.2734
23600.000000 36.729 -17.4453
24000.000000 37.047 -48.5781
