* Measurement data measured by REW V5.20.13
* Source: Headset (DS by VECLAN.COM), MICROPHONE (Master Volume), L, volume: 0.710. Timing signal peak level -10.5 dBFS, measurement signal peak level -10.5 dBFS
* Format: 2M Log Swept Sine, 1 sweep at -12.0 dBFS using an acoustic timing reference
* Dated: Oct 30, 2023 5:22:28 PM
* REW Settings:
*  C-weighting compensation: Off
*  Target level: 75.0 dB
* Note: ; Delay -0.1209 ms (-41 mm, -1.63 in) using estimated IR delay relative to Acoustic reference played from HEADPHONE R with no timing offset
* Measurement: TIN T2 CP145 L
* Smoothing: 1/24 octave
* Frequency Step: 1/48 octave
* Start Frequency: 1.000 Hz
*
* Freq(Hz) SPL(dB) Phase(degrees)
1.000000 61.134 -53.1994
1.015000 61.353 -52.9361
1.030000 61.566 -52.6618
1.044000 61.758 -52.3961
1.060000 61.970 -52.0810
1.075000 62.160 -51.7748
1.090000 62.340 -51.4582
1.106000 62.522 -51.1070
1.120000 62.676 -50.7756
1.138000 62.867 -50.3156
1.150000 62.990 -49.9895
1.172000 63.209 -49.3557
1.180000 63.286 -49.1149
1.206000 63.528 -48.2994
1.220000 63.654 -47.8425
1.241000 63.836 -47.1391
1.250000 63.912 -46.8323
1.265000 64.036 -46.3157
1.280000 64.157 -45.7945
1.315000 64.429 -44.5731
1.320000 64.467 -44.3992
1.340000 64.616 -43.7089
1.360000 64.761 -43.0306
1.380000 64.902 -42.3698
1.400000 65.042 -41.7319
1.430000 65.247 -40.8298
1.450000 65.382 -40.2729
1.475000 65.549 -39.6323
1.500000 65.706 -39.0254
1.525000 65.853 -38.4433
1.550000 65.990 -37.8846
1.575000 66.120 -37.3481
1.600000 66.244 -36.8322
1.625000 66.363 -36.3356
1.650000 66.479 -35.8569
1.675000 66.593 -35.3949
1.700000 66.707 -34.9479
1.725000 66.822 -34.5148
1.750000 66.940 -34.0942
1.775000 67.061 -33.6845
1.800000 67.188 -33.2846
1.825000 67.323 -32.8929
1.850000 67.464 -32.5073
1.875000 67.607 -32.1259
1.900000 67.753 -31.7510
1.925000 67.900 -31.3847
1.950000 68.050 -31.0292
1.975000 68.201 -30.6867
2.000000 68.354 -30.3594
2.030000 68.539 -29.9900
2.060000 68.726 -29.6495
2.090000 68.914 -29.3418
2.120000 69.104 -29.0708
2.140000 69.230 -28.9123
2.180000 69.484 -28.6538
2.200000 69.611 -28.5560
2.240000 69.869 -28.4272
2.270000 70.067 -28.3848
2.300000 70.267 -28.3842
2.330000 70.468 -28.4212
2.360000 70.670 -28.4913
2.400000 70.941 -28.6290
2.430000 71.142 -28.7600
2.470000 71.409 -28.9632
2.500000 71.607 -29.1316
2.540000 71.865 -29.3692
2.580000 72.116 -29.6163
2.620000 72.365 -29.8977
2.650000 72.549 -30.1335
2.690000 72.793 -30.4776
2.720000 72.974 -30.7558
2.760000 73.212 -31.1503
2.800000 73.446 -31.5678
2.850000 73.734 -32.1160
2.900000 74.016 -32.6858
2.950000 74.290 -33.2722
3.000000 74.558 -33.8930
3.040000 74.769 -34.4149
3.070000 74.924 -34.8189
3.110000 75.128 -35.3722
3.150000 75.327 -35.9394
3.200000 75.572 -36.6632
3.250000 75.809 -37.3980
3.300000 76.041 -38.1382
3.350000 76.266 -38.8975
3.400000 76.484 -39.6827
3.450000 76.696 -40.4851
3.500000 76.901 -41.2961
3.550000 77.101 -42.1071
3.600000 77.296 -42.9095
3.650000 77.485 -43.6946
3.700000 77.669 -44.4607
3.750000 77.847 -45.2194
3.820000 78.085 -46.2703
3.870000 78.250 -47.0125
3.950000 78.503 -48.1850
4.000000 78.656 -48.9082
4.060000 78.835 -49.7682
4.120000 79.006 -50.6277
4.180000 79.171 -51.4807
4.250000 79.355 -52.4571
4.310000 79.509 -53.2687
4.370000 79.659 -54.0486
4.440000 79.829 -54.9110
4.500000 79.970 -55.6156
4.550000 80.084 -56.1814
4.620000 80.239 -56.9450
4.680000 80.370 -57.5769
4.750000 80.521 -58.2928
4.820000 80.670 -58.9857
4.870000 80.774 -59.4631
4.940000 80.917 -60.1085
5.000000 81.039 -60.6419
5.080000 81.200 -61.3270
5.150000 81.341 -61.9035
5.220000 81.482 -62.4493
5.300000 81.642 -63.0412
5.380000 81.802 -63.6117
5.450000 81.941 -64.1040
5.520000 82.081 -64.5972
5.600000 82.242 -65.1490
5.700000 82.443 -65.8242
5.800000 82.643 -66.4971
5.900000 82.841 -67.1802
6.000000 83.039 -67.8668
6.080000 83.196 -68.4186
6.150000 83.332 -68.9049
6.220000 83.466 -69.3958
6.300000 83.617 -69.9634
6.400000 83.803 -70.6810
6.500000 83.986 -71.4047
6.600000 84.163 -72.1313
6.700000 84.335 -72.8650
6.800000 84.503 -73.6038
6.900000 84.666 -74.3389
7.000000 84.824 -75.0629
7.100000 84.977 -75.7807
7.200000 85.125 -76.4909
7.300000 85.269 -77.1891
7.400000 85.409 -77.8732
7.500000 85.545 -78.5456
7.620000 85.703 -79.3356
7.750000 85.870 -80.1681
7.880000 86.032 -80.9757
8.000000 86.178 -81.7032
8.120000 86.320 -82.4169
8.250000 86.470 -83.1723
8.380000 86.617 -83.9121
8.500000 86.749 -84.5835
8.620000 86.877 -85.2430
8.750000 87.012 -85.9438
8.850000 87.114 -86.4737
9.000000 87.261 -87.2538
9.120000 87.376 -87.8626
9.250000 87.498 -88.5048
9.380000 87.617 -89.1298
9.500000 87.724 -89.6924
9.620000 87.826 -90.2408
9.750000 87.933 -90.8189
9.880000 88.032 -91.3844
10.000000 88.115 -91.8967
10.150000 88.210 -92.5225
10.300000 88.297 -93.1331
10.440000 88.371 -93.6869
10.600000 88.451 -94.3094
10.750000 88.526 -94.8879
10.900000 88.600 -95.4610
11.060000 88.678 -96.0768
11.200000 88.745 -96.6199
11.380000 88.829 -97.3124
11.500000 88.883 -97.7688
11.720000 88.979 -98.5924
11.800000 89.013 -98.8853
12.060000 89.124 -99.8186
12.200000 89.185 -100.3136
12.410000 89.276 -101.0458
12.500000 89.314 -101.3564
12.650000 89.377 -101.8691
12.800000 89.438 -102.3772
13.150000 89.575 -103.5479
13.200000 89.594 -103.7123
13.400000 89.669 -104.3646
13.600000 89.742 -104.9956
13.800000 89.812 -105.6005
14.000000 89.882 -106.1756
14.300000 89.988 -106.9831
14.500000 90.061 -107.4878
14.750000 90.158 -108.1078
15.000000 90.263 -108.7319
15.250000 90.375 -109.3991
15.500000 90.488 -110.1161
15.750000 90.597 -110.8820
16.000000 90.696 -111.6821
16.250000 90.783 -112.4851
16.500000 90.860 -113.2702
16.750000 90.929 -114.0078
17.000000 90.994 -114.6864
17.250000 91.058 -115.3099
17.500000 91.125 -115.8863
17.750000 91.194 -116.4405
18.000000 91.265 -116.9850
18.250000 91.337 -117.5335
18.500000 91.407 -118.0883
18.750000 91.475 -118.6432
19.000000 91.540 -119.1926
19.250000 91.604 -119.7274
19.500000 91.666 -120.2456
19.750000 91.727 -120.7462
20.000000 91.788 -121.2341
20.299999 91.860 -121.8125
20.600000 91.933 -122.3906
20.900000 92.003 -122.9729
21.200001 92.070 -123.5584
21.400000 92.113 -123.9479
21.799999 92.193 -124.7206
22.000000 92.232 -125.1017
22.400000 92.304 -125.8508
22.700001 92.356 -126.3977
23.000000 92.405 -126.9283
23.299999 92.453 -127.4414
23.600000 92.501 -127.9376
24.000000 92.565 -128.5782
24.299999 92.614 -129.0497
24.700001 92.679 -129.6751
25.000000 92.727 -130.1440
25.400000 92.788 -130.7651
25.799999 92.846 -131.3731
26.200001 92.900 -131.9620
26.500000 92.940 -132.3908
26.900000 92.993 -132.9484
27.200001 93.032 -133.3587
27.600000 93.083 -133.8988
28.000000 93.132 -134.4327
28.500000 93.192 -135.0929
29.000000 93.247 -135.7451
29.500000 93.299 -136.3858
30.000000 93.346 -137.0077
30.400000 93.382 -137.4886
30.700001 93.407 -137.8398
31.100000 93.442 -138.2992
31.500000 93.476 -138.7532
32.000000 93.517 -139.3178
32.500000 93.557 -139.8748
33.000000 93.593 -140.4129
33.500000 93.628 -140.9287
34.000000 93.665 -141.4307
34.500000 93.701 -141.9267
35.000000 93.734 -142.4105
35.500000 93.766 -142.8708
36.000000 93.797 -143.3114
36.500000 93.829 -143.7505
37.000000 93.859 -144.1995
37.500000 93.886 -144.6514
38.200001 93.920 -145.2728
38.700001 93.942 -145.7135
39.500000 93.974 -146.4054
40.000000 93.992 -146.8056
40.599998 94.019 -147.2545
41.200001 94.051 -147.7032
41.799999 94.085 -148.1624
42.500000 94.123 -148.6874
43.099998 94.153 -149.1055
43.700001 94.183 -149.4590
44.400002 94.229 -149.7825
45.000000 94.288 -150.1034
45.500000 94.338 -150.5109
46.200001 94.373 -151.2391
46.799999 94.363 -151.7726
47.500000 94.344 -152.1207
48.200001 94.350 -152.3523
48.700001 94.364 -152.5628
49.400002 94.382 -152.9185
50.000000 94.395 -153.2306
50.799999 94.414 -153.6553
51.500000 94.430 -154.0365
52.200001 94.447 -154.4069
53.000000 94.468 -154.8272
53.799999 94.488 -155.2486
54.500000 94.504 -155.6057
55.200001 94.519 -155.9558
56.000000 94.533 -156.3393
57.000000 94.550 -156.7853
58.000000 94.565 -157.2327
59.000000 94.574 -157.6330
60.000000 94.590 -157.9635
60.799999 94.611 -158.2214
61.500000 94.635 -158.4838
62.200001 94.657 -158.8087
63.000000 94.668 -159.2077
64.000000 94.666 -159.6118
65.000000 94.670 -159.9338
66.000000 94.679 -160.2622
67.000000 94.688 -160.6041
68.000000 94.696 -160.9527
69.000000 94.704 -161.2918
70.000000 94.713 -161.6251
71.000000 94.720 -161.9387
72.000000 94.727 -162.2160
73.000000 94.737 -162.4745
74.000000 94.747 -162.7433
75.000000 94.754 -163.0295
76.199997 94.755 -163.3577
77.500000 94.755 -163.6645
78.800003 94.761 -163.9561
80.000000 94.769 -164.2662
81.199997 94.770 -164.5797
82.500000 94.770 -164.8837
83.800003 94.772 -165.1786
85.000000 94.774 -165.4628
86.199997 94.775 -165.7334
87.500000 94.780 -166.0160
88.500000 94.783 -166.2327
90.000000 94.787 -166.5441
91.199997 94.789 -166.7749
92.500000 94.792 -167.0137
93.800003 94.796 -167.2547
95.000000 94.799 -167.4936
96.199997 94.798 -167.7372
97.500000 94.794 -167.9677
98.800003 94.793 -168.1587
100.000000 94.795 -168.3408
101.500000 94.793 -168.5862
103.000000 94.787 -168.8091
104.400002 94.781 -168.9996
106.000000 94.778 -169.2083
107.500000 94.780 -169.4301
109.000000 94.779 -169.6891
110.599998 94.772 -169.9630
112.000000 94.762 -170.1561
113.800003 94.755 -170.3497
115.000000 94.755 -170.4768
117.199997 94.755 -170.7071
118.000000 94.755 -170.7833
120.599998 94.755 -171.0934
122.000000 94.746 -171.2610
124.099998 94.736 -171.4700
125.000000 94.733 -171.5702
126.500000 94.727 -171.7464
128.000000 94.720 -171.9108
131.500000 94.707 -172.2684
132.000000 94.705 -172.3155
134.000000 94.698 -172.4939
136.000000 94.696 -172.6812
138.000000 94.693 -172.8808
140.000000 94.690 -173.0534
143.000000 94.691 -173.2654
145.000000 94.691 -173.3949
147.500000 94.692 -173.5686
150.000000 94.687 -173.7800
152.500000 94.675 -173.9616
155.000000 94.662 -174.1082
157.500000 94.651 -174.2567
160.000000 94.641 -174.4046
162.500000 94.631 -174.5488
165.000000 94.620 -174.6852
167.500000 94.607 -174.8129
170.000000 94.595 -174.9392
172.500000 94.581 -175.0584
175.000000 94.565 -175.1718
177.500000 94.547 -175.2866
180.000000 94.528 -175.3857
182.500000 94.515 -175.4745
185.000000 94.501 -175.5552
187.500000 94.485 -175.6377
190.000000 94.469 -175.7368
192.500000 94.454 -175.8435
195.000000 94.441 -175.9309
197.500000 94.428 -175.9809
200.000000 94.416 -176.0184
203.000000 94.400 -176.0898
206.000000 94.382 -176.1758
209.000000 94.367 -176.2483
212.000000 94.351 -176.3077
214.000000 94.338 -176.3375
218.000000 94.311 -176.3868
220.000000 94.298 -176.4173
224.000000 94.273 -176.4881
227.000000 94.254 -176.5319
230.000000 94.235 -176.5643
233.000000 94.217 -176.5964
236.000000 94.198 -176.6261
240.000000 94.175 -176.6650
243.000000 94.160 -176.6840
247.000000 94.139 -176.6770
250.000000 94.123 -176.6770
254.000000 94.100 -176.6956
258.000000 94.077 -176.7055
262.000000 94.055 -176.7011
265.000000 94.039 -176.6920
269.000000 94.016 -176.6764
272.000000 93.999 -176.6598
276.000000 93.980 -176.6373
280.000000 93.959 -176.6155
285.000000 93.933 -176.5724
290.000000 93.911 -176.5219
295.000000 93.888 -176.4680
300.000000 93.865 -176.4074
304.000000 93.846 -176.3601
307.000000 93.830 -176.3186
311.000000 93.811 -176.2524
315.000000 93.793 -176.1854
320.000000 93.772 -176.0930
325.000000 93.751 -175.9956
330.000000 93.729 -175.9052
335.000000 93.705 -175.8014
340.000000 93.680 -175.6915
345.000000 93.653 -175.5695
350.000000 93.627 -175.4397
355.000000 93.601 -175.3177
360.000000 93.575 -175.1969
365.000000 93.548 -175.0726
370.000000 93.523 -174.9383
375.000000 93.498 -174.7993
382.000000 93.463 -174.6010
387.000000 93.438 -174.4477
395.000000 93.398 -174.1988
400.000000 93.370 -174.0385
406.000000 93.338 -173.8322
412.000000 93.306 -173.6261
418.000000 93.275 -173.4191
425.000000 93.240 -173.1705
431.000000 93.209 -172.9536
437.000000 93.178 -172.7255
444.000000 93.142 -172.4438
450.000000 93.112 -172.2040
455.000000 93.087 -172.0111
462.000000 93.054 -171.7354
468.000000 93.025 -171.4888
475.000000 92.991 -171.1941
482.000000 92.961 -170.8959
487.000000 92.940 -170.6788
494.000000 92.912 -170.3642
500.000000 92.888 -170.0883
508.000000 92.856 -169.7180
515.000000 92.828 -169.3970
522.000000 92.801 -169.0718
530.000000 92.771 -168.6869
538.000000 92.741 -168.2937
545.000000 92.717 -167.9476
552.000000 92.693 -167.5942
560.000000 92.667 -167.1790
570.000000 92.634 -166.6507
580.000000 92.601 -166.1178
590.000000 92.571 -165.5814
600.000000 92.541 -165.0317
608.000000 92.516 -164.5818
615.000000 92.493 -164.1814
622.000000 92.471 -163.7788
630.000000 92.446 -163.3157
640.000000 92.417 -162.7282
650.000000 92.388 -162.1317
660.000000 92.360 -161.5267
670.000000 92.334 -160.9139
680.000000 92.311 -160.2963
690.000000 92.289 -159.6721
700.000000 92.270 -159.0415
710.000000 92.253 -158.4069
720.000000 92.237 -157.7651
730.000000 92.222 -157.1176
740.000000 92.208 -156.4683
750.000000 92.193 -155.8111
762.000000 92.174 -155.0008
775.000000 92.150 -154.0594
788.000000 92.134 -152.9799
800.000000 92.147 -151.9164
812.000000 92.185 -150.9423
825.000000 92.233 -149.9898
838.000000 92.292 -149.0547
850.000000 92.378 -148.2232
862.000000 92.513 -147.6805
875.000000 92.654 -147.9925
885.000000 92.643 -148.7290
900.000000 92.424 -148.8688
912.000000 92.276 -147.8712
925.000000 92.218 -146.5566
938.000000 92.216 -145.3916
950.000000 92.231 -144.4610
962.000000 92.252 -143.6228
975.000000 92.274 -142.7795
988.000000 92.297 -141.9841
1000.000000 92.318 -141.2850
1015.000000 92.346 -140.4512
1030.000000 92.373 -139.6518
1044.000000 92.398 -138.9298
1060.000000 92.425 -138.1301
1075.000000 92.450 -137.4046
1090.000000 92.479 -136.6962
1106.000000 92.519 -135.9563
1120.000000 92.555 -135.3206
1138.000000 92.601 -134.5175
1150.000000 92.630 -133.9900
1172.000000 92.681 -133.0313
1180.000000 92.699 -132.6835
1206.000000 92.755 -131.5580
1220.000000 92.787 -130.9557
1241.000000 92.837 -130.0527
1250.000000 92.858 -129.6640
1265.000000 92.891 -129.0123
1280.000000 92.924 -128.3555
1315.000000 92.998 -126.8062
1320.000000 93.007 -126.5827
1340.000000 93.041 -125.6825
1360.000000 93.055 -124.7716
1380.000000 93.070 -123.8490
1400.000000 93.100 -122.9153
1430.000000 93.154 -121.4933
1450.000000 93.192 -120.5293
1475.000000 93.241 -119.3107
1500.000000 93.293 -118.0823
1525.000000 93.345 -116.8418
1550.000000 93.396 -115.5906
1575.000000 93.448 -114.3325
1600.000000 93.504 -113.0688
1625.000000 93.565 -111.8002
1650.000000 93.631 -110.5302
1675.000000 93.703 -109.2652
1700.000000 93.779 -108.0127
1725.000000 93.858 -106.7760
1750.000000 93.938 -105.5484
1775.000000 94.020 -104.3233
1800.000000 94.106 -103.0994
1825.000000 94.198 -101.8817
1850.000000 94.295 -100.6748
1875.000000 94.397 -99.4834
1900.000000 94.504 -98.3117
1925.000000 94.616 -97.1630
1950.000000 94.733 -96.0413
1975.000000 94.853 -94.9463
2000.000000 94.977 -93.8765
2030.000000 95.131 -92.6274
2060.000000 95.291 -91.4144
2090.000000 95.458 -90.2345
2120.000000 95.633 -89.0873
2140.000000 95.757 -88.3435
2180.000000 96.024 -86.9368
2200.000000 96.166 -86.2989
2240.000000 96.467 -85.2261
2270.000000 96.700 -84.6385
2300.000000 96.930 -84.2452
2330.000000 97.150 -84.0295
2360.000000 97.357 -83.9660
2400.000000 97.609 -84.0821
2430.000000 97.780 -84.3016
2470.000000 97.979 -84.7489
2500.000000 98.106 -85.1858
2540.000000 98.243 -85.8798
2580.000000 98.339 -86.6624
2620.000000 98.392 -87.4798
2650.000000 98.403 -88.0830
2690.000000 98.383 -88.8346
2720.000000 98.342 -89.3368
2760.000000 98.258 -89.9025
2800.000000 98.144 -90.3328
2850.000000 97.967 -90.6557
2900.000000 97.759 -90.7103
2950.000000 97.527 -90.4773
3000.000000 97.280 -89.9557
3040.000000 97.076 -89.3330
3070.000000 96.923 -88.7472
3110.000000 96.719 -87.8108
3150.000000 96.519 -86.7031
3200.000000 96.282 -85.0982
3250.000000 96.063 -83.2799
3300.000000 95.866 -81.2834
3350.000000 95.693 -79.1477
3400.000000 95.547 -76.9121
3450.000000 95.430 -74.6108
3500.000000 95.340 -72.2688
3550.000000 95.271 -69.9007
3600.000000 95.219 -67.5040
3650.000000 95.183 -65.0653
3700.000000 95.166 -62.5728
3750.000000 95.174 -60.0325
3820.000000 95.235 -56.4639
3870.000000 95.315 -53.9835
3950.000000 95.500 -50.2766
4000.000000 95.643 -48.1747
4060.000000 95.835 -45.9016
4120.000000 96.045 -43.9344
4180.000000 96.266 -42.3593
4250.000000 96.499 -41.2350
4310.000000 96.585 -40.8255
4370.000000 96.502 -40.0812
4440.000000 96.363 -37.2910
4500.000000 96.552 -34.1079
4550.000000 96.856 -32.7003
4620.000000 97.185 -32.4318
4680.000000 97.339 -32.7646
4750.000000 97.407 -33.3218
4820.000000 97.378 -33.9281
4870.000000 97.302 -34.3331
4940.000000 97.122 -34.7714
5000.000000 96.906 -34.9494
5080.000000 96.543 -34.7923
5150.000000 96.170 -34.2085
5220.000000 95.762 -33.1591
5300.000000 95.273 -31.3662
5380.000000 94.781 -28.9493
5450.000000 94.368 -26.3597
5520.000000 93.984 -23.3907
5600.000000 93.591 -19.6401
5700.000000 93.169 -14.5771
5800.000000 92.816 -9.2433
5900.000000 92.522 -3.7213
6000.000000 92.276 1.9910
6080.000000 92.113 6.7179
6150.000000 92.001 10.9758
6220.000000 91.918 15.3433
6300.000000 91.865 20.4551
6400.000000 91.864 26.9951
6500.000000 91.942 33.6566
6600.000000 92.109 40.3849
6700.000000 92.371 47.1227
6800.000000 92.745 53.7981
6900.000000 93.254 60.3227
7000.000000 93.906 66.5865
7100.000000 94.692 72.4444
7200.000000 95.611 77.7139
7300.000000 96.660 82.1804
7400.000000 97.833 85.5585
7500.000000 99.103 87.4678
7620.000000 100.677 87.2498
7750.000000 102.218 83.3677
7880.000000 103.244 75.9718
8000.000000 103.594 67.5937
8120.000000 103.400 59.7897
8250.000000 102.733 53.5714
8380.000000 101.792 50.2787
8500.000000 100.843 49.7567
8620.000000 99.934 51.2552
8750.000000 99.076 54.5871
8850.000000 98.537 58.0117
9000.000000 97.963 64.0437
9120.000000 97.718 69.2753
9250.000000 97.678 74.9904
9380.000000 97.880 80.3910
9500.000000 98.290 84.7047
9620.000000 98.913 87.8689
9750.000000 99.785 89.1952
9880.000000 100.712 87.2852
10000.000000 101.375 81.9980
10150.000000 101.559 71.5504
10300.000000 100.799 60.7508
10440.000000 99.364 54.2471
10600.000000 97.316 52.4891
10750.000000 95.413 55.2268
10900.000000 93.748 60.7133
11060.000000 92.313 68.4685
11200.000000 91.372 76.1205
11380.000000 90.554 86.0725
11500.000000 90.200 92.6806
11720.000000 89.998 104.5634
11800.000000 90.089 108.5749
12060.000000 91.055 118.5866
12200.000000 91.918 120.3296
12410.000000 93.055 114.5127
12500.000000 93.216 108.7362
12650.000000 92.751 97.1468
12800.000000 91.320 87.6140
13150.000000 85.833 86.1790
13200.000000 85.010 87.9220
13400.000000 81.969 97.5576
13600.000000 79.412 109.7800
13800.000000 77.287 123.3391
14000.000000 75.500 137.7621
14300.000000 73.327 160.5291
14500.000000 72.173 176.1750
14750.000000 71.016 -164.0331
15000.000000 70.150 -144.0242
15250.000000 69.608 -123.9041
15500.000000 69.460 -103.9144
15750.000000 69.765 -84.3627
16000.000000 70.590 -65.6152
16250.000000 72.123 -48.7552
16500.000000 74.360 -37.1255
16750.000000 76.460 -36.5616
17000.000000 77.092 -47.6494
17250.000000 75.655 -57.6631
17500.000000 72.730 -54.9296
17750.000000 69.486 -40.0623
18000.000000 66.947 -17.4873
18250.000000 65.971 8.4838
18500.000000 66.832 31.1848
18750.000000 68.158 44.7040
19000.000000 68.653 52.6031
19250.000000 68.258 63.3539
19500.000000 67.425 79.4233
19750.000000 66.499 99.5451
20000.000000 65.732 121.8862
20300.000000 65.086 148.5511
20600.000000 64.541 174.2254
20900.000000 63.982 -161.4819
21200.000000 63.396 -141.1292
21400.000000 62.871 -132.5102
21800.000000 60.765 -167.3467
22000.000000 58.841 34.8837
22400.000000 52.831 60.2888
22700.000000 46.507 166.9922
23000.000000 39.128 116.6719
23300.000000 33.681 100.0391
23600.000000 33.958 -56.7812
24000.000000 35.524 2.6016
