* Measurement data measured by REW V5.20.13
* Source: Headset (DS by VECLAN.COM), MICROPHONE (Master Volume), L, volume: 0.720. Timing signal peak level -8.8 dBFS, measurement signal peak level -8.8 dBFS
* Format: 2M Log Swept Sine, 1 sweep at -12.0 dBFS using an acoustic timing reference
* Dated: Jan 22, 2024 2:56:55 PM
* REW Settings:
*  C-weighting compensation: Off
*  Target level: 75.0 dB
* Note: ; Delay -0.0698 ms (-24 mm, -0.94 in) using estimated IR delay relative to Acoustic reference played from HEADPHONE R with no timing offset
* Measurement: TIN T2 S2 R
* Smoothing: 1/24 octave
* Frequency Step: 1/48 octave
* Start Frequency: 1.000 Hz
*
* Freq(Hz) SPL(dB) Phase(degrees)
1.000000 66.983 -54.3443
1.015000 67.224 -54.6933
1.030000 67.457 -55.0367
1.044000 67.667 -55.3509
1.060000 67.897 -55.7011
1.075000 68.100 -56.0194
1.090000 68.290 -56.3268
1.106000 68.479 -56.6431
1.120000 68.639 -56.9197
1.138000 68.840 -57.2776
1.150000 68.971 -57.5172
1.172000 69.205 -57.9570
1.180000 69.288 -58.1169
1.206000 69.551 -58.6348
1.220000 69.688 -58.9118
1.241000 69.887 -59.3234
1.250000 69.970 -59.4980
1.265000 70.105 -59.7862
1.280000 70.237 -60.0704
1.315000 70.529 -60.7140
1.320000 70.570 -60.8034
1.340000 70.726 -61.1539
1.360000 70.875 -61.4916
1.380000 71.018 -61.8153
1.400000 71.154 -62.1234
1.430000 71.345 -62.5533
1.450000 71.465 -62.8163
1.475000 71.603 -63.1158
1.500000 71.724 -63.3816
1.525000 71.827 -63.6163
1.550000 71.915 -63.8231
1.575000 71.989 -64.0052
1.600000 72.051 -64.1656
1.625000 72.105 -64.3076
1.650000 72.150 -64.4344
1.675000 72.191 -64.5490
1.700000 72.228 -64.6546
1.725000 72.264 -64.7544
1.750000 72.300 -64.8515
1.775000 72.340 -64.9491
1.800000 72.385 -65.0504
1.825000 72.436 -65.1585
1.850000 72.493 -65.2714
1.875000 72.547 -65.3787
1.900000 72.599 -65.4802
1.925000 72.650 -65.5763
1.950000 72.699 -65.6673
1.975000 72.748 -65.7536
2.000000 72.797 -65.8355
2.030000 72.856 -65.9285
2.060000 72.917 -66.0163
2.090000 72.980 -66.0995
2.120000 73.047 -66.1787
2.140000 73.095 -66.2296
2.180000 73.196 -66.3276
2.200000 73.251 -66.3751
2.240000 73.368 -66.4594
2.270000 73.462 -66.5126
2.300000 73.561 -66.5589
2.330000 73.663 -66.5999
2.360000 73.767 -66.6372
2.400000 73.910 -66.6839
2.430000 74.019 -66.7186
2.470000 74.164 -66.7676
2.500000 74.272 -66.8083
2.540000 74.415 -66.8709
2.580000 74.554 -66.9450
2.620000 74.693 -67.0213
2.650000 74.798 -67.0790
2.690000 74.937 -67.1581
2.720000 75.042 -67.2200
2.760000 75.182 -67.3071
2.800000 75.322 -67.4010
2.850000 75.498 -67.5307
2.900000 75.675 -67.6770
2.950000 75.852 -67.8424
3.000000 76.031 -68.0229
3.040000 76.175 -68.1772
3.070000 76.284 -68.2987
3.110000 76.429 -68.4685
3.150000 76.573 -68.6472
3.200000 76.753 -68.8831
3.250000 76.931 -69.1330
3.300000 77.106 -69.3970
3.350000 77.280 -69.6747
3.400000 77.454 -69.9660
3.450000 77.626 -70.2713
3.500000 77.796 -70.5906
3.550000 77.965 -70.9244
3.600000 78.130 -71.2727
3.650000 78.292 -71.6359
3.700000 78.452 -72.0161
3.750000 78.608 -72.4161
3.820000 78.824 -73.0036
3.870000 78.974 -73.4384
3.950000 79.209 -74.1514
4.000000 79.351 -74.6027
4.060000 79.517 -75.1473
4.120000 79.679 -75.7047
4.180000 79.836 -76.2734
4.250000 80.014 -76.9463
4.310000 80.161 -77.5272
4.370000 80.303 -78.1079
4.440000 80.462 -78.7859
4.500000 80.593 -79.3763
4.550000 80.698 -79.8714
4.620000 80.839 -80.5625
4.680000 80.956 -81.1469
4.750000 81.086 -81.8111
4.820000 81.212 -82.4571
4.870000 81.297 -82.9137
4.940000 81.411 -83.5422
5.000000 81.505 -84.0672
5.080000 81.625 -84.7412
5.150000 81.727 -85.3016
5.220000 81.823 -85.8397
5.300000 81.928 -86.4279
5.380000 82.028 -86.9847
5.450000 82.114 -87.4438
5.520000 82.199 -87.8743
5.600000 82.293 -88.3297
5.700000 82.406 -88.8502
5.800000 82.519 -89.3257
5.900000 82.634 -89.7630
6.000000 82.749 -90.1490
6.080000 82.842 -90.4297
6.150000 82.924 -90.6640
6.220000 83.008 -90.8950
6.300000 83.106 -91.1505
6.400000 83.232 -91.4482
6.500000 83.360 -91.7400
6.600000 83.489 -92.0454
6.700000 83.622 -92.3610
6.800000 83.757 -92.6828
6.900000 83.892 -93.0219
7.000000 84.025 -93.3878
7.100000 84.159 -93.7780
7.200000 84.292 -94.1888
7.300000 84.422 -94.6177
7.400000 84.548 -95.0662
7.500000 84.670 -95.5374
7.620000 84.812 -96.1178
7.750000 84.957 -96.7494
7.880000 85.094 -97.3944
8.000000 85.213 -97.9855
8.120000 85.326 -98.5560
8.250000 85.441 -99.1604
8.380000 85.550 -99.7403
8.500000 85.647 -100.2439
8.620000 85.739 -100.7207
8.750000 85.837 -101.2091
8.850000 85.911 -101.5644
9.000000 86.021 -102.0615
9.120000 86.108 -102.4392
9.250000 86.204 -102.8340
9.380000 86.302 -103.2099
9.500000 86.391 -103.5530
9.620000 86.477 -103.8987
9.750000 86.569 -104.2710
9.880000 86.654 -104.6462
10.000000 86.725 -104.9998
10.150000 86.803 -105.4462
10.300000 86.872 -105.8848
10.440000 86.927 -106.2884
10.600000 86.983 -106.7370
10.750000 87.035 -107.1390
10.900000 87.084 -107.5255
11.060000 87.136 -107.9203
11.200000 87.181 -108.2513
11.380000 87.241 -108.6531
11.500000 87.280 -108.9027
11.720000 87.356 -109.3360
11.800000 87.385 -109.4879
12.060000 87.487 -109.9671
12.200000 87.547 -110.2351
12.410000 87.640 -110.6503
12.500000 87.680 -110.8376
12.650000 87.748 -111.1612
12.800000 87.814 -111.4997
13.150000 87.961 -112.3532
13.200000 87.981 -112.4795
13.400000 88.057 -112.9991
13.600000 88.127 -113.5172
13.800000 88.191 -114.0267
14.000000 88.249 -114.5089
14.300000 88.328 -115.1699
14.500000 88.377 -115.5536
14.750000 88.440 -115.9790
15.000000 88.509 -116.3537
15.250000 88.588 -116.7156
15.500000 88.673 -117.0925
15.750000 88.763 -117.5000
16.000000 88.850 -117.9533
16.250000 88.930 -118.4398
16.500000 89.003 -118.9426
16.750000 89.065 -119.4307
17.000000 89.122 -119.8693
17.250000 89.176 -120.2490
17.500000 89.232 -120.5608
17.750000 89.294 -120.8270
18.000000 89.364 -121.0713
18.250000 89.441 -121.3202
18.500000 89.525 -121.6042
18.750000 89.612 -121.9286
19.000000 89.699 -122.2979
19.250000 89.784 -122.7015
19.500000 89.865 -123.1275
19.750000 89.943 -123.5672
20.000000 90.016 -124.0128
20.299999 90.099 -124.5566
20.600000 90.176 -125.1076
20.900000 90.245 -125.6574
21.200001 90.303 -126.1850
21.400000 90.337 -126.5055
21.799999 90.399 -127.0448
22.000000 90.430 -127.2580
22.400000 90.503 -127.5895
22.700001 90.572 -127.8043
23.000000 90.653 -128.0525
23.299999 90.742 -128.3793
23.600000 90.829 -128.7976
24.000000 90.931 -129.4738
24.299999 90.991 -130.0157
24.700001 91.050 -130.7000
25.000000 91.083 -131.1395
25.400000 91.122 -131.6097
25.799999 91.168 -131.9842
26.200001 91.224 -132.3302
26.500000 91.270 -132.6051
26.900000 91.333 -133.0087
27.200001 91.377 -133.3337
27.600000 91.432 -133.7771
28.000000 91.481 -134.2088
28.500000 91.539 -134.7132
29.000000 91.597 -135.1787
29.500000 91.658 -135.6174
30.000000 91.724 -136.0527
30.400000 91.780 -136.4211
30.700001 91.822 -136.7182
31.100000 91.875 -137.1416
31.500000 91.922 -137.5787
32.000000 91.972 -138.0965
32.500000 92.016 -138.5375
33.000000 92.066 -138.9067
33.500000 92.126 -139.2610
34.000000 92.193 -139.6663
34.500000 92.255 -140.1397
35.000000 92.304 -140.6333
35.500000 92.340 -141.0675
36.000000 92.374 -141.4052
36.500000 92.416 -141.6868
37.000000 92.468 -141.9948
37.500000 92.521 -142.3715
38.200001 92.581 -142.9566
38.700001 92.615 -143.3525
39.500000 92.669 -143.9377
40.000000 92.703 -144.3022
40.599998 92.743 -144.7438
41.200001 92.780 -145.1785
41.799999 92.814 -145.5916
42.500000 92.854 -146.0262
43.099998 92.894 -146.3722
43.700001 92.938 -146.7312
44.400002 92.990 -147.1750
45.000000 93.036 -147.5865
45.500000 93.070 -147.9883
46.200001 93.095 -148.6161
46.799999 93.087 -149.0386
47.500000 93.081 -149.2155
48.200001 93.124 -149.2572
48.700001 93.179 -149.4072
49.400002 93.251 -149.8477
50.000000 93.290 -150.2902
50.799999 93.324 -150.7625
51.500000 93.360 -151.0779
52.200001 93.403 -151.4172
53.000000 93.441 -151.8431
53.799999 93.468 -152.1774
54.500000 93.497 -152.4221
55.200001 93.526 -152.7241
56.000000 93.541 -153.0758
57.000000 93.553 -153.4018
58.000000 93.571 -153.7478
59.000000 93.589 -154.1518
60.000000 93.608 -154.6449
60.799999 93.618 -155.0642
61.500000 93.629 -155.4126
62.200001 93.644 -155.7332
63.000000 93.676 -156.0509
64.000000 93.743 -156.5881
65.000000 93.768 -157.3387
66.000000 93.745 -157.6438
67.000000 93.772 -157.5737
68.000000 93.830 -157.7023
69.000000 93.865 -157.9489
70.000000 93.883 -158.1683
71.000000 93.900 -158.3526
72.000000 93.924 -158.6086
73.000000 93.939 -158.9572
74.000000 93.941 -159.2823
75.000000 93.943 -159.5213
76.199997 93.965 -159.7757
77.500000 93.989 -160.1973
78.800003 93.998 -160.5794
80.000000 94.013 -160.9311
81.199997 94.027 -161.3136
82.500000 94.037 -161.6840
83.800003 94.055 -161.9487
85.000000 94.082 -162.2061
86.199997 94.103 -162.4808
87.500000 94.121 -162.7833
88.500000 94.129 -163.0403
90.000000 94.131 -163.3787
91.199997 94.138 -163.5925
92.500000 94.155 -163.7772
93.800003 94.183 -163.9794
95.000000 94.201 -164.2219
96.199997 94.203 -164.4265
97.500000 94.204 -164.5990
98.800003 94.211 -164.8230
100.000000 94.219 -165.0823
101.500000 94.237 -165.3843
103.000000 94.272 -165.7215
104.400002 94.292 -166.0785
106.000000 94.288 -166.3585
107.500000 94.276 -166.4955
109.000000 94.266 -166.6654
110.599998 94.255 -166.9167
112.000000 94.254 -167.1522
113.800003 94.266 -167.4460
115.000000 94.280 -167.6321
117.199997 94.293 -167.9093
118.000000 94.295 -167.9748
120.599998 94.313 -168.2603
122.000000 94.319 -168.4806
124.099998 94.333 -168.8125
125.000000 94.339 -169.0001
126.500000 94.334 -169.3424
128.000000 94.315 -169.5851
131.500000 94.271 -169.7094
132.000000 94.273 -169.6512
134.000000 94.316 -169.5973
136.000000 94.340 -169.8942
138.000000 94.352 -170.2203
140.000000 94.382 -170.5627
143.000000 94.438 -170.9225
145.000000 94.443 -171.1975
147.500000 94.387 -171.4865
150.000000 94.355 -171.7792
152.500000 94.352 -171.9946
155.000000 94.354 -171.9624
157.500000 94.344 -172.0359
160.000000 94.349 -172.4768
162.500000 94.381 -173.0804
165.000000 94.407 -173.3181
167.500000 94.412 -173.2286
170.000000 94.388 -173.2011
172.500000 94.369 -173.3578
175.000000 94.366 -173.6020
177.500000 94.368 -173.7875
180.000000 94.367 -173.9898
182.500000 94.355 -174.2860
185.000000 94.337 -174.5407
187.500000 94.320 -174.6930
190.000000 94.302 -174.7864
192.500000 94.293 -174.8319
195.000000 94.312 -174.8852
197.500000 94.335 -175.0441
200.000000 94.332 -175.1759
203.000000 94.320 -175.2768
206.000000 94.315 -175.4938
209.000000 94.307 -175.7838
212.000000 94.303 -176.0318
214.000000 94.304 -176.1405
218.000000 94.290 -176.3258
220.000000 94.265 -176.4087
224.000000 94.219 -176.5699
227.000000 94.201 -176.7210
230.000000 94.182 -176.9658
233.000000 94.144 -177.1556
236.000000 94.124 -177.1386
240.000000 94.141 -177.2969
243.000000 94.131 -177.5140
247.000000 94.104 -177.6772
250.000000 94.085 -177.7847
254.000000 94.059 -177.9487
258.000000 94.026 -178.0109
262.000000 93.992 -177.9784
265.000000 93.972 -178.0264
269.000000 93.947 -178.2021
272.000000 93.929 -178.3196
276.000000 93.905 -178.4655
280.000000 93.888 -178.5925
285.000000 93.870 -178.6628
290.000000 93.839 -178.7319
295.000000 93.794 -178.8391
300.000000 93.750 -178.9989
304.000000 93.739 -179.0477
307.000000 93.734 -179.0692
311.000000 93.719 -179.0870
315.000000 93.693 -179.0600
320.000000 93.662 -179.0596
325.000000 93.641 -179.1726
330.000000 93.607 -179.2623
335.000000 93.554 -179.1486
340.000000 93.509 -178.9649
345.000000 93.481 -178.8677
350.000000 93.457 -178.9559
355.000000 93.422 -179.1623
360.000000 93.378 -179.2475
365.000000 93.336 -179.2636
370.000000 93.300 -179.2302
375.000000 93.266 -179.1664
382.000000 93.214 -179.0941
387.000000 93.176 -179.0419
395.000000 93.105 -179.0343
400.000000 93.066 -178.9625
406.000000 93.025 -178.7852
412.000000 92.979 -178.5583
418.000000 92.934 -178.4333
425.000000 92.858 -178.3691
431.000000 92.793 -178.2428
437.000000 92.739 -178.0173
444.000000 92.690 -177.7472
450.000000 92.651 -177.6167
455.000000 92.610 -177.5215
462.000000 92.539 -177.2795
468.000000 92.484 -176.9922
475.000000 92.443 -176.6992
482.000000 92.417 -176.4583
487.000000 92.384 -176.2870
494.000000 92.313 -176.0756
500.000000 92.254 -175.7775
508.000000 92.216 -175.5110
515.000000 92.131 -175.4745
522.000000 92.016 -174.9581
530.000000 91.966 -174.2962
538.000000 91.948 -174.0302
545.000000 91.925 -173.8956
552.000000 91.900 -173.4555
560.000000 91.865 -172.7693
570.000000 91.799 -172.1700
580.000000 91.743 -171.6246
590.000000 91.695 -170.9864
600.000000 91.645 -170.3296
608.000000 91.601 -169.8815
615.000000 91.564 -169.4890
622.000000 91.532 -169.0035
630.000000 91.484 -168.3744
640.000000 91.460 -167.6890
650.000000 91.414 -166.6702
660.000000 91.319 -165.7620
670.000000 91.265 -165.2941
680.000000 91.237 -164.7586
690.000000 91.212 -164.1797
700.000000 91.194 -163.5605
710.000000 91.160 -162.6399
720.000000 91.130 -161.6801
730.000000 91.110 -160.9485
740.000000 91.097 -160.2266
750.000000 91.093 -159.3863
762.000000 91.088 -158.4136
775.000000 91.081 -157.4502
788.000000 91.080 -156.3623
800.000000 91.063 -155.3391
812.000000 91.064 -154.3941
825.000000 91.081 -153.3319
838.000000 91.100 -152.2644
850.000000 91.124 -151.2871
862.000000 91.153 -150.2901
875.000000 91.194 -149.1927
885.000000 91.238 -148.3476
900.000000 91.329 -147.1663
912.000000 91.417 -146.3750
925.000000 91.509 -145.6959
938.000000 91.588 -145.1468
950.000000 91.649 -144.6997
962.000000 91.700 -144.3083
975.000000 91.741 -143.9435
988.000000 91.766 -143.6023
1000.000000 91.775 -143.2717
1015.000000 91.768 -142.7916
1030.000000 91.748 -142.1860
1044.000000 91.729 -141.5023
1060.000000 91.717 -140.6013
1075.000000 91.718 -139.6756
1090.000000 91.737 -138.7211
1106.000000 91.781 -137.7193
1120.000000 91.830 -136.8932
1138.000000 91.901 -135.8944
1150.000000 91.953 -135.2515
1172.000000 92.050 -134.1139
1180.000000 92.085 -133.7158
1206.000000 92.196 -132.4653
1220.000000 92.256 -131.8180
1241.000000 92.347 -130.8758
1250.000000 92.386 -130.4723
1265.000000 92.449 -129.8005
1280.000000 92.512 -129.1418
1315.000000 92.651 -127.6175
1320.000000 92.672 -127.3931
1340.000000 92.749 -126.5355
1360.000000 92.804 -125.6571
1380.000000 92.861 -124.7321
1400.000000 92.936 -123.7889
1430.000000 93.069 -122.4354
1450.000000 93.167 -121.5791
1475.000000 93.291 -120.5137
1500.000000 93.407 -119.4165
1525.000000 93.487 -118.4362
1550.000000 93.556 -117.4214
1575.000000 93.644 -116.3886
1600.000000 93.744 -115.3319
1625.000000 93.838 -114.2280
1650.000000 93.935 -113.0887
1675.000000 94.043 -111.9422
1700.000000 94.158 -110.7827
1725.000000 94.278 -109.6333
1750.000000 94.399 -108.5389
1775.000000 94.533 -107.4138
1800.000000 94.674 -106.3123
1825.000000 94.819 -105.2569
1850.000000 94.967 -104.2058
1875.000000 95.120 -103.1759
1900.000000 95.277 -102.1649
1925.000000 95.438 -101.1768
1950.000000 95.605 -100.2269
1975.000000 95.778 -99.3093
2000.000000 95.955 -98.4281
2030.000000 96.176 -97.4400
2060.000000 96.406 -96.5200
2090.000000 96.647 -95.6712
2120.000000 96.895 -94.9099
2140.000000 97.064 -94.4530
2180.000000 97.409 -93.6725
2200.000000 97.582 -93.3570
2240.000000 97.926 -92.8740
2270.000000 98.178 -92.6340
2300.000000 98.426 -92.4896
2330.000000 98.670 -92.4374
2360.000000 98.909 -92.4763
2400.000000 99.220 -92.6674
2430.000000 99.445 -92.9105
2470.000000 99.733 -93.3351
2500.000000 99.947 -93.7190
2540.000000 100.238 -94.3780
2580.000000 100.530 -95.3427
2620.000000 100.795 -96.6815
2650.000000 100.960 -97.8879
2690.000000 101.127 -99.6577
2720.000000 101.211 -101.0317
2760.000000 101.269 -102.8428
2800.000000 101.272 -104.5683
2850.000000 101.208 -106.5225
2900.000000 101.082 -108.1710
2950.000000 100.907 -109.4533
3000.000000 100.703 -110.3462
3040.000000 100.528 -110.7794
3070.000000 100.394 -110.9473
3110.000000 100.217 -110.9775
3150.000000 100.048 -110.8073
3200.000000 99.855 -110.3584
3250.000000 99.685 -109.7020
3300.000000 99.541 -108.9217
3350.000000 99.419 -108.1017
3400.000000 99.307 -107.2456
3450.000000 99.203 -106.3001
3500.000000 99.113 -105.2286
3550.000000 99.044 -104.0339
3600.000000 99.001 -102.7705
3650.000000 98.983 -101.4961
3700.000000 98.987 -100.2507
3750.000000 99.009 -99.0567
3820.000000 99.063 -97.4877
3870.000000 99.115 -96.4540
3950.000000 99.211 -94.9647
4000.000000 99.278 -94.1361
4060.000000 99.363 -93.2223
4120.000000 99.455 -92.3705
4180.000000 99.563 -91.5887
4250.000000 99.714 -90.8581
4310.000000 99.855 -90.5014
4370.000000 99.985 -90.4532
4440.000000 100.109 -90.7145
4500.000000 100.200 -91.1802
4550.000000 100.259 -91.8084
4620.000000 100.288 -93.0313
4680.000000 100.248 -94.2558
4750.000000 100.124 -95.7346
4820.000000 99.919 -97.1406
4870.000000 99.727 -98.0347
4940.000000 99.398 -99.0455
5000.000000 99.069 -99.6218
5080.000000 98.581 -99.9023
5150.000000 98.125 -99.6662
5220.000000 97.658 -98.9898
5300.000000 97.125 -97.7236
5380.000000 96.605 -95.9792
5450.000000 96.166 -94.0843
5520.000000 95.750 -91.8690
5600.000000 95.310 -88.9948
5700.000000 94.822 -85.0007
5800.000000 94.398 -80.6567
5900.000000 94.038 -76.0133
6000.000000 93.746 -71.1052
6080.000000 93.565 -67.0219
6150.000000 93.448 -63.3605
6220.000000 93.369 -59.6350
6300.000000 93.326 -55.3232
6400.000000 93.345 -49.8956
6500.000000 93.443 -44.4693
6600.000000 93.621 -39.0861
6700.000000 93.885 -33.7889
6800.000000 94.247 -28.6234
6900.000000 94.729 -23.6470
7000.000000 95.341 -18.9611
7100.000000 96.075 -14.7235
7200.000000 96.920 -11.1639
7300.000000 97.841 -8.5303
7400.000000 98.790 -6.7835
7500.000000 99.823 -5.5043
7620.000000 101.364 -5.1626
7750.000000 103.201 -9.0708
7880.000000 104.591 -19.0717
8000.000000 105.075 -32.2449
8120.000000 104.667 -45.3301
8250.000000 103.455 -55.4523
8380.000000 101.894 -60.3742
8500.000000 100.469 -61.3130
8620.000000 99.204 -59.9680
8750.000000 98.054 -56.9014
8850.000000 97.325 -53.8301
9000.000000 96.475 -48.5454
9120.000000 95.992 -44.0199
9250.000000 95.658 -39.0820
9380.000000 95.511 -34.3471
9500.000000 95.535 -30.3877
9620.000000 95.708 -27.0804
9750.000000 96.047 -24.5972
9880.000000 96.492 -23.7257
10000.000000 96.910 -24.7713
10150.000000 97.261 -28.8597
10300.000000 97.190 -35.3885
10440.000000 96.608 -41.9568
10600.000000 95.371 -47.5702
10750.000000 93.853 -49.6816
10900.000000 92.217 -48.7319
11060.000000 90.529 -45.0183
11200.000000 89.189 -40.0803
11380.000000 87.722 -32.2592
11500.000000 86.900 -26.5861
11720.000000 85.622 -15.4488
11800.000000 85.227 -11.1327
12060.000000 84.232 3.5804
12200.000000 83.878 11.7624
12410.000000 83.583 24.1746
12500.000000 83.547 29.5007
12650.000000 83.623 38.3203
12800.000000 83.887 46.9763
13150.000000 85.455 65.4153
13200.000000 85.818 67.6391
13400.000000 87.676 74.2700
13600.000000 89.935 74.1640
13800.000000 91.647 62.6616
14000.000000 91.698 42.7091
14300.000000 88.425 24.7061
14500.000000 85.320 26.5586
14750.000000 81.950 37.1320
15000.000000 79.525 51.4618
15250.000000 77.857 67.2404
15500.000000 76.794 83.5845
15750.000000 76.267 100.0706
16000.000000 76.222 116.2794
16250.000000 76.648 131.5637
16500.000000 77.565 145.2351
16750.000000 79.064 156.0117
17000.000000 80.924 160.3148
17250.000000 82.212 154.2249
17500.000000 81.917 142.0937
17750.000000 79.920 136.6529
18000.000000 77.095 143.5103
18250.000000 74.675 158.9067
18500.000000 73.557 177.0594
18750.000000 73.765 -166.3520
19000.000000 74.572 -153.7824
19250.000000 74.996 -145.1116
19500.000000 74.564 -136.0685
19750.000000 73.556 -122.9047
20000.000000 72.483 -105.6868
20300.000000 71.701 -82.4297
20600.000000 71.762 -59.4237
20900.000000 72.465 -39.2591
21200.000000 73.491 -24.5483
21400.000000 74.060 -19.6304
21800.000000 73.706 -36.4831
22000.000000 72.204 -106.3746
22400.000000 65.853 -125.6794
22700.000000 58.570 163.7612
23000.000000 49.781 122.3672
23300.000000 40.409 152.5195
23600.000000 33.593 -59.8555
24000.000000 31.438 -131.7070
