* Measurement data measured by REW V5.20.13
* Source: Headset (DS by VECLAN.COM), MICROPHONE (Master Volume), L, volume: 0.710. Timing signal peak level -14.9 dBFS, measurement signal peak level -14.7 dBFS
* Format: 2M Log Swept Sine, 1 sweep at -12.0 dBFS using an acoustic timing reference
* Dated: Nov 12, 2023 6:16:31 PM
* REW Settings:
*  C-weighting compensation: Off
*  Target level: 75.0 dB
* Note: ; Delay -0.0637 ms (-22 mm, -0.86 in) using estimated IR delay relative to Acoustic reference played from HEADPHONE R with no timing offset
* Measurement: CP145 R
* Smoothing: 1/24 octave
* Frequency Step: 1/48 octave
* Start Frequency: 1.000 Hz
*
* Freq(Hz) SPL(dB) Phase(degrees)
1.000000 68.467 -61.3956
1.015000 68.621 -61.4411
1.030000 68.774 -61.4571
1.044000 68.915 -61.4437
1.060000 69.073 -61.3922
1.075000 69.218 -61.3067
1.090000 69.359 -61.1827
1.106000 69.505 -61.0051
1.120000 69.633 -60.8077
1.138000 69.799 -60.4992
1.150000 69.911 -60.2615
1.172000 70.116 -59.7650
1.180000 70.191 -59.5663
1.206000 70.435 -58.8614
1.220000 70.567 -58.4480
1.241000 70.765 -57.7900
1.250000 70.850 -57.4958
1.265000 70.991 -56.9914
1.280000 71.133 -56.4722
1.315000 71.461 -55.2188
1.320000 71.507 -55.0366
1.340000 71.693 -54.3040
1.360000 71.877 -53.5707
1.380000 72.059 -52.8436
1.400000 72.240 -52.1296
1.430000 72.506 -51.0982
1.450000 72.680 -50.4471
1.475000 72.893 -49.6776
1.500000 73.100 -48.8902
1.525000 73.303 -48.0745
1.550000 73.500 -47.2389
1.575000 73.694 -46.3915
1.600000 73.886 -45.5406
1.625000 74.075 -44.6944
1.650000 74.264 -43.8612
1.675000 74.452 -43.0491
1.700000 74.640 -42.2665
1.725000 74.830 -41.5216
1.750000 75.023 -40.8226
1.775000 75.218 -40.1777
1.800000 75.417 -39.5952
1.825000 75.621 -39.0832
1.850000 75.829 -38.6420
1.875000 76.042 -38.2546
1.900000 76.258 -37.9173
1.925000 76.478 -37.6270
1.950000 76.699 -37.3807
1.975000 76.922 -37.1754
2.000000 77.147 -37.0081
2.030000 77.417 -36.8533
2.060000 77.687 -36.7435
2.090000 77.956 -36.6737
2.120000 78.222 -36.6386
2.140000 78.398 -36.6319
2.180000 78.746 -36.6516
2.200000 78.916 -36.6750
2.240000 79.255 -36.7825
2.270000 79.509 -36.9221
2.300000 79.762 -37.1071
2.330000 80.014 -37.3324
2.360000 80.264 -37.5933
2.400000 80.593 -37.9880
2.430000 80.838 -38.3129
2.470000 81.158 -38.7755
2.500000 81.393 -39.1380
2.540000 81.700 -39.6331
2.580000 81.998 -40.1356
2.620000 82.288 -40.6759
2.650000 82.502 -41.1082
2.690000 82.781 -41.7161
2.720000 82.986 -42.1924
2.760000 83.254 -42.8498
2.800000 83.516 -43.5272
2.850000 83.836 -44.3932
2.900000 84.147 -45.2698
2.950000 84.449 -46.1490
3.000000 84.742 -47.0549
3.040000 84.970 -47.7998
3.070000 85.137 -48.3679
3.110000 85.355 -49.1351
3.150000 85.567 -49.9101
3.200000 85.825 -50.8844
3.250000 86.076 -51.8585
3.300000 86.319 -52.8254
3.350000 86.554 -53.7941
3.400000 86.781 -54.7715
3.450000 87.000 -55.7537
3.500000 87.211 -56.7367
3.550000 87.415 -57.7167
3.600000 87.613 -58.6896
3.650000 87.805 -59.6516
3.700000 87.991 -60.6037
3.750000 88.169 -61.5544
3.820000 88.408 -62.8779
3.870000 88.571 -63.8136
3.950000 88.820 -65.2849
4.000000 88.970 -66.1835
4.060000 89.145 -67.2374
4.120000 89.311 -68.2727
4.180000 89.469 -69.2890
4.250000 89.645 -70.4476
4.310000 89.791 -71.4149
4.370000 89.931 -72.3561
4.440000 90.090 -73.4198
4.500000 90.220 -74.3046
4.550000 90.324 -75.0231
4.620000 90.465 -76.0001
4.680000 90.582 -76.8106
4.750000 90.716 -77.7244
4.820000 90.847 -78.6016
4.870000 90.938 -79.2046
4.940000 91.062 -80.0193
5.000000 91.166 -80.6934
5.080000 91.303 -81.5631
5.150000 91.422 -82.3006
5.220000 91.540 -83.0068
5.300000 91.674 -83.7791
5.380000 91.806 -84.5249
5.450000 91.921 -85.1646
5.520000 92.036 -85.7981
5.600000 92.169 -86.5013
5.700000 92.333 -87.3554
5.800000 92.497 -88.2002
5.900000 92.660 -89.0522
6.000000 92.822 -89.9008
6.080000 92.952 -90.5789
6.150000 93.063 -91.1753
6.220000 93.172 -91.7776
6.300000 93.295 -92.4745
6.400000 93.446 -93.3546
6.500000 93.593 -94.2403
6.600000 93.734 -95.1273
6.700000 93.869 -96.0200
6.800000 93.999 -96.9167
6.900000 94.124 -97.8071
7.000000 94.243 -98.6830
7.100000 94.355 -99.5520
7.200000 94.463 -100.4093
7.300000 94.566 -101.2464
7.400000 94.665 -102.0587
7.500000 94.759 -102.8509
7.620000 94.867 -103.7735
7.750000 94.982 -104.7353
7.880000 95.092 -105.6547
8.000000 95.192 -106.4772
8.120000 95.291 -107.2829
8.250000 95.398 -108.1288
8.380000 95.503 -108.9638
8.500000 95.599 -109.7375
8.620000 95.695 -110.5076
8.750000 95.795 -111.3450
8.850000 95.869 -111.9973
9.000000 95.976 -112.9870
9.120000 96.057 -113.7788
9.250000 96.138 -114.6341
9.380000 96.214 -115.4897
9.500000 96.276 -116.2595
9.620000 96.329 -117.0035
9.750000 96.378 -117.7867
9.880000 96.417 -118.5219
10.000000 96.442 -119.1497
10.150000 96.460 -119.8733
10.300000 96.475 -120.5153
10.440000 96.484 -121.0302
10.600000 96.497 -121.5577
10.750000 96.522 -122.0063
10.900000 96.556 -122.4183
11.060000 96.606 -122.8918
11.200000 96.660 -123.3248
11.380000 96.737 -123.9495
11.500000 96.791 -124.4209
11.720000 96.891 -125.3805
11.800000 96.924 -125.7631
12.060000 97.023 -127.1046
12.200000 97.064 -127.8519
12.410000 97.111 -128.9868
12.500000 97.126 -129.4436
12.650000 97.140 -130.1791
12.800000 97.150 -130.8580
13.150000 97.166 -132.1549
13.200000 97.170 -132.3169
13.400000 97.194 -132.8914
13.600000 97.232 -133.4402
13.800000 97.287 -133.9877
14.000000 97.350 -134.6116
14.300000 97.451 -135.7157
14.500000 97.507 -136.5771
14.750000 97.554 -137.7026
15.000000 97.574 -138.8270
15.250000 97.570 -139.8177
15.500000 97.559 -140.6163
15.750000 97.550 -141.2128
16.000000 97.564 -141.6488
16.250000 97.607 -142.0731
16.500000 97.674 -142.5698
16.750000 97.758 -143.2559
17.000000 97.833 -144.1436
17.250000 97.889 -145.1861
17.500000 97.912 -146.3101
17.750000 97.901 -147.3589
18.000000 97.866 -148.2655
18.250000 97.817 -148.9577
18.500000 97.778 -149.4440
18.750000 97.757 -149.7938
19.000000 97.762 -150.0731
19.250000 97.792 -150.4059
19.500000 97.835 -150.8284
19.750000 97.883 -151.3661
20.000000 97.923 -151.9936
20.299999 97.957 -152.7912
20.600000 97.977 -153.5712
20.900000 97.990 -154.2852
21.200001 98.004 -154.9320
21.400000 98.016 -155.3490
21.799999 98.046 -156.1911
22.000000 98.061 -156.6297
22.400000 98.082 -157.5355
22.700001 98.087 -158.1996
23.000000 98.084 -158.8071
23.299999 98.078 -159.3409
23.600000 98.074 -159.8081
24.000000 98.078 -160.3664
24.299999 98.087 -160.7789
24.700001 98.103 -161.3623
25.000000 98.111 -161.8304
25.400000 98.112 -162.4718
25.799999 98.099 -163.0840
26.200001 98.076 -163.6301
26.500000 98.058 -163.9951
26.900000 98.033 -164.4384
27.200001 98.014 -164.7460
27.600000 97.987 -165.1096
28.000000 97.964 -165.3796
28.500000 97.962 -165.5792
29.000000 98.016 -165.8275
29.500000 98.114 -166.4579
30.000000 98.193 -167.6084
30.400000 98.206 -168.7226
30.700001 98.184 -169.5125
31.100000 98.131 -170.3507
31.500000 98.082 -170.9351
32.000000 98.054 -171.5129
32.500000 98.049 -172.1693
33.000000 98.030 -172.8865
33.500000 97.992 -173.4440
34.000000 97.971 -173.7612
34.500000 97.991 -174.0480
35.000000 98.033 -174.5474
35.500000 98.053 -175.2775
36.000000 98.032 -176.0288
36.500000 97.980 -176.5981
37.000000 97.929 -176.9392
37.500000 97.900 -177.1549
38.200001 97.902 -177.5313
38.700001 97.916 -177.9941
39.500000 97.905 -179.0334
40.000000 97.865 -179.6585
40.599998 97.807 179.8328
41.200001 97.783 179.5266
41.799999 97.805 179.1022
42.500000 97.831 178.1994
43.099998 97.799 177.3210
43.700001 97.733 176.7317
44.400002 97.680 176.4440
45.000000 97.678 176.2129
45.500000 97.685 175.8682
46.200001 97.671 175.2537
46.799999 97.636 174.7896
47.500000 97.593 174.3810
48.200001 97.560 174.0239
48.700001 97.541 173.7568
49.400002 97.517 173.3398
50.000000 97.494 172.9404
50.799999 97.456 172.3876
51.500000 97.418 171.9186
52.200001 97.378 171.4668
53.000000 97.328 171.0014
53.799999 97.283 170.6211
54.500000 97.256 170.2946
55.200001 97.234 169.9055
56.000000 97.198 169.4219
57.000000 97.142 168.8844
58.000000 97.087 168.4343
59.000000 97.040 168.0298
60.000000 97.003 167.5715
60.799999 96.969 167.1533
61.500000 96.934 166.7877
62.200001 96.896 166.4388
63.000000 96.850 166.0780
64.000000 96.800 165.6895
65.000000 96.761 165.2833
66.000000 96.716 164.8309
67.000000 96.660 164.4274
68.000000 96.605 164.1180
69.000000 96.558 163.8249
70.000000 96.509 163.5206
71.000000 96.461 163.2221
72.000000 96.415 162.9021
73.000000 96.366 162.5537
74.000000 96.310 162.2056
75.000000 96.249 161.8971
76.199997 96.181 161.5454
77.500000 96.107 161.1388
78.800003 96.031 160.7645
80.000000 95.969 160.4766
81.199997 95.922 160.1814
82.500000 95.870 159.7555
83.800003 95.789 159.3770
85.000000 95.713 159.1995
86.199997 95.655 159.0300
87.500000 95.601 158.7086
88.500000 95.553 158.3863
90.000000 95.470 157.9094
91.199997 95.397 157.6367
92.500000 95.328 157.5665
93.800003 95.290 157.5415
95.000000 95.255 157.4074
96.199997 95.203 157.2508
97.500000 95.138 157.1093
98.800003 95.073 156.9396
100.000000 95.011 156.7673
101.500000 94.938 156.5826
103.000000 94.877 156.3803
104.400002 94.817 156.1515
106.000000 94.738 155.9242
107.500000 94.663 155.7715
109.000000 94.592 155.6371
110.599998 94.520 155.5110
112.000000 94.459 155.4089
113.800003 94.380 155.2980
115.000000 94.326 155.2276
117.199997 94.224 155.1066
118.000000 94.188 155.0639
120.599998 94.075 154.9189
122.000000 94.020 154.8476
124.099998 93.941 154.6942
125.000000 93.906 154.6205
126.500000 93.844 154.5208
128.000000 93.786 154.4501
131.500000 93.659 154.4339
132.000000 93.643 154.4361
134.000000 93.575 154.4134
136.000000 93.501 154.3729
138.000000 93.428 154.3434
140.000000 93.364 154.3214
143.000000 93.265 154.2527
145.000000 93.191 154.2695
147.500000 93.108 154.3105
150.000000 93.031 154.3071
152.500000 92.953 154.3192
155.000000 92.881 154.3853
157.500000 92.806 154.4544
160.000000 92.720 154.5797
162.500000 92.630 154.6993
165.000000 92.554 154.7395
167.500000 92.492 154.7308
170.000000 92.427 154.8425
172.500000 92.353 155.0185
175.000000 92.268 155.1055
177.500000 92.187 155.1368
180.000000 92.115 155.2157
182.500000 92.040 155.3672
185.000000 91.966 155.5358
187.500000 91.897 155.7057
190.000000 91.832 155.9269
192.500000 91.772 156.1441
195.000000 91.717 156.2375
197.500000 91.657 156.2544
200.000000 91.590 156.3517
203.000000 91.508 156.5666
206.000000 91.430 156.8066
209.000000 91.363 157.0384
212.000000 91.287 157.2183
214.000000 91.232 157.3361
218.000000 91.141 157.5818
220.000000 91.103 157.7289
224.000000 91.024 158.1039
227.000000 90.960 158.3856
230.000000 90.899 158.6271
233.000000 90.846 158.8083
236.000000 90.789 159.0024
240.000000 90.708 159.4046
243.000000 90.654 159.6842
247.000000 90.576 160.0131
250.000000 90.514 160.3104
254.000000 90.443 160.7007
258.000000 90.380 160.9797
262.000000 90.313 161.2960
265.000000 90.262 161.5765
269.000000 90.196 161.9445
272.000000 90.148 162.2093
276.000000 90.091 162.5935
280.000000 90.037 162.9720
285.000000 89.965 163.4372
290.000000 89.896 163.9079
295.000000 89.831 164.3863
300.000000 89.773 164.8614
304.000000 89.731 165.1865
307.000000 89.698 165.4306
311.000000 89.652 165.8014
315.000000 89.604 166.2384
320.000000 89.547 166.7712
325.000000 89.495 167.2466
330.000000 89.441 167.7099
335.000000 89.389 168.2082
340.000000 89.343 168.7048
345.000000 89.294 169.2024
350.000000 89.242 169.6768
355.000000 89.200 170.1577
360.000000 89.161 170.6773
365.000000 89.117 171.1896
370.000000 89.073 171.6848
375.000000 89.028 172.1524
382.000000 88.970 172.7867
387.000000 88.932 173.3138
395.000000 88.876 174.2145
400.000000 88.847 174.6880
406.000000 88.805 175.1842
412.000000 88.762 175.7761
418.000000 88.727 176.4055
425.000000 88.686 177.0805
431.000000 88.651 177.6263
437.000000 88.621 178.1938
444.000000 88.587 178.9148
450.000000 88.556 179.5692
455.000000 88.532 -179.8825
462.000000 88.502 -179.1799
468.000000 88.469 -178.6202
475.000000 88.435 -177.9691
482.000000 88.410 -177.3319
487.000000 88.393 -176.8688
494.000000 88.371 -176.2121
500.000000 88.354 -175.6440
508.000000 88.330 -174.8389
515.000000 88.306 -174.1327
522.000000 88.284 -173.4820
530.000000 88.269 -172.7673
538.000000 88.265 -172.0384
545.000000 88.262 -171.3538
552.000000 88.253 -170.6846
560.000000 88.240 -169.9377
570.000000 88.232 -169.0204
580.000000 88.230 -168.0694
590.000000 88.225 -167.1295
600.000000 88.222 -166.1955
608.000000 88.224 -165.4483
615.000000 88.222 -164.7911
622.000000 88.217 -164.1335
630.000000 88.216 -163.3834
640.000000 88.220 -162.4457
650.000000 88.229 -161.5158
660.000000 88.244 -160.5853
670.000000 88.258 -159.6531
680.000000 88.270 -158.7354
690.000000 88.287 -157.8076
700.000000 88.309 -156.8694
710.000000 88.329 -155.9388
720.000000 88.353 -155.0499
730.000000 88.380 -154.1339
740.000000 88.409 -153.2148
750.000000 88.446 -152.3333
762.000000 88.490 -151.3003
775.000000 88.533 -150.1512
788.000000 88.584 -148.9855
800.000000 88.640 -147.9692
812.000000 88.699 -146.9676
825.000000 88.762 -145.8552
838.000000 88.829 -144.7759
850.000000 88.898 -143.7940
862.000000 88.971 -142.8079
875.000000 89.050 -141.7816
885.000000 89.113 -141.0236
900.000000 89.212 -139.9246
912.000000 89.294 -139.0736
925.000000 89.386 -138.1645
938.000000 89.482 -137.2664
950.000000 89.573 -136.4466
962.000000 89.664 -135.6398
975.000000 89.762 -134.7939
988.000000 89.864 -133.9894
1000.000000 89.962 -133.3015
1015.000000 90.088 -132.4938
1030.000000 90.213 -131.6981
1044.000000 90.328 -130.9848
1060.000000 90.466 -130.2409
1075.000000 90.601 -129.6132
1090.000000 90.737 -129.0027
1106.000000 90.884 -128.3565
1120.000000 91.013 -127.8321
1138.000000 91.181 -127.2235
1150.000000 91.292 -126.8404
1172.000000 91.493 -126.1749
1180.000000 91.567 -125.9496
1206.000000 91.805 -125.2816
1220.000000 91.933 -124.9508
1241.000000 92.120 -124.4928
1250.000000 92.199 -124.3279
1265.000000 92.328 -124.1096
1280.000000 92.454 -123.9404
1315.000000 92.679 -123.4309
1320.000000 92.706 -123.2835
1340.000000 92.842 -122.5260
1360.000000 93.022 -121.8991
1380.000000 93.210 -121.6719
1400.000000 93.372 -121.7468
1430.000000 93.530 -121.6601
1450.000000 93.648 -121.1873
1475.000000 93.858 -120.6626
1500.000000 94.084 -120.4791
1525.000000 94.294 -120.4874
1550.000000 94.481 -120.5927
1575.000000 94.649 -120.7523
1600.000000 94.807 -121.0072
1625.000000 94.957 -121.3265
1650.000000 95.091 -121.6976
1675.000000 95.207 -122.1193
1700.000000 95.309 -122.5926
1725.000000 95.390 -123.0953
1750.000000 95.445 -123.5838
1775.000000 95.479 -124.0722
1800.000000 95.495 -124.5237
1825.000000 95.491 -124.9067
1850.000000 95.468 -125.1927
1875.000000 95.431 -125.3473
1900.000000 95.385 -125.3706
1925.000000 95.337 -125.2431
1950.000000 95.290 -124.9626
1975.000000 95.250 -124.5680
2000.000000 95.218 -124.0827
2030.000000 95.190 -123.3883
2060.000000 95.175 -122.5775
2090.000000 95.180 -121.6704
2120.000000 95.208 -120.6772
2140.000000 95.240 -119.9787
2180.000000 95.342 -118.5778
2200.000000 95.411 -117.9102
2240.000000 95.586 -116.7245
2270.000000 95.741 -116.0054
2300.000000 95.908 -115.4582
2330.000000 96.080 -115.1050
2360.000000 96.251 -114.9305
2400.000000 96.474 -114.9864
2430.000000 96.629 -115.2344
2470.000000 96.810 -115.7937
2500.000000 96.919 -116.3590
2540.000000 97.024 -117.2306
2580.000000 97.076 -118.1472
2620.000000 97.082 -119.0430
2650.000000 97.064 -119.6792
2690.000000 97.010 -120.4331
2720.000000 96.947 -120.9014
2760.000000 96.837 -121.3652
2800.000000 96.702 -121.6028
2850.000000 96.519 -121.5660
2900.000000 96.336 -121.1662
2950.000000 96.164 -120.4406
3000.000000 96.021 -119.4875
3040.000000 95.932 -118.6321
3070.000000 95.875 -117.9585
3110.000000 95.810 -117.0494
3150.000000 95.752 -116.1387
3200.000000 95.688 -114.9861
3250.000000 95.638 -113.8189
3300.000000 95.602 -112.6160
3350.000000 95.583 -111.4048
3400.000000 95.581 -110.2016
3450.000000 95.593 -109.0115
3500.000000 95.617 -107.8560
3550.000000 95.651 -106.7439
3600.000000 95.693 -105.6949
3650.000000 95.738 -104.6903
3700.000000 95.781 -103.7067
3750.000000 95.824 -102.7164
3820.000000 95.888 -101.2404
3870.000000 95.944 -100.1118
3950.000000 96.074 -98.2606
4000.000000 96.192 -97.1847
4060.000000 96.374 -96.0765
4120.000000 96.593 -95.2658
4180.000000 96.834 -94.8464
4250.000000 97.127 -95.0154
4310.000000 97.356 -95.8402
4370.000000 97.523 -97.3163
4440.000000 97.590 -99.7568
4500.000000 97.504 -102.2442
4550.000000 97.318 -104.3740
4620.000000 96.876 -107.0354
4680.000000 96.342 -108.6398
4750.000000 95.574 -109.3114
4820.000000 94.714 -108.4163
4870.000000 94.087 -106.7564
4940.000000 93.253 -103.0291
5000.000000 92.631 -98.6620
5080.000000 92.021 -91.5421
5150.000000 91.740 -84.5500
5220.000000 91.713 -77.3649
5300.000000 91.984 -69.5194
5380.000000 92.526 -62.5964
5450.000000 93.168 -57.5829
5520.000000 93.917 -53.6944
5600.000000 94.851 -50.7609
5700.000000 96.037 -49.5196
5800.000000 97.107 -51.0610
5900.000000 97.891 -55.0049
6000.000000 98.270 -60.2855
6080.000000 98.273 -64.4970
6150.000000 98.089 -67.6093
6220.000000 97.777 -69.9027
6300.000000 97.325 -71.3732
6400.000000 96.718 -71.4605
6500.000000 96.200 -69.9230
6600.000000 95.856 -67.7171
6700.000000 95.609 -65.5335
6800.000000 95.399 -63.1372
6900.000000 95.269 -60.3348
7000.000000 95.257 -57.2620
7100.000000 95.357 -54.1221
7200.000000 95.565 -51.1105
7300.000000 95.881 -48.4284
7400.000000 96.304 -46.2738
7500.000000 96.827 -44.8686
7620.000000 97.570 -44.5491
7750.000000 98.419 -46.4762
7880.000000 99.072 -51.2825
8000.000000 99.326 -58.1000
8120.000000 99.115 -66.0642
8250.000000 98.322 -73.9681
8380.000000 97.074 -79.4123
8500.000000 95.708 -81.7625
8620.000000 94.287 -81.8206
8750.000000 92.786 -79.8884
8850.000000 91.689 -77.3596
9000.000000 90.156 -72.3322
9120.000000 89.018 -67.4559
9250.000000 87.855 -61.3563
9380.000000 86.758 -54.3103
9500.000000 85.823 -46.8864
9620.000000 84.994 -38.5799
9750.000000 84.255 -28.6894
9880.000000 83.708 -17.9885
10000.000000 83.393 -7.4378
10150.000000 83.319 6.5895
10300.000000 83.746 21.1722
10440.000000 84.728 34.3159
10600.000000 86.502 46.7857
10750.000000 88.469 54.0486
10900.000000 90.322 56.3320
11060.000000 91.899 54.5617
11200.000000 92.920 51.2990
11380.000000 93.910 46.4090
11500.000000 94.455 42.6548
11720.000000 95.159 33.3846
11800.000000 95.247 29.1137
12060.000000 94.573 14.4602
12200.000000 93.599 8.4789
12410.000000 91.634 4.4393
12500.000000 90.719 4.4843
12650.000000 89.225 6.4558
12800.000000 87.850 10.2254
13150.000000 85.272 23.2830
13200.000000 84.976 25.4563
13400.000000 83.960 34.6043
13600.000000 83.198 44.2351
13800.000000 82.678 54.1001
14000.000000 82.389 64.0294
14300.000000 82.383 78.8261
14500.000000 82.705 88.3748
14750.000000 83.538 99.2776
15000.000000 84.927 107.9434
15250.000000 86.878 112.1622
15500.000000 88.957 108.1122
15750.000000 90.146 93.6155
16000.000000 89.663 75.3036
16250.000000 87.753 63.2729
16500.000000 85.289 59.0364
16750.000000 82.868 59.0546
17000.000000 80.535 61.2119
17250.000000 78.133 65.6809
17500.000000 75.637 73.4263
17750.000000 73.202 84.7416
18000.000000 71.063 98.8475
18250.000000 69.386 114.4764
18500.000000 68.255 130.5233
18750.000000 67.732 146.3075
19000.000000 67.724 161.4852
19250.000000 67.915 175.7848
19500.000000 68.014 -171.1064
19750.000000 67.939 -159.3491
20000.000000 67.659 -148.8273
20300.000000 67.093 -137.2884
20600.000000 66.343 -125.7646
20900.000000 65.338 -113.5271
21200.000000 63.988 -104.0873
21400.000000 63.000 -114.5638
21800.000000 62.154 24.6795
22000.000000 62.046 67.8866
22400.000000 59.791 106.5881
22700.000000 56.356 -0.2090
23000.000000 55.063 78.3125
23300.000000 57.810 -152.9141
23600.000000 60.457 -5.0156
24000.000000 61.944 130.7344
