* Measurement data measured by REW V5.20.13
* Source: Microphone (Realtek(R) Audio), MICROPHONE (Master Volume), L, volume: 0.670. Timing signal peak level -34.1 dBFS, measurement signal peak level -29.1 dBFS
* Format: 2M Log Swept Sine, 1 sweep at -11.5 dBFS using an acoustic timing reference
* Dated: Jul 10, 2023 9:44:03 AM
* REW Settings:
*  C-weighting compensation: Off
*  Target level: 75.0 dB
* Note: ; Delay -0.0424 ms (-15 mm, -0.57 in) using estimated IR delay relative to Acoustic reference played from HEADPHONE R with no timing offset Clock adjustment: 120.1 ppm
* Measurement: CrinZero 50 R
* Smoothing: 1/24 octave
* Frequency Step: 1/48 octave
* Start Frequency: 1.000 Hz
*
* Freq(Hz) SPL(dB) Phase(degrees)
1.000000 79.265 -35.0744
1.015000 79.381 -35.3209
1.030000 79.502 -35.5707
1.044000 79.619 -35.8068
1.060000 79.759 -36.0799
1.075000 79.898 -36.3390
1.090000 80.045 -36.6011
1.106000 80.211 -36.8840
1.120000 80.363 -37.1361
1.138000 80.565 -37.4666
1.150000 80.703 -37.6908
1.172000 80.964 -38.1093
1.180000 81.061 -38.2639
1.206000 81.383 -38.7742
1.220000 81.559 -39.0537
1.241000 81.826 -39.4789
1.250000 81.942 -39.6631
1.265000 82.135 -39.9727
1.280000 82.328 -40.2852
1.315000 82.776 -41.0246
1.320000 82.840 -41.1313
1.340000 83.092 -41.5604
1.360000 83.339 -41.9928
1.380000 83.581 -42.4280
1.400000 83.815 -42.8656
1.430000 84.151 -43.5250
1.450000 84.363 -43.9661
1.475000 84.611 -44.5197
1.500000 84.852 -45.0899
1.525000 85.088 -45.6769
1.550000 85.317 -46.2774
1.575000 85.540 -46.8880
1.600000 85.756 -47.5053
1.625000 85.964 -48.1259
1.650000 86.164 -48.7465
1.675000 86.356 -49.3635
1.700000 86.539 -49.9737
1.725000 86.713 -50.5735
1.750000 86.877 -51.1597
1.775000 87.031 -51.7288
1.800000 87.174 -52.2774
1.825000 87.306 -52.8022
1.850000 87.424 -53.3036
1.875000 87.526 -53.7901
1.900000 87.613 -54.2627
1.925000 87.686 -54.7222
1.950000 87.748 -55.1693
1.975000 87.800 -55.6049
2.000000 87.844 -56.0296
2.030000 87.890 -56.5259
2.060000 87.929 -57.0091
2.090000 87.966 -57.4803
2.120000 88.004 -57.9409
2.140000 88.031 -58.2427
2.180000 88.094 -58.8355
2.200000 88.132 -59.1272
2.240000 88.207 -59.6957
2.270000 88.260 -60.1077
2.300000 88.311 -60.5076
2.330000 88.361 -60.8960
2.360000 88.410 -61.2733
2.400000 88.476 -61.7599
2.430000 88.526 -62.1129
2.470000 88.596 -62.5686
2.500000 88.652 -62.8997
2.540000 88.732 -63.3276
2.580000 88.819 -63.7404
2.620000 88.914 -64.1336
2.650000 88.989 -64.4155
2.690000 89.093 -64.7756
2.720000 89.174 -65.0345
2.760000 89.283 -65.3662
2.800000 89.394 -65.6838
2.850000 89.532 -66.0634
2.900000 89.667 -66.4265
2.950000 89.798 -66.7744
3.000000 89.926 -67.0963
3.040000 90.028 -67.3359
3.070000 90.104 -67.5070
3.110000 90.206 -67.7256
3.150000 90.307 -67.9359
3.200000 90.435 -68.1910
3.250000 90.564 -68.4425
3.300000 90.695 -68.6954
3.350000 90.829 -68.9430
3.400000 90.964 -69.1800
3.450000 91.100 -69.4095
3.500000 91.237 -69.6345
3.550000 91.375 -69.8582
3.600000 91.513 -70.0834
3.650000 91.651 -70.3134
3.700000 91.790 -70.5464
3.750000 91.929 -70.7748
3.820000 92.125 -71.0931
3.870000 92.265 -71.3241
3.950000 92.488 -71.7102
4.000000 92.627 -71.9674
4.060000 92.793 -72.2961
4.120000 92.959 -72.6394
4.180000 93.124 -72.9963
4.250000 93.316 -73.4311
4.310000 93.478 -73.8202
4.370000 93.639 -74.2250
4.440000 93.824 -74.7181
4.500000 93.981 -75.1580
4.550000 94.111 -75.5365
4.620000 94.291 -76.0841
4.680000 94.442 -76.5693
4.750000 94.613 -77.1534
4.820000 94.780 -77.7597
4.870000 94.897 -78.2086
4.940000 95.058 -78.8543
5.000000 95.192 -79.4198
5.080000 95.366 -80.1840
5.150000 95.511 -80.8570
5.220000 95.652 -81.5432
5.300000 95.807 -82.3413
5.380000 95.955 -83.1455
5.450000 96.080 -83.8465
5.520000 96.199 -84.5401
5.600000 96.329 -85.3344
5.700000 96.483 -86.3251
5.800000 96.628 -87.2993
5.900000 96.766 -88.2447
6.000000 96.895 -89.1698
6.080000 96.992 -89.8934
6.150000 97.075 -90.5112
6.220000 97.155 -91.1118
6.300000 97.244 -91.7766
6.400000 97.350 -92.5786
6.500000 97.453 -93.3501
6.600000 97.554 -94.0928
6.700000 97.653 -94.8024
6.800000 97.751 -95.4816
6.900000 97.847 -96.1389
7.000000 97.945 -96.7812
7.100000 98.043 -97.4003
7.200000 98.141 -98.0030
7.300000 98.240 -98.6000
7.400000 98.339 -99.1957
7.500000 98.439 -99.7835
7.620000 98.559 -100.4871
7.750000 98.688 -101.2581
7.880000 98.817 -102.0350
8.000000 98.934 -102.7573
8.120000 99.048 -103.4868
8.250000 99.170 -104.2863
8.380000 99.288 -105.0881
8.500000 99.392 -105.8262
8.620000 99.493 -106.5660
8.750000 99.599 -107.3595
8.850000 99.677 -107.9592
9.000000 99.789 -108.8475
9.120000 99.875 -109.5405
9.250000 99.967 -110.2667
9.380000 100.057 -110.9706
9.500000 100.137 -111.6025
9.620000 100.214 -112.2168
9.750000 100.295 -112.8625
9.880000 100.370 -113.4936
10.000000 100.432 -114.0658
10.150000 100.502 -114.7644
10.300000 100.567 -115.4439
10.440000 100.621 -116.0575
10.600000 100.680 -116.7465
10.750000 100.738 -117.3864
10.900000 100.796 -118.0212
11.060000 100.858 -118.7119
11.200000 100.914 -119.3279
11.380000 100.983 -120.1235
11.500000 101.027 -120.6554
11.720000 101.106 -121.6276
11.800000 101.133 -121.9774
12.060000 101.221 -123.1036
12.200000 101.267 -123.7030
12.410000 101.333 -124.5892
12.500000 101.360 -124.9589
12.650000 101.404 -125.5630
12.800000 101.445 -126.1505
13.150000 101.539 -127.4505
13.200000 101.552 -127.6298
13.400000 101.607 -128.3301
13.600000 101.663 -129.0131
13.800000 101.722 -129.6808
14.000000 101.782 -130.3485
14.300000 101.872 -131.3565
14.500000 101.930 -132.0378
14.750000 102.000 -132.8957
15.000000 102.067 -133.7579
15.250000 102.132 -134.6177
15.500000 102.194 -135.4581
15.750000 102.252 -136.2707
16.000000 102.307 -137.0467
16.250000 102.362 -137.7954
16.500000 102.418 -138.5232
16.750000 102.477 -139.2397
17.000000 102.539 -139.9575
17.250000 102.602 -140.6816
17.500000 102.665 -141.4170
17.750000 102.725 -142.1612
18.000000 102.783 -142.9109
18.250000 102.837 -143.6624
18.500000 102.888 -144.4066
18.750000 102.937 -145.1400
19.000000 102.983 -145.8595
19.250000 103.029 -146.5652
19.500000 103.073 -147.2569
19.750000 103.117 -147.9344
20.000000 103.159 -148.5989
20.299999 103.209 -149.3834
20.600000 103.259 -150.1590
20.900000 103.307 -150.9314
21.200001 103.352 -151.7049
21.400000 103.381 -152.2212
21.799999 103.432 -153.2494
22.000000 103.455 -153.7570
22.400000 103.496 -154.7492
22.700001 103.525 -155.4668
23.000000 103.553 -156.1626
23.299999 103.581 -156.8463
23.600000 103.611 -157.5277
24.000000 103.650 -158.4456
24.299999 103.678 -159.1440
24.700001 103.711 -160.0813
25.000000 103.732 -160.7784
25.400000 103.755 -161.6868
25.799999 103.775 -162.5643
26.200001 103.796 -163.4167
26.500000 103.812 -164.0474
26.900000 103.833 -164.8856
27.200001 103.848 -165.5149
27.600000 103.866 -166.3522
28.000000 103.880 -167.1770
28.500000 103.893 -168.1722
29.000000 103.906 -169.1210
29.500000 103.921 -170.0395
30.000000 103.938 -170.9559
30.400000 103.949 -171.6972
30.700001 103.954 -172.2554
31.100000 103.958 -172.9929
31.500000 103.960 -173.7152
32.000000 103.962 -174.5968
32.500000 103.963 -175.4693
33.000000 103.962 -176.3458
33.500000 103.955 -177.2181
34.000000 103.945 -178.0657
34.500000 103.934 -178.8805
35.000000 103.924 -179.6730
35.500000 103.915 179.5423
36.000000 103.904 178.7634
36.500000 103.891 177.9971
37.000000 103.876 177.2450
37.500000 103.861 176.5021
38.200001 103.835 175.4791
38.700001 103.814 174.7740
39.500000 103.781 173.6945
40.000000 103.763 173.0227
40.599998 103.739 172.1954
41.200001 103.710 171.3622
41.799999 103.675 170.5580
42.500000 103.634 169.6664
43.099998 103.601 168.9202
43.700001 103.568 168.1803
44.400002 103.530 167.3322
45.000000 103.498 166.6136
45.500000 103.472 166.0100
46.200001 103.429 165.1664
46.799999 103.387 164.4787
47.500000 103.339 163.7395
48.200001 103.296 163.0326
48.700001 103.267 162.5227
49.400002 103.225 161.7903
50.000000 103.185 161.1474
50.799999 103.124 160.2920
51.500000 103.066 159.5779
52.200001 103.009 158.8919
53.000000 102.951 158.1113
53.799999 102.900 157.2965
54.500000 102.857 156.4951
55.200001 102.795 155.6581
56.000000 102.704 154.8967
57.000000 102.622 154.2748
58.000000 102.583 153.5989
59.000000 102.549 152.7864
60.000000 102.490 151.7898
60.799999 102.398 151.0487
61.500000 102.308 150.6092
62.200001 102.233 150.2554
63.000000 102.162 149.7719
64.000000 102.067 149.0645
65.000000 101.965 148.3590
66.000000 101.868 147.6893
67.000000 101.781 147.0247
68.000000 101.697 146.3475
69.000000 101.612 145.6963
70.000000 101.526 145.0648
71.000000 101.436 144.4639
72.000000 101.344 143.8951
73.000000 101.250 143.3295
74.000000 101.154 142.7733
75.000000 101.058 142.2287
76.199997 100.946 141.5959
77.500000 100.828 140.9079
78.800003 100.709 140.2630
80.000000 100.601 139.6786
81.199997 100.488 139.1153
82.500000 100.367 138.5544
83.800003 100.246 137.9838
85.000000 100.137 137.4709
86.199997 100.028 136.9491
87.500000 99.907 136.4147
88.500000 99.813 136.0356
90.000000 99.674 135.4789
91.199997 99.558 135.0495
92.500000 99.434 134.6151
93.800003 99.313 134.1794
95.000000 99.201 133.7875
96.199997 99.090 133.4202
97.500000 98.971 133.0361
98.800003 98.849 132.6670
100.000000 98.733 132.3430
101.500000 98.582 131.9481
103.000000 98.427 131.5471
104.400002 98.283 131.1951
106.000000 98.127 130.8089
107.500000 97.987 130.4739
109.000000 97.848 130.1772
110.599998 97.698 129.8990
112.000000 97.563 129.6924
113.800003 97.392 129.4539
115.000000 97.281 129.2764
117.199997 97.068 128.9722
118.000000 96.989 128.9046
120.599998 96.759 128.8149
122.000000 96.649 128.6093
124.099998 96.459 128.2571
125.000000 96.376 128.1364
126.500000 96.241 127.9698
128.000000 96.105 127.8731
131.500000 95.792 127.8349
132.000000 95.748 127.8298
134.000000 95.570 127.7948
136.000000 95.390 127.8112
138.000000 95.217 127.9127
140.000000 95.041 128.0618
143.000000 94.785 128.3557
145.000000 94.630 128.4946
147.500000 94.434 128.6841
150.000000 94.240 129.0269
152.500000 94.051 129.3624
155.000000 93.854 129.6440
157.500000 93.652 130.0458
160.000000 93.457 130.6048
162.500000 93.263 131.2017
165.000000 93.075 131.8115
167.500000 92.906 132.4020
170.000000 92.740 133.0132
172.500000 92.566 133.6493
175.000000 92.412 134.2471
177.500000 92.309 134.7474
180.000000 92.213 135.2018
182.500000 92.051 136.0159
185.000000 91.879 137.1256
187.500000 91.735 137.9937
190.000000 91.617 138.6364
192.500000 91.517 139.2930
195.000000 91.420 140.0629
197.500000 91.324 140.9654
200.000000 91.238 141.9188
203.000000 91.141 142.9655
206.000000 91.045 143.8430
209.000000 90.954 144.7083
212.000000 90.886 145.6408
214.000000 90.851 146.2333
218.000000 90.781 147.3463
220.000000 90.746 147.9026
224.000000 90.673 149.0008
227.000000 90.616 149.8912
230.000000 90.565 150.7982
233.000000 90.528 151.6332
236.000000 90.515 152.2756
240.000000 90.502 152.9481
243.000000 90.476 153.5016
247.000000 90.429 154.3289
250.000000 90.400 154.9612
254.000000 90.376 155.8250
258.000000 90.361 156.6529
262.000000 90.340 157.3661
265.000000 90.325 157.8715
269.000000 90.315 158.5430
272.000000 90.315 159.0100
276.000000 90.318 159.5405
280.000000 90.320 160.0812
285.000000 90.302 160.9079
290.000000 90.286 161.6494
295.000000 90.291 162.3329
300.000000 90.308 162.8882
304.000000 90.294 163.3932
307.000000 90.279 163.7946
311.000000 90.271 164.2531
315.000000 90.262 164.7126
320.000000 90.248 165.2965
325.000000 90.234 165.7581
330.000000 90.223 166.1893
335.000000 90.210 166.6421
340.000000 90.201 167.1099
345.000000 90.195 167.5633
350.000000 90.181 168.0459
355.000000 90.161 168.5933
360.000000 90.135 169.1242
365.000000 90.113 169.4517
370.000000 90.096 169.7114
375.000000 90.082 170.0742
382.000000 90.055 170.6666
387.000000 90.035 171.1620
395.000000 90.003 171.8881
400.000000 89.978 172.3005
406.000000 89.946 172.7916
412.000000 89.922 173.2383
418.000000 89.911 173.5824
425.000000 89.884 174.1258
431.000000 89.845 174.7253
437.000000 89.816 175.3017
444.000000 89.790 175.9247
450.000000 89.768 176.4408
455.000000 89.748 176.8450
462.000000 89.724 177.3805
468.000000 89.706 177.8486
475.000000 89.678 178.3691
482.000000 89.647 178.9014
487.000000 89.630 179.3058
494.000000 89.610 179.9124
500.000000 89.594 -179.5539
508.000000 89.581 -178.8808
515.000000 89.564 -178.3432
522.000000 89.544 -177.7852
530.000000 89.521 -177.0679
538.000000 89.501 -176.2678
545.000000 89.487 -175.6743
552.000000 89.478 -175.1779
560.000000 89.470 -174.5354
570.000000 89.456 -173.6948
580.000000 89.439 -172.8023
590.000000 89.424 -171.9044
600.000000 89.409 -171.0494
608.000000 89.407 -170.3523
615.000000 89.399 -169.7628
622.000000 89.388 -169.1857
630.000000 89.382 -168.5073
640.000000 89.376 -167.6123
650.000000 89.371 -166.6920
660.000000 89.380 -165.7705
670.000000 89.383 -164.9299
680.000000 89.386 -164.1110
690.000000 89.395 -163.2623
700.000000 89.407 -162.4073
710.000000 89.416 -161.5326
720.000000 89.425 -160.6301
730.000000 89.441 -159.7871
740.000000 89.467 -158.9691
750.000000 89.498 -158.1236
762.000000 89.532 -157.0864
775.000000 89.562 -155.9074
788.000000 89.603 -154.8027
800.000000 89.651 -153.8237
812.000000 89.700 -152.7982
825.000000 89.758 -151.6997
838.000000 89.820 -150.6855
850.000000 89.878 -149.7176
862.000000 89.939 -148.7423
875.000000 90.014 -147.7041
885.000000 90.076 -146.9386
900.000000 90.181 -145.8801
912.000000 90.256 -144.9978
925.000000 90.336 -144.0296
938.000000 90.424 -143.1333
950.000000 90.509 -142.3382
962.000000 90.599 -141.5506
975.000000 90.703 -140.7470
988.000000 90.803 -140.0018
1000.000000 90.895 -139.3483
1015.000000 91.017 -138.5851
1030.000000 91.138 -137.8643
1044.000000 91.249 -137.2079
1060.000000 91.377 -136.5267
1075.000000 91.500 -135.9524
1090.000000 91.626 -135.4212
1106.000000 91.758 -134.8951
1120.000000 91.871 -134.4661
1138.000000 92.016 -133.9648
1150.000000 92.110 -133.6360
1172.000000 92.276 -133.0465
1180.000000 92.336 -132.8449
1206.000000 92.524 -132.2115
1220.000000 92.622 -131.9017
1241.000000 92.771 -131.4462
1250.000000 92.835 -131.2499
1265.000000 92.938 -130.9088
1280.000000 93.039 -130.5629
1315.000000 93.266 -129.7908
1320.000000 93.297 -129.6820
1340.000000 93.414 -129.2641
1360.000000 93.510 -128.8298
1380.000000 93.599 -128.3790
1400.000000 93.703 -127.9445
1430.000000 93.864 -127.2498
1450.000000 93.972 -126.7877
1475.000000 94.107 -126.2345
1500.000000 94.237 -125.6618
1525.000000 94.367 -125.0727
1550.000000 94.490 -124.4738
1575.000000 94.613 -123.9114
1600.000000 94.742 -123.3389
1625.000000 94.870 -122.7346
1650.000000 95.001 -122.1352
1675.000000 95.134 -121.5578
1700.000000 95.265 -120.9686
1725.000000 95.396 -120.3919
1750.000000 95.530 -119.8327
1775.000000 95.668 -119.2702
1800.000000 95.807 -118.7367
1825.000000 95.948 -118.2284
1850.000000 96.091 -117.7367
1875.000000 96.236 -117.2596
1900.000000 96.383 -116.8042
1925.000000 96.530 -116.3848
1950.000000 96.675 -115.9893
1975.000000 96.820 -115.6114
2000.000000 96.968 -115.2556
2030.000000 97.150 -114.8697
2060.000000 97.332 -114.5266
2090.000000 97.512 -114.2194
2120.000000 97.692 -113.9649
2140.000000 97.812 -113.8311
2180.000000 98.054 -113.6177
2200.000000 98.173 -113.5354
2240.000000 98.406 -113.4467
2270.000000 98.575 -113.4485
2300.000000 98.740 -113.5011
2330.000000 98.900 -113.6062
2360.000000 99.056 -113.7590
2400.000000 99.257 -114.0278
2430.000000 99.400 -114.2785
2470.000000 99.581 -114.6823
2500.000000 99.707 -115.0272
2540.000000 99.863 -115.5330
2580.000000 100.004 -116.0778
2620.000000 100.129 -116.6475
2650.000000 100.211 -117.0809
2690.000000 100.306 -117.6533
2720.000000 100.368 -118.0634
2760.000000 100.441 -118.5791
2800.000000 100.511 -119.0695
2850.000000 100.600 -119.7075
2900.000000 100.678 -120.4600
2950.000000 100.728 -121.3237
3000.000000 100.744 -122.2006
3040.000000 100.733 -122.8559
3070.000000 100.713 -123.3076
3110.000000 100.674 -123.8472
3150.000000 100.625 -124.3018
3200.000000 100.552 -124.7476
3250.000000 100.473 -125.0840
3300.000000 100.387 -125.3239
3350.000000 100.299 -125.4740
3400.000000 100.212 -125.5475
3450.000000 100.127 -125.5447
3500.000000 100.046 -125.4666
3550.000000 99.970 -125.3155
3600.000000 99.898 -125.1060
3650.000000 99.829 -124.8404
3700.000000 99.765 -124.5290
3750.000000 99.706 -124.1859
3820.000000 99.631 -123.6685
3870.000000 99.580 -123.2788
3950.000000 99.505 -122.6099
4000.000000 99.465 -122.1877
4060.000000 99.424 -121.6964
4120.000000 99.392 -121.2228
4180.000000 99.371 -120.7772
4250.000000 99.356 -120.2988
4310.000000 99.349 -119.9593
4370.000000 99.340 -119.6953
4440.000000 99.326 -119.4871
4500.000000 99.315 -119.3954
4550.000000 99.306 -119.3683
4620.000000 99.295 -119.3973
4680.000000 99.287 -119.4890
4750.000000 99.280 -119.6984
4820.000000 99.270 -120.0398
4870.000000 99.257 -120.3646
4940.000000 99.230 -120.9207
5000.000000 99.194 -121.4733
5080.000000 99.125 -122.2910
5150.000000 99.046 -123.0525
5220.000000 98.948 -123.8237
5300.000000 98.816 -124.6848
5380.000000 98.665 -125.4853
5450.000000 98.521 -126.1111
5520.000000 98.368 -126.6638
5600.000000 98.186 -127.1959
5700.000000 97.952 -127.6735
5800.000000 97.712 -127.9024
5900.000000 97.474 -127.8464
6000.000000 97.250 -127.4942
6080.000000 97.086 -127.0253
6150.000000 96.957 -126.4852
6220.000000 96.845 -125.8424
6300.000000 96.742 -125.0018
6400.000000 96.638 -123.7917
6500.000000 96.569 -122.4143
6600.000000 96.550 -120.9070
6700.000000 96.583 -119.3125
6800.000000 96.668 -117.6837
6900.000000 96.824 -116.0708
7000.000000 97.061 -114.5201
7100.000000 97.354 -113.0908
7200.000000 97.699 -111.8635
7300.000000 98.099 -110.9496
7400.000000 98.542 -110.4924
7500.000000 99.012 -110.6405
7620.000000 99.589 -111.8019
7750.000000 100.147 -114.4323
7880.000000 100.456 -118.4605
8000.000000 100.455 -123.0435
8120.000000 100.163 -127.7915
8250.000000 99.529 -132.2336
8380.000000 98.630 -135.2246
8500.000000 97.648 -136.4045
8620.000000 96.592 -136.0762
8750.000000 95.426 -134.2355
8850.000000 94.542 -131.9493
9000.000000 93.274 -127.3822
9120.000000 92.325 -122.9380
9250.000000 91.363 -117.5162
9380.000000 90.470 -111.5956
9500.000000 89.703 -105.7630
9620.000000 88.994 -99.6810
9750.000000 88.288 -92.8931
9880.000000 87.642 -85.9587
10000.000000 87.096 -79.4853
10150.000000 86.474 -71.3587
10300.000000 85.916 -63.3370
10440.000000 85.447 -56.0603
10600.000000 84.962 -48.0528
10750.000000 84.554 -40.9806
10900.000000 84.177 -34.5296
11060.000000 83.799 -28.5265
11200.000000 83.463 -24.2685
11380.000000 82.956 -20.6304
11500.000000 82.507 -19.4570
11720.000000 81.263 -19.1182
11800.000000 80.647 -18.9958
12060.000000 78.386 -14.8650
12200.000000 77.621 -10.0196
12410.000000 78.224 -2.9464
12500.000000 79.160 -1.1185
12650.000000 81.380 -0.2901
12800.000000 84.135 -2.1840
13150.000000 90.674 -19.5260
13200.000000 91.405 -23.9005
13400.000000 93.364 -44.7420
13600.000000 93.781 -64.2115
13800.000000 93.192 -75.6677
14000.000000 92.286 -79.0141
14300.000000 91.158 -74.7634
14500.000000 90.666 -68.7706
14750.000000 90.284 -59.4303
15000.000000 90.104 -48.8418
15250.000000 90.110 -37.5894
15500.000000 90.349 -26.2946
15750.000000 90.829 -15.6839
16000.000000 91.482 -6.7974
16250.000000 92.155 -1.4970
16500.000000 92.406 -2.0031
16750.000000 91.487 -6.4171
17000.000000 88.865 -4.3085
17250.000000 84.894 10.0778
17500.000000 81.676 -17.6392
17750.000000 81.654 81.0542
18000.000000 82.999 -135.9653
18250.000000 84.077 -55.7992
18500.000000 84.918 -76.9458
18750.000000 85.682 -171.3042
19000.000000 86.324 -171.5745
19250.000000 86.847 -157.5942
19500.000000 87.281 -142.4561
19750.000000 87.637 -127.4380
20000.000000 87.872 -112.5417
20300.000000 88.079 -94.7197
20600.000000 88.313 -76.8923
20900.000000 88.550 -59.0416
21200.000000 88.780 -41.1038
21400.000000 88.930 -29.1074
21800.000000 89.240 -7.1161
22000.000000 89.379 -6.4226
22400.000000 88.970 63.8428
22700.000000 86.603 81.9634
23000.000000 81.439 70.4141
23300.000000 74.513 124.7852
23600.000000 69.425 31.5078
24000.000000 68.047 44.7383
