* Measurement data measured by REW V5.20.13
* Source: Headset (DS by VECLAN.COM), MICROPHONE (Master Volume), L, volume: 0.720. Timing signal peak level -19.4 dBFS, measurement signal peak level -15.0 dBFS
* Format: 4M Log Swept Sine, 1 sweep at -12.0 dBFS using an acoustic timing reference
* Dated: Dec 12, 2023 12:29:31 PM
* REW Settings:
*  C-weighting compensation: Off
*  Target level: 75.0 dB
* Note: ; Apple + Abigail Delay -0.0663 ms (-23 mm, -0.9 in) using estimated IR delay relative to Acoustic reference played from  L with no timing offset
* Measurement: Truthear Hola Spring L
* Smoothing: 1/24 octave
* Frequency Step: 1/48 octave
* Start Frequency: 1.000 Hz
*
* Freq(Hz) SPL(dB) Phase(degrees)
1.000000 72.116 6.5305
1.015000 72.301 4.9534
1.030000 72.486 3.3880
1.044000 72.660 1.9417
1.060000 72.859 0.3110
1.075000 73.046 -1.1917
1.090000 73.232 -2.6645
1.106000 73.431 -4.2056
1.120000 73.610 -5.5708
1.138000 73.848 -7.3572
1.150000 74.011 -8.5648
1.172000 74.319 -10.8060
1.180000 74.433 -11.6279
1.206000 74.811 -14.3155
1.220000 75.019 -15.7681
1.241000 75.334 -17.9458
1.250000 75.470 -18.8766
1.265000 75.697 -20.4214
1.280000 75.925 -21.9549
1.315000 76.455 -25.4685
1.320000 76.530 -25.9610
1.340000 76.828 -27.9020
1.360000 77.123 -29.7899
1.380000 77.411 -31.6158
1.400000 77.692 -33.3710
1.430000 78.096 -35.8518
1.450000 78.353 -37.3915
1.475000 78.656 -39.1765
1.500000 78.948 -40.8363
1.525000 79.230 -42.3861
1.550000 79.503 -43.8329
1.575000 79.767 -45.1842
1.600000 80.024 -46.4471
1.625000 80.273 -47.6290
1.650000 80.517 -48.7369
1.675000 80.755 -49.7782
1.700000 80.988 -50.7602
1.725000 81.217 -51.6901
1.750000 81.442 -52.5751
1.775000 81.665 -53.4225
1.800000 81.886 -54.2395
1.825000 82.105 -55.0334
1.850000 82.322 -55.7886
1.875000 82.534 -56.4593
1.900000 82.739 -57.0521
1.925000 82.940 -57.5761
1.950000 83.137 -58.0404
1.975000 83.329 -58.4540
2.000000 83.518 -58.8261
2.030000 83.741 -59.2305
2.060000 83.961 -59.6037
2.090000 84.178 -59.9616
2.120000 84.394 -60.3197
2.140000 84.537 -60.5663
2.180000 84.824 -61.0994
2.200000 84.968 -61.3949
2.240000 85.256 -61.9900
2.270000 85.469 -62.4222
2.300000 85.680 -62.8441
2.330000 85.889 -63.2575
2.360000 86.096 -63.6640
2.400000 86.370 -64.1982
2.430000 86.572 -64.5952
2.470000 86.839 -65.1227
2.500000 87.036 -65.5191
2.540000 87.296 -66.0521
2.580000 87.552 -66.5916
2.620000 87.804 -67.1247
2.650000 87.991 -67.5198
2.690000 88.237 -68.0430
2.720000 88.419 -68.4347
2.760000 88.657 -68.9588
2.800000 88.892 -69.4881
2.850000 89.180 -70.1626
2.900000 89.462 -70.8575
2.950000 89.737 -71.5787
3.000000 90.005 -72.3193
3.040000 90.215 -72.9236
3.070000 90.370 -73.3831
3.110000 90.572 -74.0038
3.150000 90.771 -74.6328
3.200000 91.014 -75.4300
3.250000 91.250 -76.2378
3.300000 91.481 -77.0551
3.350000 91.705 -77.8857
3.400000 91.922 -78.7314
3.450000 92.134 -79.5895
3.500000 92.339 -80.4573
3.550000 92.538 -81.3322
3.600000 92.730 -82.2116
3.650000 92.917 -83.0928
3.700000 93.098 -83.9765
3.750000 93.272 -84.8686
3.820000 93.505 -86.1279
3.870000 93.665 -87.0319
3.950000 93.907 -88.4800
4.000000 94.051 -89.3828
4.060000 94.216 -90.4635
4.120000 94.372 -91.5533
4.180000 94.519 -92.6468
4.250000 94.680 -93.9164
4.310000 94.809 -94.9901
4.370000 94.932 -96.0417
4.440000 95.067 -97.2367
4.500000 95.174 -98.2449
4.550000 95.257 -99.0727
4.620000 95.366 -100.2100
4.680000 95.453 -101.1618
4.750000 95.550 -102.2418
4.820000 95.640 -103.2899
4.870000 95.699 -104.0219
4.940000 95.775 -105.0212
5.000000 95.836 -105.8517
5.080000 95.913 -106.9179
5.150000 95.976 -107.8088
5.220000 96.034 -108.6612
5.300000 96.094 -109.5908
5.380000 96.150 -110.4748
5.450000 96.197 -111.2126
5.520000 96.243 -111.9179
5.600000 96.293 -112.6762
5.700000 96.352 -113.5614
5.800000 96.411 -114.3938
5.900000 96.473 -115.1870
6.000000 96.536 -115.9217
6.080000 96.588 -116.4788
6.150000 96.635 -116.9560
6.220000 96.682 -117.4339
6.300000 96.739 -117.9776
6.400000 96.811 -118.6412
6.500000 96.885 -119.3009
6.600000 96.958 -119.9715
6.700000 97.030 -120.6557
6.800000 97.103 -121.3468
6.900000 97.173 -122.0419
7.000000 97.240 -122.7392
7.100000 97.304 -123.4432
7.200000 97.365 -124.1486
7.300000 97.424 -124.8481
7.400000 97.479 -125.5390
7.500000 97.530 -126.2261
7.620000 97.589 -127.0377
7.750000 97.649 -127.8912
7.880000 97.705 -128.7205
8.000000 97.754 -129.4659
8.120000 97.802 -130.1911
8.250000 97.853 -130.9518
8.380000 97.903 -131.6958
8.500000 97.950 -132.3729
8.620000 97.996 -133.0363
8.750000 98.047 -133.7516
8.850000 98.086 -134.3061
9.000000 98.144 -135.1381
9.120000 98.190 -135.8095
9.250000 98.238 -136.5493
9.380000 98.285 -137.2993
9.500000 98.323 -137.9942
9.620000 98.354 -138.6921
9.750000 98.382 -139.4523
9.880000 98.400 -140.1964
10.000000 98.405 -140.8660
10.150000 98.397 -141.6805
10.300000 98.381 -142.4374
10.440000 98.354 -143.0887
10.600000 98.321 -143.7776
10.750000 98.294 -144.3647
10.900000 98.270 -144.9040
11.060000 98.253 -145.4656
11.200000 98.245 -145.9390
11.380000 98.241 -146.5540
11.500000 98.243 -146.9729
11.720000 98.251 -147.7667
11.800000 98.254 -148.0700
12.060000 98.268 -149.0989
12.200000 98.273 -149.6798
12.410000 98.276 -150.5742
12.500000 98.274 -150.9496
12.650000 98.266 -151.5732
12.800000 98.254 -152.1745
13.150000 98.214 -153.4433
13.200000 98.208 -153.6094
13.400000 98.186 -154.2304
13.600000 98.169 -154.8066
13.800000 98.159 -155.3416
14.000000 98.153 -155.8730
14.300000 98.153 -156.6807
14.500000 98.153 -157.2460
14.750000 98.150 -157.9699
15.000000 98.143 -158.7039
15.250000 98.130 -159.4165
15.500000 98.114 -160.0781
15.750000 98.097 -160.6760
16.000000 98.081 -161.2046
16.250000 98.071 -161.6948
16.500000 98.068 -162.1664
16.750000 98.073 -162.6490
17.000000 98.081 -163.1587
17.250000 98.091 -163.6951
17.500000 98.098 -164.2544
17.750000 98.101 -164.8194
18.000000 98.100 -165.3823
18.250000 98.095 -165.9350
18.500000 98.088 -166.4713
18.750000 98.081 -166.9915
19.000000 98.073 -167.4958
19.250000 98.066 -167.9869
19.500000 98.057 -168.4610
19.750000 98.048 -168.9153
20.000000 98.040 -169.3438
20.299999 98.031 -169.8290
20.600000 98.026 -170.2944
20.900000 98.025 -170.7582
21.200001 98.025 -171.2398
21.400000 98.025 -171.5735
21.799999 98.017 -172.2566
22.000000 98.010 -172.5950
22.400000 97.990 -173.2387
22.700001 97.972 -173.6808
23.000000 97.955 -174.0920
23.299999 97.941 -174.4884
23.600000 97.929 -174.8825
24.000000 97.914 -175.4131
24.299999 97.901 -175.8099
24.700001 97.883 -176.3239
25.000000 97.869 -176.6936
25.400000 97.852 -177.1694
25.799999 97.837 -177.6357
26.200001 97.823 -178.0990
26.500000 97.815 -178.4487
26.900000 97.804 -178.9296
27.200001 97.796 -179.3144
27.600000 97.779 -179.8676
28.000000 97.748 179.5631
28.500000 97.687 178.9485
29.000000 97.624 178.5661
29.500000 97.589 178.3566
30.000000 97.590 178.0717
30.400000 97.598 177.6666
30.700001 97.594 177.2722
31.100000 97.569 176.7224
31.500000 97.529 176.2425
32.000000 97.476 175.7893
32.500000 97.436 175.4069
33.000000 97.403 174.9957
33.500000 97.365 174.5837
34.000000 97.327 174.2401
34.500000 97.305 173.9339
35.000000 97.295 173.5673
35.500000 97.282 173.1127
36.000000 97.255 172.6639
36.500000 97.219 172.3131
37.000000 97.192 172.0394
37.500000 97.175 171.7487
38.200001 97.150 171.2315
38.700001 97.120 170.8315
39.500000 97.051 170.2700
40.000000 97.004 169.9847
40.599998 96.950 169.6926
41.200001 96.900 169.4229
41.799999 96.857 169.1379
42.500000 96.809 168.7603
43.099998 96.766 168.4196
43.700001 96.723 168.1041
44.400002 96.683 167.7668
45.000000 96.659 167.4507
45.500000 96.640 167.1506
46.200001 96.608 166.7178
46.799999 96.579 166.3685
47.500000 96.542 165.9784
48.200001 96.499 165.6425
48.700001 96.469 165.4587
49.400002 96.436 165.2189
50.000000 96.409 164.9691
50.799999 96.362 164.6284
51.500000 96.319 164.3582
52.200001 96.271 164.0817
53.000000 96.211 163.8514
53.799999 96.170 163.6812
54.500000 96.140 163.4064
55.200001 96.091 163.1288
56.000000 96.044 162.9354
57.000000 95.996 162.4985
58.000000 95.901 162.2417
59.000000 95.874 162.1434
60.000000 95.821 161.4187
60.799999 95.706 161.1771
61.500000 95.653 161.4001
62.200001 95.677 161.4548
63.000000 95.712 160.9236
64.000000 95.662 159.9124
65.000000 95.540 159.2961
66.000000 95.430 159.1699
67.000000 95.367 159.1942
68.000000 95.325 159.1234
69.000000 95.273 158.9991
70.000000 95.210 158.9400
71.000000 95.154 158.9608
72.000000 95.108 158.8694
73.000000 95.045 158.7500
74.000000 94.991 158.7162
75.000000 94.952 158.5347
76.199997 94.876 158.2043
77.500000 94.788 158.1420
78.800003 94.753 158.1325
80.000000 94.723 157.8606
81.199997 94.656 157.5660
82.500000 94.567 157.3661
83.800003 94.480 157.2059
85.000000 94.410 157.0996
86.199997 94.365 156.9766
87.500000 94.331 156.7542
88.500000 94.298 156.5794
90.000000 94.229 156.4925
91.199997 94.172 156.5861
92.500000 94.114 156.7080
93.800003 94.056 156.7386
95.000000 93.996 156.6787
96.199997 93.934 156.5770
97.500000 93.872 156.4669
98.800003 93.815 156.3833
100.000000 93.765 156.3318
101.500000 93.699 156.3091
103.000000 93.635 156.3160
104.400002 93.576 156.2919
106.000000 93.507 156.2347
107.500000 93.441 156.1960
109.000000 93.378 156.2079
110.599998 93.315 156.2413
112.000000 93.259 156.2652
113.800003 93.187 156.2900
115.000000 93.141 156.2925
117.199997 93.057 156.2847
118.000000 93.026 156.2943
120.599998 92.938 156.3689
122.000000 92.896 156.3905
124.099998 92.833 156.4185
125.000000 92.804 156.4324
126.500000 92.750 156.4850
128.000000 92.693 156.5818
131.500000 92.574 156.8108
132.000000 92.561 156.8183
134.000000 92.510 156.7767
136.000000 92.458 156.7275
138.000000 92.401 156.8154
140.000000 92.349 157.0431
143.000000 92.278 157.3491
145.000000 92.224 157.4622
147.500000 92.157 157.5063
150.000000 92.086 157.5880
152.500000 92.025 157.8001
155.000000 91.971 158.0226
157.500000 91.928 158.1551
160.000000 91.875 158.1831
162.500000 91.814 158.3190
165.000000 91.757 158.5435
167.500000 91.694 158.7635
170.000000 91.627 158.9690
172.500000 91.569 159.1392
175.000000 91.521 159.2769
177.500000 91.469 159.4573
180.000000 91.420 159.6906
182.500000 91.375 159.9008
185.000000 91.328 160.0886
187.500000 91.280 160.2672
190.000000 91.229 160.4492
192.500000 91.181 160.6553
195.000000 91.137 160.8687
197.500000 91.095 161.0629
200.000000 91.054 161.2497
203.000000 91.009 161.5042
206.000000 90.961 161.8081
209.000000 90.912 162.0554
212.000000 90.865 162.2381
214.000000 90.836 162.3912
218.000000 90.779 162.7569
220.000000 90.750 162.9393
224.000000 90.698 163.2520
227.000000 90.665 163.4361
230.000000 90.632 163.6385
233.000000 90.602 163.8902
236.000000 90.576 164.1739
240.000000 90.532 164.5397
243.000000 90.493 164.7712
247.000000 90.446 165.1021
250.000000 90.419 165.3505
254.000000 90.383 165.6103
258.000000 90.344 165.8749
262.000000 90.304 166.2008
265.000000 90.266 166.4697
269.000000 90.209 166.8111
272.000000 90.174 167.0440
276.000000 90.143 167.3168
280.000000 90.117 167.5573
285.000000 90.089 167.9704
290.000000 90.063 168.4074
295.000000 90.031 168.7816
300.000000 89.999 169.1739
304.000000 89.972 169.5404
307.000000 89.957 169.7828
311.000000 89.943 170.0267
315.000000 89.927 170.2610
320.000000 89.899 170.6398
325.000000 89.859 171.0708
330.000000 89.818 171.4442
335.000000 89.792 171.7905
340.000000 89.771 172.1420
345.000000 89.748 172.4948
350.000000 89.723 172.8632
355.000000 89.696 173.2576
360.000000 89.670 173.6296
365.000000 89.650 173.9739
370.000000 89.632 174.3406
375.000000 89.621 174.7038
382.000000 89.610 175.1454
387.000000 89.597 175.4587
395.000000 89.559 176.0710
400.000000 89.535 176.4408
406.000000 89.513 176.8187
412.000000 89.494 177.2073
418.000000 89.473 177.6474
425.000000 89.444 178.1530
431.000000 89.423 178.5563
437.000000 89.405 178.9565
444.000000 89.385 179.4272
450.000000 89.368 179.8278
455.000000 89.355 -179.8418
462.000000 89.339 -179.3804
468.000000 89.327 -178.9793
475.000000 89.314 -178.5157
482.000000 89.302 -178.0570
487.000000 89.295 -177.7297
494.000000 89.288 -177.2822
500.000000 89.284 -176.8967
508.000000 89.275 -176.3738
515.000000 89.264 -175.9106
522.000000 89.257 -175.4505
530.000000 89.255 -174.9427
538.000000 89.257 -174.4586
545.000000 89.255 -174.0222
552.000000 89.249 -173.5598
560.000000 89.245 -173.0455
570.000000 89.249 -172.4444
580.000000 89.259 -171.8412
590.000000 89.265 -171.2298
600.000000 89.267 -170.6212
608.000000 89.264 -170.1453
615.000000 89.264 -169.7089
622.000000 89.267 -169.2550
630.000000 89.272 -168.7423
640.000000 89.288 -168.1391
650.000000 89.304 -167.5720
660.000000 89.303 -166.9208
670.000000 89.293 -166.2686
680.000000 89.299 -165.6698
690.000000 89.319 -165.0653
700.000000 89.341 -164.4726
710.000000 89.359 -163.8511
720.000000 89.372 -163.2074
730.000000 89.388 -162.5934
740.000000 89.411 -161.9937
750.000000 89.438 -161.3827
762.000000 89.472 -160.6339
775.000000 89.511 -159.8434
788.000000 89.552 -159.0448
800.000000 89.591 -158.3212
812.000000 89.633 -157.6072
825.000000 89.680 -156.8302
838.000000 89.725 -156.0777
850.000000 89.767 -155.3896
862.000000 89.814 -154.7148
875.000000 89.870 -154.0057
885.000000 89.920 -153.4880
900.000000 90.004 -152.7574
912.000000 90.069 -152.1599
925.000000 90.132 -151.5248
938.000000 90.198 -150.9390
950.000000 90.267 -150.4100
962.000000 90.342 -149.9097
975.000000 90.427 -149.3897
988.000000 90.503 -148.8513
1000.000000 90.566 -148.3792
1015.000000 90.635 -147.8894
1030.000000 90.714 -147.4254
1044.000000 90.801 -147.0219
1060.000000 90.907 -146.5834
1075.000000 90.997 -146.1648
1090.000000 91.089 -145.7852
1106.000000 91.197 -145.4482
1120.000000 91.282 -145.1434
1138.000000 91.379 -144.7670
1150.000000 91.448 -144.5452
1172.000000 91.584 -144.1868
1180.000000 91.631 -144.0525
1206.000000 91.774 -143.6494
1220.000000 91.845 -143.4520
1241.000000 91.951 -143.1389
1250.000000 92.003 -143.0084
1265.000000 92.105 -142.8199
1280.000000 92.215 -142.6499
1315.000000 92.415 -142.2198
1320.000000 92.433 -142.1488
1340.000000 92.499 -141.8673
1360.000000 92.566 -141.6268
1380.000000 92.644 -141.3889
1400.000000 92.734 -141.1505
1430.000000 92.879 -140.8043
1450.000000 92.978 -140.5924
1475.000000 93.091 -140.3294
1500.000000 93.193 -140.0807
1525.000000 93.291 -139.8539
1550.000000 93.387 -139.6335
1575.000000 93.490 -139.4346
1600.000000 93.594 -139.2640
1625.000000 93.681 -139.0862
1650.000000 93.757 -138.8838
1675.000000 93.842 -138.6965
1700.000000 93.930 -138.5207
1725.000000 94.015 -138.3272
1750.000000 94.100 -138.1427
1775.000000 94.186 -137.9565
1800.000000 94.267 -137.7687
1825.000000 94.347 -137.5925
1850.000000 94.426 -137.4336
1875.000000 94.503 -137.2801
1900.000000 94.578 -137.1387
1925.000000 94.651 -137.0022
1950.000000 94.728 -136.8745
1975.000000 94.814 -136.7573
2000.000000 94.898 -136.6503
2030.000000 94.989 -136.5571
2060.000000 95.077 -136.4771
2090.000000 95.159 -136.3744
2120.000000 95.251 -136.3128
2140.000000 95.316 -136.2876
2180.000000 95.437 -136.2487
2200.000000 95.494 -136.2422
2240.000000 95.605 -136.2477
2270.000000 95.690 -136.2754
2300.000000 95.773 -136.3283
2330.000000 95.851 -136.4024
2360.000000 95.925 -136.4986
2400.000000 96.013 -136.6383
2430.000000 96.073 -136.7459
2470.000000 96.147 -136.8957
2500.000000 96.201 -136.9964
2540.000000 96.276 -137.1229
2580.000000 96.360 -137.2613
2620.000000 96.440 -137.4474
2650.000000 96.490 -137.6261
2690.000000 96.539 -137.8857
2720.000000 96.567 -138.0663
2760.000000 96.597 -138.2394
2800.000000 96.626 -138.2850
2850.000000 96.679 -138.1723
2900.000000 96.762 -138.0276
2950.000000 96.871 -138.0443
3000.000000 97.007 -138.3268
3040.000000 97.107 -138.7483
3070.000000 97.164 -139.1429
3110.000000 97.222 -139.7361
3150.000000 97.266 -140.3755
3200.000000 97.304 -141.1842
3250.000000 97.318 -141.9673
3300.000000 97.311 -142.6875
3350.000000 97.305 -143.3717
3400.000000 97.296 -144.0146
3450.000000 97.270 -144.6003
3500.000000 97.238 -145.1422
3550.000000 97.202 -145.6439
3600.000000 97.158 -146.1031
3650.000000 97.102 -146.5238
3700.000000 97.042 -146.9181
3750.000000 96.982 -147.2822
3820.000000 96.896 -147.7278
3870.000000 96.828 -148.0023
3950.000000 96.707 -148.3759
4000.000000 96.626 -148.5801
4060.000000 96.525 -148.7965
4120.000000 96.416 -148.9695
4180.000000 96.301 -149.0917
4250.000000 96.163 -149.1712
4310.000000 96.039 -149.2028
4370.000000 95.906 -149.2042
4440.000000 95.741 -149.1635
4500.000000 95.596 -149.0912
4550.000000 95.473 -149.0038
4620.000000 95.300 -148.8365
4680.000000 95.150 -148.6560
4750.000000 94.972 -148.3940
4820.000000 94.794 -148.0726
4870.000000 94.664 -147.8059
4940.000000 94.480 -147.3902
5000.000000 94.319 -146.9868
5080.000000 94.102 -146.3520
5150.000000 93.908 -145.6998
5220.000000 93.713 -144.9343
5300.000000 93.500 -143.9124
5380.000000 93.304 -142.7648
5450.000000 93.148 -141.6910
5520.000000 93.006 -140.5816
5600.000000 92.857 -139.2816
5700.000000 92.690 -137.6138
5800.000000 92.546 -135.9103
5900.000000 92.425 -134.1752
6000.000000 92.324 -132.4186
6080.000000 92.260 -131.0014
6150.000000 92.218 -129.7609
6220.000000 92.189 -128.5338
6300.000000 92.171 -127.1672
6400.000000 92.172 -125.5324
6500.000000 92.200 -124.0125
6600.000000 92.250 -122.6414
6700.000000 92.315 -121.4583
6800.000000 92.397 -120.4723
6900.000000 92.506 -119.6543
7000.000000 92.632 -118.9598
7100.000000 92.753 -118.3371
7200.000000 92.863 -117.7493
7300.000000 92.990 -117.2308
7400.000000 93.176 -116.8606
7500.000000 93.430 -116.7397
7620.000000 93.825 -117.2121
7750.000000 94.300 -118.9797
7880.000000 94.653 -122.5258
8000.000000 94.782 -127.4255
8120.000000 94.619 -133.3828
8250.000000 94.034 -139.9329
8380.000000 93.080 -145.3427
8500.000000 91.954 -148.5633
8620.000000 90.684 -149.8748
8750.000000 89.244 -149.2709
8850.000000 88.150 -147.5282
9000.000000 86.604 -143.0686
9120.000000 85.482 -138.0490
9250.000000 84.409 -131.2760
9380.000000 83.555 -123.3087
9500.000000 83.053 -115.2649
9620.000000 82.882 -107.2016
9750.000000 83.049 -99.4293
9880.000000 83.453 -93.6171
10000.000000 83.856 -90.3720
10150.000000 84.207 -88.7186
10300.000000 84.287 -88.4169
10440.000000 84.114 -88.1040
10600.000000 83.706 -86.8370
10750.000000 83.222 -84.5620
10900.000000 82.720 -81.3600
11060.000000 82.218 -77.1693
11200.000000 81.840 -73.0406
11380.000000 81.436 -67.2956
11500.000000 81.220 -63.2716
11720.000000 80.949 -55.6167
11800.000000 80.888 -52.7752
12060.000000 80.800 -43.4360
12200.000000 80.824 -38.3786
12410.000000 80.957 -30.8007
12500.000000 81.052 -27.5742
12650.000000 81.267 -22.2614
12800.000000 81.558 -17.0733
13150.000000 82.593 -5.8125
13200.000000 82.787 -4.3449
13400.000000 83.690 1.0254
13600.000000 84.803 5.3078
13800.000000 86.144 7.8967
14000.000000 87.662 7.8984
14300.000000 89.861 0.6949
14500.000000 90.826 -9.6538
14750.000000 90.983 -25.8852
15000.000000 89.969 -39.6396
15250.000000 88.324 -47.6782
15500.000000 86.677 -51.1980
15750.000000 85.263 -52.4087
16000.000000 84.032 -52.7674
16250.000000 82.880 -52.9502
16500.000000 81.707 -53.1557
16750.000000 80.436 -53.1582
17000.000000 79.029 -52.4700
17250.000000 77.499 -50.6498
17500.000000 75.904 -47.4669
17750.000000 74.306 -42.9440
18000.000000 72.721 -37.1297
18250.000000 71.167 -30.2777
18500.000000 69.687 -22.6050
18750.000000 68.294 -14.0340
19000.000000 66.982 -4.7316
19250.000000 65.735 5.1992
19500.000000 64.545 15.7043
19750.000000 63.464 26.5459
20000.000000 62.416 37.2479
20300.000000 61.022 50.3380
20600.000000 59.574 65.7645
20900.000000 58.521 84.1667
21200.000000 58.348 101.3513
21400.000000 58.462 109.9380
21800.000000 58.298 116.8999
22000.000000 57.880 97.9533
22400.000000 56.099 -111.0620
22700.000000 53.041 -56.1130
23000.000000 47.881 -120.6689
23300.000000 42.590 71.0156
23600.000000 40.683 102.3828
24000.000000 41.094 1.6562
