* Measurement data measured by REW V5.20.13
* Source: Microphone (Realtek(R) Audio), MICROPHONE (Master Volume), L, volume: 0.670. Timing signal peak level -36.5 dBFS, measurement signal peak level -30.2 dBFS
* Format: 2M Log Swept Sine, 1 sweep at -12.0 dBFS using an acoustic timing reference
* Dated: Jul 10, 2023 8:40:06 AM
* REW Settings:
*  C-weighting compensation: Off
*  Target level: 75.0 dB
* Note: ; Delay -0.0514 ms (-18 mm, -0.69 in) using estimated IR delay relative to Acoustic reference played from HEADPHONE L with no timing offset Clock adjustment: 120.9 ppm
* Measurement: ZeroRed 25 L
* Smoothing: 1/24 octave
* Frequency Step: 1/48 octave
* Start Frequency: 1.000 Hz
*
* Freq(Hz) SPL(dB) Phase(degrees)
1.000000 72.644 -92.9427
1.015000 72.764 -89.8391
1.030000 72.891 -86.8467
1.044000 73.018 -84.1687
1.060000 73.175 -81.2617
1.075000 73.333 -78.7020
1.090000 73.504 -76.3195
1.106000 73.701 -73.9762
1.120000 73.884 -72.0123
1.138000 74.128 -69.5801
1.150000 74.298 -68.0162
1.172000 74.620 -65.2675
1.180000 74.740 -64.3058
1.206000 75.143 -61.3179
1.220000 75.366 -59.7956
1.241000 75.707 -57.6246
1.250000 75.855 -56.7352
1.265000 76.105 -55.3070
1.280000 76.357 -53.9461
1.315000 76.950 -51.0295
1.320000 77.035 -50.6421
1.340000 77.374 -49.1649
1.360000 77.712 -47.8026
1.380000 78.048 -46.5539
1.400000 78.378 -45.4175
1.430000 78.863 -43.9207
1.450000 79.176 -43.0595
1.475000 79.555 -42.1520
1.500000 79.935 -41.5716
1.525000 80.318 -41.3161
1.550000 80.702 -41.3435
1.575000 81.087 -41.6120
1.600000 81.469 -42.0797
1.625000 81.848 -42.7047
1.650000 82.222 -43.4450
1.675000 82.589 -44.2588
1.700000 82.947 -45.1041
1.725000 83.295 -45.9392
1.750000 83.631 -46.7220
1.775000 83.954 -47.4107
1.800000 84.261 -47.9634
1.825000 84.551 -48.3381
1.850000 84.824 -48.5408
1.875000 85.080 -48.6703
1.900000 85.322 -48.7415
1.925000 85.549 -48.7649
1.950000 85.765 -48.7512
1.975000 85.969 -48.7107
2.000000 86.164 -48.6540
2.030000 86.387 -48.5795
2.060000 86.600 -48.5151
2.090000 86.806 -48.4789
2.120000 87.006 -48.4893
2.140000 87.138 -48.5310
2.180000 87.399 -48.7222
2.200000 87.531 -48.8824
2.240000 87.784 -49.3107
2.270000 87.963 -49.7066
2.300000 88.133 -50.1559
2.330000 88.296 -50.6488
2.360000 88.453 -51.1758
2.400000 88.655 -51.9149
2.430000 88.803 -52.4841
2.470000 88.997 -53.2445
2.500000 89.142 -53.8034
2.540000 89.337 -54.5153
2.580000 89.535 -55.1745
2.620000 89.733 -55.8222
2.650000 89.880 -56.3074
2.690000 90.074 -56.9528
2.720000 90.218 -57.4348
2.760000 90.407 -58.0740
2.800000 90.592 -58.7081
2.850000 90.819 -59.4916
2.900000 91.038 -60.2629
2.950000 91.250 -61.0179
3.000000 91.454 -61.7456
3.040000 91.612 -62.3121
3.070000 91.728 -62.7313
3.110000 91.880 -63.2871
3.150000 92.028 -63.8439
3.200000 92.208 -64.5496
3.250000 92.385 -65.2756
3.300000 92.559 -66.0323
3.350000 92.730 -66.8336
3.400000 92.895 -67.6729
3.450000 93.056 -68.5332
3.500000 93.213 -69.3975
3.550000 93.367 -70.2489
3.600000 93.517 -71.0705
3.650000 93.664 -71.8454
3.700000 93.808 -72.5610
3.750000 93.948 -73.2270
3.820000 94.138 -74.1024
3.870000 94.270 -74.7054
3.950000 94.476 -75.6696
4.000000 94.601 -76.2932
4.060000 94.749 -77.0827
4.120000 94.892 -77.9088
4.180000 95.031 -78.7535
4.250000 95.188 -79.7395
4.310000 95.321 -80.5654
4.370000 95.450 -81.3555
4.440000 95.599 -82.2137
4.500000 95.724 -82.9036
4.550000 95.825 -83.4561
4.620000 95.964 -84.2101
4.680000 96.081 -84.8519
4.750000 96.216 -85.6128
4.820000 96.347 -86.3960
4.870000 96.440 -86.9610
4.940000 96.567 -87.7530
5.000000 96.673 -88.4272
5.080000 96.812 -89.3097
5.150000 96.931 -90.0580
5.220000 97.048 -90.7850
5.300000 97.178 -91.5965
5.380000 97.305 -92.3937
5.450000 97.413 -93.0846
5.520000 97.519 -93.7733
5.600000 97.637 -94.5545
5.700000 97.780 -95.5190
5.800000 97.918 -96.4686
5.900000 98.052 -97.4022
6.000000 98.181 -98.3220
6.080000 98.282 -99.0463
6.150000 98.368 -99.6702
6.220000 98.451 -100.2835
6.300000 98.545 -100.9702
6.400000 98.658 -101.8091
6.500000 98.768 -102.6304
6.600000 98.875 -103.4384
6.700000 98.978 -104.2343
6.800000 99.079 -105.0159
6.900000 99.178 -105.7811
7.000000 99.274 -106.5275
7.100000 99.368 -107.2530
7.200000 99.461 -107.9625
7.300000 99.551 -108.6621
7.400000 99.640 -109.3549
7.500000 99.727 -110.0379
7.620000 99.829 -110.8447
7.750000 99.937 -111.7035
7.880000 100.042 -112.5449
8.000000 100.136 -113.3098
8.120000 100.228 -114.0667
8.250000 100.325 -114.8767
8.380000 100.418 -115.6750
8.500000 100.502 -116.4009
8.620000 100.583 -117.1167
8.750000 100.668 -117.8793
8.850000 100.731 -118.4560
9.000000 100.822 -119.3060
9.120000 100.893 -119.9717
9.250000 100.970 -120.6768
9.380000 101.045 -121.3657
9.500000 101.111 -121.9914
9.620000 101.175 -122.6085
9.750000 101.241 -123.2661
9.880000 101.300 -123.9177
10.000000 101.347 -124.5176
10.150000 101.397 -125.2609
10.300000 101.439 -125.9885
10.440000 101.470 -126.6519
10.600000 101.501 -127.3965
10.750000 101.530 -128.0826
10.900000 101.557 -128.7581
11.060000 101.586 -129.4767
11.200000 101.610 -130.1048
11.380000 101.640 -130.8970
11.500000 101.659 -131.4130
11.720000 101.692 -132.3346
11.800000 101.704 -132.6597
12.060000 101.746 -133.6871
12.200000 101.770 -134.2311
12.410000 101.808 -135.0339
12.500000 101.825 -135.3733
12.650000 101.852 -135.9324
12.800000 101.879 -136.4850
13.150000 101.939 -137.7533
13.200000 101.948 -137.9323
13.400000 101.982 -138.6440
13.600000 102.017 -139.3453
13.800000 102.051 -140.0347
14.000000 102.085 -140.7159
14.300000 102.133 -141.7235
14.500000 102.163 -142.3857
14.750000 102.199 -143.2034
15.000000 102.234 -144.0102
15.250000 102.268 -144.8084
15.500000 102.300 -145.5850
15.750000 102.330 -146.3331
16.000000 102.357 -147.0435
16.250000 102.385 -147.7242
16.500000 102.414 -148.3828
16.750000 102.448 -149.0312
17.000000 102.485 -149.6893
17.250000 102.524 -150.3650
17.500000 102.562 -151.0673
17.750000 102.595 -151.7883
18.000000 102.622 -152.5159
18.250000 102.641 -153.2366
18.500000 102.655 -153.9254
18.750000 102.666 -154.5749
19.000000 102.677 -155.1788
19.250000 102.690 -155.7460
19.500000 102.707 -156.2896
19.750000 102.727 -156.8205
20.000000 102.750 -157.3559
20.299999 102.779 -158.0126
20.600000 102.806 -158.6866
20.900000 102.830 -159.3699
21.200001 102.848 -160.0471
21.400000 102.857 -160.4859
21.799999 102.872 -161.3233
22.000000 102.878 -161.7194
22.400000 102.893 -162.4713
22.700001 102.908 -163.0130
23.000000 102.927 -163.5541
23.299999 102.948 -164.1130
23.600000 102.969 -164.7002
24.000000 102.994 -165.5289
24.299999 103.006 -166.1704
24.700001 103.010 -167.0190
25.000000 103.006 -167.6253
25.400000 102.996 -168.3731
25.799999 102.985 -169.0536
26.200001 102.977 -169.6891
26.500000 102.974 -170.1507
26.900000 102.973 -170.7558
27.200001 102.973 -171.2039
27.600000 102.976 -171.7948
28.000000 102.982 -172.3855
28.500000 102.993 -173.1442
29.000000 103.004 -173.9417
29.500000 103.011 -174.7680
30.000000 103.009 -175.5924
30.400000 103.000 -176.2314
30.700001 102.991 -176.6928
31.100000 102.976 -177.2808
31.500000 102.961 -177.8381
32.000000 102.942 -178.4973
32.500000 102.924 -179.1264
33.000000 102.907 -179.7357
33.500000 102.890 179.6721
34.000000 102.876 179.0895
34.500000 102.864 178.4954
35.000000 102.851 177.8727
35.500000 102.832 177.2351
36.000000 102.805 176.6234
36.500000 102.776 176.0671
37.000000 102.751 175.5543
37.500000 102.733 175.0431
38.200001 102.713 174.2750
38.700001 102.695 173.6984
39.500000 102.658 172.8028
40.000000 102.633 172.2784
40.599998 102.605 171.6727
41.200001 102.576 171.0761
41.799999 102.545 170.4932
42.500000 102.507 169.8487
43.099998 102.478 169.3180
43.700001 102.450 168.7743
44.400002 102.415 168.1076
45.000000 102.380 167.5307
45.500000 102.348 167.0612
46.200001 102.303 166.4178
46.799999 102.265 165.8764
47.500000 102.222 165.2703
48.200001 102.185 164.6861
48.700001 102.160 164.2678
49.400002 102.124 163.6901
50.000000 102.091 163.2377
50.799999 102.054 162.6834
51.500000 102.025 162.1596
52.200001 101.983 161.5999
53.000000 101.922 161.0132
53.799999 101.859 160.4412
54.500000 101.792 159.9056
55.200001 101.713 159.4489
56.000000 101.637 159.0651
57.000000 101.587 158.4804
58.000000 101.547 157.6206
59.000000 101.481 156.6020
60.000000 101.368 155.8228
60.799999 101.292 155.5458
61.500000 101.258 155.3474
62.200001 101.233 155.0489
63.000000 101.197 154.6255
64.000000 101.132 154.0654
65.000000 101.050 153.5402
66.000000 100.968 153.0483
67.000000 100.889 152.5065
68.000000 100.805 151.9574
69.000000 100.726 151.4381
70.000000 100.651 150.9393
71.000000 100.578 150.4625
72.000000 100.501 150.0142
73.000000 100.420 149.6148
74.000000 100.339 149.2468
75.000000 100.259 148.8794
76.199997 100.166 148.4032
77.500000 100.062 147.8143
78.800003 99.953 147.2611
80.000000 99.854 146.8041
81.199997 99.758 146.3976
82.500000 99.654 145.9944
83.800003 99.547 145.6182
85.000000 99.448 145.2820
86.199997 99.349 144.9424
87.500000 99.244 144.5657
88.500000 99.164 144.2686
90.000000 99.043 143.8458
91.199997 98.947 143.5421
92.500000 98.842 143.2432
93.800003 98.736 142.9757
95.000000 98.636 142.7474
96.199997 98.536 142.5248
97.500000 98.428 142.2706
98.800003 98.318 142.0208
100.000000 98.216 141.8216
101.500000 98.090 141.6216
103.000000 97.967 141.4733
104.400002 97.855 141.3490
106.000000 97.727 141.1760
107.500000 97.605 140.9948
109.000000 97.486 140.8150
110.599998 97.359 140.6525
112.000000 97.248 140.5696
113.800003 97.100 140.5239
115.000000 96.997 140.5172
117.199997 96.804 140.4058
118.000000 96.728 140.3476
120.599998 96.504 140.4371
122.000000 96.422 140.4860
124.099998 96.293 140.5223
125.000000 96.235 140.5587
126.500000 96.135 140.6133
128.000000 96.030 140.6712
131.500000 95.800 140.8421
132.000000 95.766 140.8765
134.000000 95.631 141.0912
136.000000 95.497 141.3701
138.000000 95.368 141.6707
140.000000 95.251 141.9431
143.000000 95.077 142.3293
145.000000 94.960 142.6341
147.500000 94.815 143.0547
150.000000 94.678 143.5333
152.500000 94.554 143.9993
155.000000 94.439 144.3951
157.500000 94.322 144.8318
160.000000 94.213 145.4009
162.500000 94.107 146.0185
165.000000 94.004 146.6449
167.500000 93.904 147.1926
170.000000 93.805 147.6664
172.500000 93.710 148.1914
175.000000 93.618 148.8676
177.500000 93.511 149.6988
180.000000 93.426 150.4786
182.500000 93.378 150.8174
185.000000 93.330 151.0674
187.500000 93.276 151.5231
190.000000 93.207 152.1326
192.500000 93.147 152.7423
195.000000 93.104 153.2664
197.500000 93.061 153.7690
200.000000 93.014 154.2779
203.000000 92.963 154.8460
206.000000 92.918 155.4280
209.000000 92.874 156.1125
212.000000 92.841 156.7631
214.000000 92.822 157.1234
218.000000 92.785 157.7557
220.000000 92.768 158.0504
224.000000 92.733 158.6695
227.000000 92.702 159.1541
230.000000 92.676 159.6342
233.000000 92.652 160.1359
236.000000 92.631 160.6777
240.000000 92.621 161.2331
243.000000 92.619 161.5603
247.000000 92.614 162.0493
250.000000 92.607 162.4553
254.000000 92.596 162.9623
258.000000 92.584 163.3888
262.000000 92.573 163.8218
265.000000 92.568 164.1482
269.000000 92.555 164.5181
272.000000 92.544 164.7729
276.000000 92.537 165.1251
280.000000 92.537 165.5151
285.000000 92.534 166.0028
290.000000 92.527 166.3584
295.000000 92.511 166.6585
300.000000 92.501 166.8942
304.000000 92.499 167.2087
307.000000 92.499 167.4559
311.000000 92.495 167.7272
315.000000 92.487 167.9913
320.000000 92.479 168.3468
325.000000 92.472 168.6887
330.000000 92.462 168.9949
335.000000 92.449 169.2876
340.000000 92.440 169.5504
345.000000 92.433 169.7715
350.000000 92.420 170.0153
355.000000 92.410 170.3110
360.000000 92.401 170.6349
365.000000 92.380 170.8982
370.000000 92.353 171.1286
375.000000 92.325 171.3626
382.000000 92.289 171.6922
387.000000 92.264 171.9461
395.000000 92.234 172.3435
400.000000 92.215 172.5988
406.000000 92.187 172.9109
412.000000 92.156 173.1397
418.000000 92.123 173.3381
425.000000 92.096 173.7415
431.000000 92.075 174.1475
437.000000 92.049 174.5056
444.000000 92.016 174.8669
450.000000 91.984 175.1798
455.000000 91.960 175.4423
462.000000 91.930 175.8054
468.000000 91.902 176.1135
475.000000 91.866 176.4672
482.000000 91.832 176.8406
487.000000 91.814 177.1174
494.000000 91.793 177.5274
500.000000 91.768 177.8839
508.000000 91.734 178.3263
515.000000 91.710 178.7169
522.000000 91.689 179.1185
530.000000 91.668 179.6037
538.000000 91.649 -179.8940
545.000000 91.622 -179.5116
552.000000 91.593 -179.1616
560.000000 91.566 -178.7179
570.000000 91.539 -178.1420
580.000000 91.516 -177.5673
590.000000 91.500 -176.9473
600.000000 91.474 -176.3146
608.000000 91.446 -175.8135
615.000000 91.425 -175.3954
622.000000 91.412 -174.9856
630.000000 91.398 -174.4833
640.000000 91.368 -173.8435
650.000000 91.334 -173.2573
660.000000 91.310 -172.6334
670.000000 91.292 -171.9450
680.000000 91.275 -171.2496
690.000000 91.261 -170.5677
700.000000 91.251 -169.9218
710.000000 91.242 -169.3121
720.000000 91.234 -168.6789
730.000000 91.228 -168.0120
740.000000 91.226 -167.3262
750.000000 91.223 -166.6283
762.000000 91.218 -165.8136
775.000000 91.218 -164.9541
788.000000 91.221 -164.0588
800.000000 91.227 -163.2113
812.000000 91.243 -162.3966
825.000000 91.262 -161.5508
838.000000 91.285 -160.6635
850.000000 91.306 -159.8150
862.000000 91.328 -159.0094
875.000000 91.355 -158.1635
885.000000 91.384 -157.5306
900.000000 91.439 -156.5971
912.000000 91.474 -155.8208
925.000000 91.513 -154.9936
938.000000 91.565 -154.1894
950.000000 91.617 -153.4955
962.000000 91.665 -152.8366
975.000000 91.718 -152.1273
988.000000 91.778 -151.4462
1000.000000 91.834 -150.8388
1015.000000 91.902 -150.0871
1030.000000 91.974 -149.3996
1044.000000 92.045 -148.8235
1060.000000 92.125 -148.1790
1075.000000 92.198 -147.5504
1090.000000 92.278 -146.9748
1106.000000 92.374 -146.4420
1120.000000 92.454 -146.0107
1138.000000 92.552 -145.4673
1150.000000 92.617 -145.0901
1172.000000 92.738 -144.4638
1180.000000 92.782 -144.2560
1206.000000 92.920 -143.5930
1220.000000 92.993 -143.2101
1241.000000 93.104 -142.6374
1250.000000 93.152 -142.3919
1265.000000 93.230 -141.9739
1280.000000 93.308 -141.5528
1315.000000 93.483 -140.6006
1320.000000 93.508 -140.4636
1340.000000 93.605 -139.9133
1360.000000 93.689 -139.3666
1380.000000 93.775 -138.8362
1400.000000 93.881 -138.3330
1430.000000 94.059 -137.6225
1450.000000 94.179 -137.1761
1475.000000 94.327 -136.7001
1500.000000 94.476 -136.3107
1525.000000 94.615 -136.0034
1550.000000 94.742 -135.7560
1575.000000 94.860 -135.5388
1600.000000 94.969 -135.3488
1625.000000 95.065 -135.1700
1650.000000 95.157 -134.9914
1675.000000 95.243 -134.7892
1700.000000 95.322 -134.5780
1725.000000 95.394 -134.3358
1750.000000 95.463 -134.0701
1775.000000 95.534 -133.7913
1800.000000 95.606 -133.5015
1825.000000 95.674 -133.1957
1850.000000 95.745 -132.8711
1875.000000 95.819 -132.5423
1900.000000 95.893 -132.2238
1925.000000 95.968 -131.9049
1950.000000 96.047 -131.5762
1975.000000 96.125 -131.2523
2000.000000 96.203 -130.9426
2030.000000 96.296 -130.5733
2060.000000 96.390 -130.2240
2090.000000 96.490 -129.9079
2120.000000 96.595 -129.6122
2140.000000 96.665 -129.4132
2180.000000 96.800 -129.0345
2200.000000 96.865 -128.8737
2240.000000 96.995 -128.5814
2270.000000 97.093 -128.3858
2300.000000 97.192 -128.2114
2330.000000 97.290 -128.0584
2360.000000 97.388 -127.9332
2400.000000 97.518 -127.8215
2430.000000 97.615 -127.7832
2470.000000 97.741 -127.7587
2500.000000 97.830 -127.7601
2540.000000 97.945 -127.8025
2580.000000 98.056 -127.8952
2620.000000 98.162 -128.0142
2650.000000 98.239 -128.1320
2690.000000 98.338 -128.3247
2720.000000 98.407 -128.4878
2760.000000 98.494 -128.7359
2800.000000 98.574 -129.0275
2850.000000 98.665 -129.4545
2900.000000 98.742 -129.9266
2950.000000 98.804 -130.4346
3000.000000 98.849 -130.9764
3040.000000 98.876 -131.4255
3070.000000 98.892 -131.7700
3110.000000 98.907 -132.2509
3150.000000 98.912 -132.7592
3200.000000 98.892 -133.3939
3250.000000 98.843 -133.9309
3300.000000 98.781 -134.3248
3350.000000 98.717 -134.6123
3400.000000 98.657 -134.8021
3450.000000 98.608 -134.9096
3500.000000 98.577 -134.9788
3550.000000 98.561 -135.1058
3600.000000 98.544 -135.3416
3650.000000 98.516 -135.6737
3700.000000 98.470 -136.0438
3750.000000 98.406 -136.4028
3820.000000 98.296 -136.8410
3870.000000 98.202 -137.1065
3950.000000 98.030 -137.4115
4000.000000 97.915 -137.5314
4060.000000 97.774 -137.6165
4120.000000 97.627 -137.6438
4180.000000 97.475 -137.6201
4250.000000 97.292 -137.5218
4310.000000 97.127 -137.3878
4370.000000 96.953 -137.2052
4440.000000 96.742 -136.9246
4500.000000 96.557 -136.6271
4550.000000 96.401 -136.3423
4620.000000 96.182 -135.8936
4680.000000 95.995 -135.4809
4750.000000 95.774 -134.9844
4820.000000 95.538 -134.4373
4870.000000 95.359 -133.9622
4940.000000 95.099 -133.0997
5000.000000 94.881 -132.1640
5080.000000 94.619 -130.7034
5150.000000 94.425 -129.3218
5220.000000 94.258 -127.9190
5300.000000 94.089 -126.3335
5380.000000 93.937 -124.7847
5450.000000 93.816 -123.4535
5520.000000 93.704 -122.1361
5600.000000 93.589 -120.6255
5700.000000 93.465 -118.6975
5800.000000 93.358 -116.7498
5900.000000 93.279 -114.8022
6000.000000 93.226 -112.8340
6080.000000 93.203 -111.2496
6150.000000 93.198 -109.8610
6220.000000 93.207 -108.4777
6300.000000 93.234 -106.9102
6400.000000 93.300 -105.0018
6500.000000 93.399 -103.1725
6600.000000 93.533 -101.4462
6700.000000 93.701 -99.8437
6800.000000 93.908 -98.3893
6900.000000 94.172 -97.1267
7000.000000 94.488 -96.0865
7100.000000 94.833 -95.3177
7200.000000 95.201 -94.8669
7300.000000 95.591 -94.7809
7400.000000 96.000 -95.1359
7500.000000 96.421 -96.0055
7620.000000 96.946 -97.8479
7750.000000 97.493 -101.0682
7880.000000 97.859 -105.8067
8000.000000 97.953 -111.4934
8120.000000 97.744 -117.9901
8250.000000 97.114 -124.8489
8380.000000 96.093 -130.1733
8500.000000 94.913 -132.9499
8620.000000 93.636 -133.5485
8750.000000 92.265 -132.0952
8850.000000 91.272 -129.8534
9000.000000 89.930 -125.2037
9120.000000 88.987 -120.7426
9250.000000 88.088 -115.4600
9380.000000 87.299 -109.8686
9500.000000 86.660 -104.5468
9620.000000 86.097 -99.1104
9750.000000 85.568 -93.1699
9880.000000 85.116 -87.2559
10000.000000 84.757 -81.8145
10150.000000 84.381 -75.0309
10300.000000 84.078 -68.3363
10440.000000 83.857 -62.2647
10600.000000 83.676 -55.6010
10750.000000 83.573 -49.6724
10900.000000 83.533 -44.1568
11060.000000 83.543 -38.9092
11200.000000 83.563 -34.9568
11380.000000 83.537 -30.5991
11500.000000 83.455 -27.9049
11720.000000 83.178 -22.4445
11800.000000 83.068 -20.0368
12060.000000 82.954 -10.2353
12200.000000 83.202 -4.1623
12410.000000 84.125 4.5490
12500.000000 84.730 7.7221
12650.000000 86.003 11.7662
12800.000000 87.568 13.6253
13150.000000 91.422 3.3413
13200.000000 91.825 -0.2807
13400.000000 92.600 -18.4040
13600.000000 91.951 -35.5709
13800.000000 90.376 -45.2600
14000.000000 88.638 -47.7204
14300.000000 86.611 -43.8305
14500.000000 85.711 -38.8173
14750.000000 84.974 -31.2995
15000.000000 84.565 -22.9976
15250.000000 84.444 -14.2814
15500.000000 84.649 -5.6345
15750.000000 85.215 2.2146
16000.000000 86.115 8.1050
16250.000000 87.236 10.0352
16500.000000 88.172 5.2805
16750.000000 88.219 -6.6685
17000.000000 86.859 -21.1038
17250.000000 84.164 -40.5729
17500.000000 80.652 -127.5151
17750.000000 76.950 -84.5679
18000.000000 73.754 -5.3402
18250.000000 70.942 -147.6697
18500.000000 67.456 -21.0354
18750.000000 64.856 46.6467
19000.000000 65.165 -63.2236
19250.000000 66.823 140.7632
19500.000000 68.345 -88.7515
19750.000000 69.511 119.3374
20000.000000 70.377 -52.0483
20300.000000 71.033 111.7573
20600.000000 71.543 -2.5352
20900.000000 72.002 -16.5239
21200.000000 72.416 -1.6484
21400.000000 72.714 10.7793
21800.000000 73.511 30.6792
22000.000000 73.994 12.9287
22400.000000 74.365 41.5513
22700.000000 72.729 -41.1992
23000.000000 69.283 171.8691
23300.000000 66.458 -105.9922
23600.000000 65.560 33.6797
24000.000000 65.198 161.1680
