* Measurement data measured by REW V5.20.13
* Source: Microphone (Realtek(R) Audio), MICROPHONE (Master Volume), L, volume: 0.670. Timing signal peak level -34.5 dBFS, measurement signal peak level -30.7 dBFS
* Format: 2M Log Swept Sine, 1 sweep at -12.0 dBFS using an acoustic timing reference
* Dated: Jul 10, 2023 9:43:17 AM
* REW Settings:
*  C-weighting compensation: Off
*  Target level: 75.0 dB
* Note: ; Delay -0.0476 ms (-16 mm, -0.64 in) using estimated IR delay relative to Acoustic reference played from HEADPHONE R with no timing offset Clock adjustment: 120.5 ppm
* Measurement: CrinZero 25 R
* Smoothing: 1/24 octave
* Frequency Step: 1/48 octave
* Start Frequency: 1.000 Hz
*
* Freq(Hz) SPL(dB) Phase(degrees)
1.000000 71.180 -113.6288
1.015000 71.323 -110.6469
1.030000 71.471 -107.7538
1.044000 71.614 -105.1454
1.060000 71.785 -102.2876
1.075000 71.954 -99.7415
1.090000 72.133 -97.3382
1.106000 72.335 -94.9338
1.120000 72.514 -92.8976
1.138000 72.746 -90.3510
1.150000 72.901 -88.6979
1.172000 73.187 -85.7592
1.180000 73.291 -84.7200
1.206000 73.632 -81.4502
1.220000 73.816 -79.7573
1.241000 74.093 -77.3066
1.250000 74.212 -76.2887
1.265000 74.410 -74.6351
1.280000 74.609 -73.0350
1.315000 75.074 -69.5079
1.320000 75.140 -69.0275
1.340000 75.406 -67.1642
1.360000 75.671 -65.3937
1.380000 75.936 -63.7154
1.400000 76.201 -62.1288
1.430000 76.597 -59.9193
1.450000 76.859 -58.5591
1.475000 77.187 -56.9945
1.500000 77.521 -55.6593
1.525000 77.862 -54.5521
1.550000 78.207 -53.6488
1.575000 78.556 -52.9257
1.600000 78.905 -52.3589
1.625000 79.252 -51.9245
1.650000 79.597 -51.5987
1.675000 79.936 -51.3575
1.700000 80.267 -51.1771
1.725000 80.590 -51.0336
1.750000 80.901 -50.9032
1.775000 81.198 -50.7619
1.800000 81.480 -50.5860
1.825000 81.745 -50.3515
1.850000 81.992 -50.0726
1.875000 82.225 -49.8272
1.900000 82.444 -49.6166
1.925000 82.650 -49.4391
1.950000 82.846 -49.2922
1.975000 83.031 -49.1740
2.000000 83.207 -49.0822
2.030000 83.407 -49.0041
2.060000 83.598 -48.9573
2.090000 83.782 -48.9383
2.120000 83.959 -48.9433
2.140000 84.074 -48.9583
2.180000 84.302 -49.0108
2.200000 84.416 -49.0465
2.240000 84.630 -49.1630
2.270000 84.778 -49.2943
2.300000 84.916 -49.4586
2.330000 85.046 -49.6515
2.360000 85.170 -49.8688
2.400000 85.328 -50.1889
2.430000 85.443 -50.4462
2.470000 85.595 -50.8042
2.500000 85.710 -51.0783
2.540000 85.867 -51.4431
2.580000 86.031 -51.8016
2.620000 86.198 -52.1789
2.650000 86.324 -52.4765
2.690000 86.491 -52.8895
2.720000 86.615 -53.2089
2.760000 86.779 -53.6443
2.800000 86.941 -54.0868
2.850000 87.138 -54.6432
2.900000 87.327 -55.1954
2.950000 87.507 -55.7370
3.000000 87.679 -56.2782
3.040000 87.811 -56.7133
3.070000 87.907 -57.0409
3.110000 88.032 -57.4793
3.150000 88.155 -57.9196
3.200000 88.305 -58.4727
3.250000 88.454 -59.0286
3.300000 88.603 -59.5875
3.350000 88.750 -60.1553
3.400000 88.894 -60.7328
3.450000 89.036 -61.3149
3.500000 89.175 -61.8968
3.550000 89.312 -62.4735
3.600000 89.447 -63.0401
3.650000 89.580 -63.5915
3.700000 89.711 -64.1245
3.750000 89.839 -64.6425
3.820000 90.014 -65.3492
3.870000 90.137 -65.8453
3.950000 90.330 -66.6336
4.000000 90.450 -67.1281
4.060000 90.593 -67.7280
4.120000 90.734 -68.3302
4.180000 90.873 -68.9323
4.250000 91.033 -69.6318
4.310000 91.169 -70.2267
4.370000 91.304 -70.8150
4.440000 91.461 -71.4898
4.500000 91.593 -72.0564
4.550000 91.703 -72.5236
4.620000 91.856 -73.1749
4.680000 91.985 -73.7355
4.750000 92.134 -74.3987
4.820000 92.281 -75.0740
4.870000 92.385 -75.5607
4.940000 92.530 -76.2467
5.000000 92.653 -76.8377
5.080000 92.813 -77.6283
5.150000 92.950 -78.3208
5.220000 93.084 -79.0163
5.300000 93.234 -79.8146
5.380000 93.381 -80.6143
5.450000 93.506 -81.3137
5.520000 93.627 -82.0116
5.600000 93.761 -82.8127
5.700000 93.922 -83.8141
5.800000 94.077 -84.8060
5.900000 94.224 -85.7801
6.000000 94.365 -86.7450
6.080000 94.472 -87.5063
6.150000 94.563 -88.1599
6.220000 94.651 -88.7978
6.300000 94.748 -89.5086
6.400000 94.863 -90.3747
6.500000 94.973 -91.2115
6.600000 95.080 -92.0143
6.700000 95.184 -92.7820
6.800000 95.283 -93.5170
6.900000 95.380 -94.2203
7.000000 95.477 -94.8923
7.100000 95.573 -95.5284
7.200000 95.667 -96.1351
7.300000 95.762 -96.7211
7.400000 95.857 -97.2888
7.500000 95.953 -97.8324
7.620000 96.068 -98.4652
7.750000 96.193 -99.1412
7.880000 96.320 -99.7995
8.000000 96.438 -100.4008
8.120000 96.554 -101.0066
8.250000 96.681 -101.6630
8.380000 96.806 -102.3214
8.500000 96.919 -102.9340
8.620000 97.030 -103.5511
8.750000 97.148 -104.2195
8.850000 97.235 -104.7313
9.000000 97.362 -105.4991
9.120000 97.461 -106.1056
9.250000 97.566 -106.7484
9.380000 97.668 -107.3798
9.500000 97.758 -107.9521
9.620000 97.846 -108.5133
9.750000 97.936 -109.1092
9.880000 98.020 -109.6962
10.000000 98.089 -110.2322
10.150000 98.168 -110.8922
10.300000 98.239 -111.5370
10.440000 98.298 -112.1226
10.600000 98.361 -112.7819
10.750000 98.421 -113.3950
10.900000 98.479 -114.0034
11.060000 98.541 -114.6613
11.200000 98.595 -115.2456
11.380000 98.661 -115.9915
11.500000 98.703 -116.4835
11.720000 98.778 -117.3699
11.800000 98.804 -117.6838
12.060000 98.890 -118.6794
12.200000 98.937 -119.2045
12.410000 99.008 -119.9768
12.500000 99.039 -120.3019
12.650000 99.089 -120.8349
12.800000 99.139 -121.3611
13.150000 99.253 -122.5711
13.200000 99.270 -122.7432
13.400000 99.336 -123.4308
13.600000 99.401 -124.1140
13.800000 99.465 -124.7921
14.000000 99.527 -125.4621
14.300000 99.615 -126.4482
14.500000 99.671 -127.0842
14.750000 99.741 -127.8546
15.000000 99.811 -128.5995
15.250000 99.886 -129.3330
15.500000 99.963 -130.0614
15.750000 100.041 -130.7895
16.000000 100.117 -131.5240
16.250000 100.190 -132.2679
16.500000 100.261 -133.0185
16.750000 100.327 -133.7682
17.000000 100.391 -134.5055
17.250000 100.452 -135.2251
17.500000 100.511 -135.9209
17.750000 100.568 -136.5933
18.000000 100.625 -137.2476
18.250000 100.683 -137.8896
18.500000 100.740 -138.5278
18.750000 100.798 -139.1656
19.000000 100.856 -139.8064
19.250000 100.913 -140.4513
19.500000 100.968 -141.0952
19.750000 101.020 -141.7342
20.000000 101.070 -142.3614
20.299999 101.128 -143.0969
20.600000 101.184 -143.8151
20.900000 101.240 -144.5206
21.200001 101.295 -145.2217
21.400000 101.331 -145.6906
21.799999 101.401 -146.6339
22.000000 101.434 -147.1085
22.400000 101.498 -148.0593
22.700001 101.542 -148.7678
23.000000 101.583 -149.4680
23.299999 101.622 -150.1598
23.600000 101.658 -150.8429
24.000000 101.704 -151.7373
24.299999 101.737 -152.3918
24.700001 101.779 -153.2381
25.000000 101.810 -153.8531
25.400000 101.852 -154.6546
25.799999 101.896 -155.4526
26.200001 101.941 -156.2652
26.500000 101.973 -156.8873
26.900000 102.011 -157.7240
27.200001 102.035 -158.3442
27.600000 102.063 -159.1449
28.000000 102.089 -159.9085
28.500000 102.125 -160.8299
29.000000 102.163 -161.7570
29.500000 102.199 -162.7112
30.000000 102.225 -163.6685
30.400000 102.238 -164.4041
30.700001 102.245 -164.9264
31.100000 102.256 -165.5837
31.500000 102.271 -166.2128
32.000000 102.299 -167.0011
32.500000 102.331 -167.8361
33.000000 102.359 -168.7354
33.500000 102.376 -169.6749
34.000000 102.381 -170.6008
34.500000 102.376 -171.4649
35.000000 102.369 -172.2542
35.500000 102.365 -172.9920
36.000000 102.364 -173.7101
36.500000 102.362 -174.4200
37.000000 102.360 -175.1146
37.500000 102.359 -175.7932
38.200001 102.361 -176.7553
38.700001 102.363 -177.4738
39.500000 102.355 -178.6323
40.000000 102.348 -179.3279
40.599998 102.342 179.8501
41.200001 102.339 179.0016
41.799999 102.329 178.1347
42.500000 102.309 177.1640
43.099998 102.290 176.3908
43.700001 102.274 175.6500
44.400002 102.253 174.8118
45.000000 102.234 174.1231
45.500000 102.220 173.5602
46.200001 102.199 172.7527
46.799999 102.176 172.0392
47.500000 102.140 171.2332
48.200001 102.105 170.4704
48.700001 102.082 169.9236
49.400002 102.048 169.1343
50.000000 102.017 168.4599
50.799999 101.976 167.5878
51.500000 101.942 166.8520
52.200001 101.912 166.1562
53.000000 101.888 165.3571
53.799999 101.859 164.5101
54.500000 101.827 163.8406
55.200001 101.810 163.2136
56.000000 101.797 162.2737
57.000000 101.705 160.9907
58.000000 101.594 160.2812
59.000000 101.551 159.4745
60.000000 101.459 158.3871
60.799999 101.360 157.8423
61.500000 101.304 157.5125
62.200001 101.269 157.0980
63.000000 101.227 156.5168
64.000000 101.161 155.7869
65.000000 101.089 155.0912
66.000000 101.015 154.4276
67.000000 100.944 153.7395
68.000000 100.865 152.9985
69.000000 100.775 152.3031
70.000000 100.693 151.6476
71.000000 100.612 150.9692
72.000000 100.529 150.3314
73.000000 100.451 149.7074
74.000000 100.367 149.0794
75.000000 100.280 148.5199
76.199997 100.184 147.8723
77.500000 100.079 147.1308
78.800003 99.965 146.4344
80.000000 99.863 145.8495
81.199997 99.763 145.2450
82.500000 99.651 144.6266
83.800003 99.548 143.9774
85.000000 99.445 143.3215
86.199997 99.336 142.7479
87.500000 99.231 142.1927
88.500000 99.154 141.7544
90.000000 99.029 141.0976
91.199997 98.918 140.6430
92.500000 98.799 140.2434
93.800003 98.694 139.8370
95.000000 98.601 139.3902
96.199997 98.503 138.9165
97.500000 98.389 138.4575
98.800003 98.273 138.0643
100.000000 98.164 137.7252
101.500000 98.025 137.3189
103.000000 97.890 136.8471
104.400002 97.765 136.3600
106.000000 97.623 135.8669
107.500000 97.495 135.5459
109.000000 97.368 135.3127
110.599998 97.217 135.0833
112.000000 97.074 134.8612
113.800003 96.894 134.4477
115.000000 96.782 134.0977
117.199997 96.599 133.5389
118.000000 96.545 133.3882
120.599998 96.341 132.8257
122.000000 96.186 132.7052
124.099998 95.964 132.6630
125.000000 95.879 132.6161
126.500000 95.751 132.4821
128.000000 95.634 132.3022
131.500000 95.351 132.0185
132.000000 95.307 132.0075
134.000000 95.129 131.9958
136.000000 94.952 132.0054
138.000000 94.782 132.0410
140.000000 94.613 132.0962
143.000000 94.358 132.2583
145.000000 94.193 132.3975
147.500000 93.991 132.6080
150.000000 93.786 132.8489
152.500000 93.580 133.1528
155.000000 93.388 133.4709
157.500000 93.210 133.8111
160.000000 93.033 134.2093
162.500000 92.867 134.6921
165.000000 92.709 135.1027
167.500000 92.529 135.6024
170.000000 92.353 136.2518
172.500000 92.197 136.8811
175.000000 92.063 137.6121
177.500000 91.952 138.5865
180.000000 91.852 139.4653
182.500000 91.695 139.9596
185.000000 91.508 140.4804
187.500000 91.363 141.1572
190.000000 91.263 141.9511
192.500000 91.174 142.7188
195.000000 91.071 143.4742
197.500000 90.970 144.2636
200.000000 90.886 145.0177
203.000000 90.790 145.8693
206.000000 90.699 146.7518
209.000000 90.616 147.6498
212.000000 90.537 148.5751
214.000000 90.492 149.1947
218.000000 90.415 150.3608
220.000000 90.380 150.9239
224.000000 90.330 151.9523
227.000000 90.291 152.6238
230.000000 90.236 153.3669
233.000000 90.195 154.1171
236.000000 90.191 154.8257
240.000000 90.203 155.8924
243.000000 90.176 156.5891
247.000000 90.115 157.2301
250.000000 90.091 157.7133
254.000000 90.069 158.4854
258.000000 90.050 159.2265
262.000000 90.037 159.9187
265.000000 90.031 160.4586
269.000000 90.018 161.1121
272.000000 90.001 161.5431
276.000000 89.989 162.0744
280.000000 89.992 162.5752
285.000000 89.979 163.2587
290.000000 89.969 164.0268
295.000000 89.950 164.7331
300.000000 89.910 165.4345
304.000000 89.925 165.8722
307.000000 89.945 166.1525
311.000000 89.946 166.5892
315.000000 89.934 167.0571
320.000000 89.939 167.5430
325.000000 89.948 167.9350
330.000000 89.940 168.3482
335.000000 89.931 168.8062
340.000000 89.921 169.2353
345.000000 89.898 169.6443
350.000000 89.876 170.0350
355.000000 89.857 170.5161
360.000000 89.837 171.0814
365.000000 89.827 171.5268
370.000000 89.817 171.8127
375.000000 89.795 172.1388
382.000000 89.774 172.7327
387.000000 89.755 173.1694
395.000000 89.714 173.8168
400.000000 89.691 174.1722
406.000000 89.663 174.6302
412.000000 89.635 175.1420
418.000000 89.589 175.6472
425.000000 89.555 176.2110
431.000000 89.548 176.7195
437.000000 89.525 177.1963
444.000000 89.488 177.6751
450.000000 89.465 178.1405
455.000000 89.453 178.5856
462.000000 89.427 179.1846
468.000000 89.398 179.6213
475.000000 89.368 -179.8711
482.000000 89.343 -179.2966
487.000000 89.328 -178.8581
494.000000 89.309 -178.2542
500.000000 89.295 -177.7721
508.000000 89.275 -177.1558
515.000000 89.257 -176.5813
522.000000 89.240 -175.9928
530.000000 89.233 -175.3058
538.000000 89.234 -174.6300
545.000000 89.224 -174.0681
552.000000 89.200 -173.4628
560.000000 89.175 -172.7309
570.000000 89.154 -171.9236
580.000000 89.147 -171.1360
590.000000 89.147 -170.3184
600.000000 89.147 -169.4696
608.000000 89.148 -168.7549
615.000000 89.142 -168.1363
622.000000 89.130 -167.5240
630.000000 89.119 -166.8154
640.000000 89.106 -165.9196
650.000000 89.100 -165.0747
660.000000 89.106 -164.2447
670.000000 89.098 -163.3561
680.000000 89.093 -162.4720
690.000000 89.098 -161.6280
700.000000 89.108 -160.7572
710.000000 89.124 -159.9013
720.000000 89.138 -159.0939
730.000000 89.157 -158.2140
740.000000 89.177 -157.2784
750.000000 89.205 -156.3815
762.000000 89.244 -155.3536
775.000000 89.279 -154.1642
788.000000 89.318 -153.0372
800.000000 89.356 -152.0616
812.000000 89.400 -151.0569
825.000000 89.462 -149.9414
838.000000 89.528 -148.7930
850.000000 89.586 -147.8259
862.000000 89.646 -146.9226
875.000000 89.723 -145.9457
885.000000 89.784 -145.2155
900.000000 89.877 -144.1768
912.000000 89.958 -143.2438
925.000000 90.049 -142.2542
938.000000 90.144 -141.3685
950.000000 90.234 -140.6200
962.000000 90.324 -139.8851
975.000000 90.422 -139.0779
988.000000 90.523 -138.3011
1000.000000 90.617 -137.6390
1015.000000 90.735 -136.8653
1030.000000 90.852 -136.1254
1044.000000 90.964 -135.4588
1060.000000 91.090 -134.7681
1075.000000 91.203 -134.1735
1090.000000 91.324 -133.6579
1106.000000 91.462 -133.1717
1120.000000 91.578 -132.7589
1138.000000 91.715 -132.2257
1150.000000 91.806 -131.8942
1172.000000 91.972 -131.3257
1180.000000 92.031 -131.1392
1206.000000 92.213 -130.5481
1220.000000 92.308 -130.2119
1241.000000 92.446 -129.6949
1250.000000 92.506 -129.4756
1265.000000 92.609 -129.1359
1280.000000 92.710 -128.8272
1315.000000 92.922 -128.0629
1320.000000 92.951 -127.9536
1340.000000 93.059 -127.5081
1360.000000 93.159 -127.0621
1380.000000 93.265 -126.6434
1400.000000 93.384 -126.2038
1430.000000 93.557 -125.5373
1450.000000 93.667 -125.0559
1475.000000 93.806 -124.4958
1500.000000 93.950 -123.9610
1525.000000 94.090 -123.3744
1550.000000 94.218 -122.7604
1575.000000 94.342 -122.1837
1600.000000 94.460 -121.5992
1625.000000 94.572 -120.9761
1650.000000 94.688 -120.3867
1675.000000 94.809 -119.7984
1700.000000 94.936 -119.1983
1725.000000 95.069 -118.6195
1750.000000 95.201 -118.0627
1775.000000 95.333 -117.5077
1800.000000 95.471 -116.9764
1825.000000 95.612 -116.4691
1850.000000 95.755 -115.9778
1875.000000 95.900 -115.5099
1900.000000 96.045 -115.0632
1925.000000 96.192 -114.6464
1950.000000 96.338 -114.2505
1975.000000 96.480 -113.8761
2000.000000 96.625 -113.5390
2030.000000 96.804 -113.1727
2060.000000 96.984 -112.8373
2090.000000 97.164 -112.5460
2120.000000 97.347 -112.3043
2140.000000 97.469 -112.1636
2180.000000 97.708 -111.9456
2200.000000 97.825 -111.8701
2240.000000 98.058 -111.8007
2270.000000 98.231 -111.8047
2300.000000 98.398 -111.8621
2330.000000 98.556 -111.9664
2360.000000 98.704 -112.1145
2400.000000 98.896 -112.3842
2430.000000 99.038 -112.6394
2470.000000 99.223 -113.0544
2500.000000 99.354 -113.3984
2540.000000 99.516 -113.9027
2580.000000 99.659 -114.4655
2620.000000 99.785 -115.0552
2650.000000 99.871 -115.5027
2690.000000 99.973 -116.0894
2720.000000 100.038 -116.5112
2760.000000 100.112 -117.0347
2800.000000 100.180 -117.5323
2850.000000 100.266 -118.1794
2900.000000 100.347 -118.9401
2950.000000 100.404 -119.8167
3000.000000 100.428 -120.7098
3040.000000 100.421 -121.3759
3070.000000 100.400 -121.8257
3110.000000 100.359 -122.3602
3150.000000 100.310 -122.8167
3200.000000 100.243 -123.2643
3250.000000 100.178 -123.6024
3300.000000 100.110 -123.8554
3350.000000 100.030 -124.0052
3400.000000 99.942 -124.0613
3450.000000 99.860 -124.0371
3500.000000 99.789 -123.9464
3550.000000 99.721 -123.7846
3600.000000 99.653 -123.5494
3650.000000 99.592 -123.2665
3700.000000 99.538 -122.9539
3750.000000 99.485 -122.5897
3820.000000 99.413 -122.0325
3870.000000 99.371 -121.6200
3950.000000 99.313 -120.9202
4000.000000 99.282 -120.4718
4060.000000 99.253 -119.9408
4120.000000 99.229 -119.4276
4180.000000 99.216 -118.9363
4250.000000 99.213 -118.4029
4310.000000 99.216 -117.9981
4370.000000 99.215 -117.6650
4440.000000 99.212 -117.3799
4500.000000 99.208 -117.2086
4550.000000 99.204 -117.1084
4620.000000 99.198 -117.0281
4680.000000 99.195 -117.0262
4750.000000 99.193 -117.1264
4820.000000 99.189 -117.3480
4870.000000 99.182 -117.5852
4940.000000 99.161 -118.0179
5000.000000 99.130 -118.4617
5080.000000 99.065 -119.1287
5150.000000 98.988 -119.7523
5220.000000 98.892 -120.3781
5300.000000 98.760 -121.0671
5380.000000 98.608 -121.6969
5450.000000 98.462 -122.1671
5520.000000 98.307 -122.5526
5600.000000 98.120 -122.8997
5700.000000 97.874 -123.1565
5800.000000 97.619 -123.1757
5900.000000 97.363 -122.9212
6000.000000 97.115 -122.3776
6080.000000 96.934 -121.7558
6150.000000 96.790 -121.0987
6220.000000 96.663 -120.3466
6300.000000 96.537 -119.3849
6400.000000 96.411 -118.0392
6500.000000 96.326 -116.5471
6600.000000 96.283 -114.9436
6700.000000 96.288 -113.2930
6800.000000 96.348 -111.6287
6900.000000 96.479 -109.9915
7000.000000 96.685 -108.4496
7100.000000 96.950 -107.0596
7200.000000 97.269 -105.8961
7300.000000 97.639 -105.0716
7400.000000 98.053 -104.7297
7500.000000 98.497 -105.0145
7620.000000 99.048 -106.3511
7750.000000 99.592 -109.1914
7880.000000 99.905 -113.4773
8000.000000 99.922 -118.3676
8120.000000 99.651 -123.4909
8250.000000 99.036 -128.4172
8380.000000 98.152 -131.9497
8500.000000 97.181 -133.6572
8620.000000 96.136 -133.8833
8750.000000 94.981 -132.6538
8850.000000 94.106 -130.8365
9000.000000 92.852 -127.0011
9120.000000 91.909 -123.1732
9250.000000 90.957 -118.4315
9380.000000 90.078 -113.2046
9500.000000 89.328 -108.0480
9620.000000 88.635 -102.6562
9750.000000 87.949 -96.6081
9880.000000 87.330 -90.4159
10000.000000 86.815 -84.6418
10150.000000 86.236 -77.4018
10300.000000 85.726 -70.1990
10440.000000 85.316 -63.6122
10600.000000 84.919 -56.3303
10750.000000 84.614 -49.8303
10900.000000 84.376 -43.8357
11060.000000 84.193 -38.2051
11200.000000 84.078 -34.1440
11380.000000 83.936 -30.3708
11500.000000 83.794 -28.8280
11720.000000 83.278 -27.3952
11800.000000 82.985 -26.8378
12060.000000 81.864 -21.6271
12200.000000 81.532 -16.1276
12410.000000 82.035 -6.6498
12500.000000 82.664 -3.0267
12650.000000 84.190 1.4738
12800.000000 86.186 3.3588
13150.000000 91.300 -7.6049
13200.000000 91.882 -11.4251
13400.000000 93.340 -30.8398
13600.000000 93.329 -49.9376
13800.000000 92.335 -61.7022
14000.000000 91.059 -65.6663
14300.000000 89.502 -62.5164
14500.000000 88.811 -57.2263
14750.000000 88.248 -48.7153
15000.000000 87.950 -38.9316
15250.000000 87.900 -28.4487
15500.000000 88.138 -17.9221
15750.000000 88.678 -8.0983
16000.000000 89.468 -0.1545
16250.000000 90.370 3.8278
16500.000000 90.948 1.1195
16750.000000 90.441 -8.0771
17000.000000 88.265 -18.2047
17250.000000 84.445 -44.8671
17500.000000 79.613 138.8030
17750.000000 75.917 -26.4913
18000.000000 76.217 39.1511
18250.000000 77.334 -65.3395
18500.000000 78.257 -2.4629
18750.000000 79.275 -136.1750
19000.000000 80.163 -156.6819
19250.000000 80.950 -145.5532
19500.000000 81.613 -130.1870
19750.000000 82.137 -114.8059
20000.000000 82.510 -99.7488
20300.000000 82.863 -81.9482
20600.000000 83.222 -64.1099
20900.000000 83.546 -46.1353
21200.000000 83.834 -28.0896
21400.000000 84.023 -16.0264
21800.000000 84.448 6.2247
22000.000000 84.666 7.4844
22400.000000 84.427 89.4092
22700.000000 82.168 112.7451
23000.000000 77.234 13.5488
23300.000000 71.258 -156.3945
23600.000000 67.920 -32.9961
24000.000000 66.982 -70.1523
