* Measurement data measured by REW V5.20.13
* Source: Headset (DS by VECLAN.COM), MICROPHONE (Master Volume), L, volume: 1.000
* Format: 2M Log Swept Sine, 1 sweep at -12.0 dBFS with no timing reference
* Dated: May 6, 2023 6:34:14 PM
* REW Settings:
*  C-weighting compensation: Off
*  Target level: 75.0 dB
* Note: ; 
* Measurement: CrinZero Ram L
* Smoothing: 1/24 octave
* Frequency Step: 1/48 octave
* Start Frequency: 1.000 Hz
*
* Freq(Hz) SPL(dB) Phase(degrees)
1.000000 62.431 41.4698
1.015000 62.538 37.9213
1.030000 62.652 34.4679
1.044000 62.765 31.3439
1.060000 62.901 27.9068
1.075000 63.037 24.8294
1.090000 63.179 21.9073
1.106000 63.340 18.9643
1.120000 63.498 16.4621
1.138000 63.726 13.3217
1.150000 63.892 11.2755
1.172000 64.222 7.6218
1.180000 64.350 6.3243
1.206000 64.787 2.2205
1.220000 65.035 0.0819
1.241000 65.419 -3.0339
1.250000 65.587 -4.3356
1.265000 65.870 -6.4609
1.280000 66.155 -8.5311
1.315000 66.821 -13.1506
1.320000 66.915 -13.7866
1.340000 67.287 -16.2720
1.360000 67.647 -18.6640
1.380000 67.992 -20.9639
1.400000 68.318 -23.1728
1.430000 68.760 -26.3182
1.450000 69.018 -28.3049
1.475000 69.295 -30.6558
1.500000 69.538 -32.7758
1.525000 69.754 -34.6654
1.550000 69.945 -36.3491
1.575000 70.114 -37.8512
1.600000 70.263 -39.1962
1.625000 70.395 -40.4082
1.650000 70.513 -41.5119
1.675000 70.618 -42.5314
1.700000 70.714 -43.4913
1.725000 70.802 -44.4158
1.750000 70.886 -45.3294
1.775000 70.968 -46.2564
1.800000 71.050 -47.2212
1.825000 71.135 -48.2482
1.850000 71.220 -49.3274
1.875000 71.297 -50.3882
1.900000 71.364 -51.4263
1.925000 71.424 -52.4404
1.950000 71.477 -53.4294
1.975000 71.523 -54.3918
2.000000 71.564 -55.3267
2.030000 71.606 -56.4104
2.060000 71.643 -57.4504
2.090000 71.676 -58.4447
2.120000 71.706 -59.3913
2.140000 71.725 -59.9947
2.180000 71.762 -61.1326
2.200000 71.781 -61.6658
2.240000 71.814 -62.6675
2.270000 71.833 -63.3644
2.300000 71.847 -64.0146
2.330000 71.857 -64.6181
2.360000 71.864 -65.1749
2.400000 71.869 -65.8443
2.430000 71.871 -66.2915
2.470000 71.870 -66.8148
2.500000 71.869 -67.1523
2.540000 71.867 -67.5289
2.580000 71.865 -67.8197
2.620000 71.855 -68.0118
2.650000 71.843 -68.0930
2.690000 71.822 -68.1229
2.720000 71.805 -68.0905
2.760000 71.783 -67.9802
2.800000 71.764 -67.7997
2.850000 71.751 -67.4862
2.900000 71.756 -67.0884
2.950000 71.781 -66.6100
3.000000 71.818 -65.9825
3.040000 71.853 -65.3815
3.070000 71.884 -64.8856
3.110000 71.932 -64.1795
3.150000 71.991 -63.4394
3.200000 72.079 -62.4958
3.250000 72.187 -61.5662
3.300000 72.317 -60.6873
3.350000 72.473 -59.7909
3.400000 72.653 -58.8374
3.450000 72.853 -57.8649
3.500000 73.068 -56.9112
3.550000 73.295 -56.0145
3.600000 73.529 -55.2128
3.650000 73.766 -54.5440
3.700000 74.007 -54.0202
3.750000 74.264 -53.5955
3.820000 74.641 -53.1529
3.870000 74.917 -52.9377
3.950000 75.357 -52.7527
4.000000 75.623 -52.7279
4.060000 75.931 -52.7903
4.120000 76.237 -52.9871
4.180000 76.539 -53.3021
4.250000 76.885 -53.7871
4.310000 77.171 -54.2761
4.370000 77.446 -54.8073
4.440000 77.750 -55.4763
4.500000 77.998 -56.1390
4.550000 78.198 -56.7411
4.620000 78.465 -57.6323
4.680000 78.684 -58.4154
4.750000 78.928 -59.3182
4.820000 79.157 -60.2105
4.870000 79.312 -60.8658
4.940000 79.518 -61.7951
5.000000 79.685 -62.5902
5.080000 79.898 -63.6269
5.150000 80.077 -64.4945
5.220000 80.245 -65.3398
5.300000 80.425 -66.2832
5.380000 80.597 -67.1966
5.450000 80.743 -67.9664
5.520000 80.888 -68.7040
5.600000 81.048 -69.5010
5.700000 81.241 -70.4452
5.800000 81.432 -71.3579
5.900000 81.625 -72.2599
6.000000 81.818 -73.1213
6.080000 81.973 -73.7989
6.150000 82.108 -74.4024
6.220000 82.242 -75.0313
6.300000 82.396 -75.7769
6.400000 82.591 -76.7294
6.500000 82.781 -77.7254
6.600000 82.962 -78.7870
6.700000 83.136 -79.9233
6.800000 83.304 -81.1204
6.900000 83.458 -82.3644
7.000000 83.592 -83.6474
7.100000 83.711 -84.9975
7.200000 83.813 -86.3794
7.300000 83.893 -87.7436
7.400000 83.949 -89.0809
7.500000 83.983 -90.4277
7.620000 83.996 -91.9628
7.750000 83.975 -93.4231
7.880000 83.913 -94.7379
8.000000 83.834 -95.7265
8.120000 83.741 -96.3970
8.250000 83.616 -96.8103
8.380000 83.494 -96.8834
8.500000 83.406 -96.6017
8.620000 83.327 -95.9704
8.750000 83.282 -95.0642
8.850000 83.294 -94.2810
9.000000 83.376 -92.8378
9.120000 83.492 -91.7108
9.250000 83.677 -90.6982
9.380000 83.921 -89.7992
9.500000 84.166 -89.2080
9.620000 84.417 -88.9384
9.750000 84.707 -88.9439
9.880000 84.980 -89.2073
10.000000 85.203 -89.6977
10.150000 85.456 -90.6116
10.300000 85.663 -91.6463
10.440000 85.813 -92.7509
10.600000 85.946 -94.0494
10.750000 86.036 -95.1891
10.900000 86.096 -96.2836
11.060000 86.147 -97.3095
11.200000 86.177 -98.0887
11.380000 86.215 -98.9693
11.500000 86.243 -99.4657
11.720000 86.304 -100.2951
11.800000 86.332 -100.6007
12.060000 86.438 -101.6079
12.200000 86.497 -102.2457
12.410000 86.581 -103.3022
12.500000 86.608 -103.7825
12.650000 86.642 -104.6407
12.800000 86.659 -105.4892
13.150000 86.623 -107.2623
13.200000 86.612 -107.4616
13.400000 86.553 -108.1147
13.600000 86.497 -108.4977
13.800000 86.452 -108.5703
14.000000 86.442 -108.4679
14.300000 86.504 -108.0995
14.500000 86.601 -107.9171
14.750000 86.759 -107.9205
15.000000 86.944 -108.2467
15.250000 87.122 -108.8965
15.500000 87.280 -109.7312
15.750000 87.411 -110.6629
16.000000 87.517 -111.5556
16.250000 87.612 -112.3724
16.500000 87.704 -113.1118
16.750000 87.802 -113.7984
17.000000 87.905 -114.4808
17.250000 88.010 -115.1689
17.500000 88.113 -115.8699
17.750000 88.212 -116.5520
18.000000 88.308 -117.2060
18.250000 88.406 -117.8215
18.500000 88.509 -118.4292
18.750000 88.615 -119.0625
19.000000 88.722 -119.7517
19.250000 88.817 -120.5136
19.500000 88.893 -121.2993
19.750000 88.944 -122.0649
20.000000 88.970 -122.7003
20.299999 88.984 -123.2021
20.600000 88.999 -123.3826
20.900000 89.042 -123.2892
21.200001 89.130 -123.0743
21.400000 89.213 -122.9754
21.799999 89.417 -123.0242
22.000000 89.524 -123.2148
22.400000 89.720 -123.9107
22.700001 89.839 -124.6125
23.000000 89.930 -125.3697
23.299999 89.997 -126.1221
23.600000 90.045 -126.8352
24.000000 90.091 -127.6907
24.299999 90.120 -128.2564
24.700001 90.164 -128.9462
25.000000 90.204 -129.4785
25.400000 90.262 -130.3060
25.799999 90.300 -131.3007
26.200001 90.294 -132.3104
26.500000 90.264 -132.8967
26.900000 90.221 -133.2697
27.200001 90.225 -133.2612
27.600000 90.317 -133.1339
28.000000 90.499 -133.3630
28.500000 90.744 -134.6089
29.000000 90.869 -136.5179
29.500000 90.850 -138.0522
30.000000 90.817 -138.5515
30.400000 90.878 -138.4985
30.700001 90.985 -138.5482
31.100000 91.156 -139.0726
31.500000 91.289 -140.0880
32.000000 91.341 -141.4436
32.500000 91.318 -142.1500
33.000000 91.348 -142.1787
33.500000 91.482 -142.2423
34.000000 91.647 -142.9514
34.500000 91.740 -144.1483
35.000000 91.743 -145.2535
35.500000 91.714 -145.9202
36.000000 91.715 -146.3138
36.500000 91.747 -146.7482
37.000000 91.783 -147.3308
37.500000 91.805 -147.9638
38.200001 91.828 -148.7703
38.700001 91.853 -149.2679
39.500000 91.936 -150.0568
40.000000 92.014 -150.7864
40.599998 92.072 -152.0326
41.200001 92.038 -153.2031
41.799999 91.970 -153.6620
42.500000 92.008 -153.5503
43.099998 92.146 -153.8731
43.700001 92.257 -154.8031
44.400002 92.295 -155.9332
45.000000 92.309 -156.5993
45.500000 92.332 -157.0974
46.200001 92.360 -157.8256
46.799999 92.377 -158.3494
47.500000 92.425 -158.8954
48.200001 92.489 -159.6584
48.700001 92.517 -160.3326
49.400002 92.523 -161.2277
50.000000 92.516 -161.8333
50.799999 92.521 -162.4771
51.500000 92.543 -163.0295
52.200001 92.568 -163.6686
53.000000 92.579 -164.4726
53.799999 92.565 -165.1543
54.500000 92.561 -165.5599
55.200001 92.590 -165.9426
56.000000 92.648 -166.6398
57.000000 92.680 -167.8472
58.000000 92.664 -168.9000
59.000000 92.659 -169.7600
60.000000 92.658 -170.6622
60.799999 92.640 -171.3384
61.500000 92.622 -171.7984
62.200001 92.620 -172.1813
63.000000 92.635 -172.7024
64.000000 92.642 -173.5377
65.000000 92.631 -174.3106
66.000000 92.643 -175.0513
67.000000 92.663 -175.9489
68.000000 92.665 -176.8547
69.000000 92.666 -177.5908
70.000000 92.682 -178.2776
71.000000 92.680 -178.9776
72.000000 92.653 -179.4736
73.000000 92.633 -179.8254
74.000000 92.616 179.7502
75.000000 92.588 179.1991
76.199997 92.541 178.3762
77.500000 92.494 177.2993
78.800003 92.456 175.9180
80.000000 92.416 174.5229
81.199997 92.329 173.1982
82.500000 92.232 172.9382
83.800003 92.321 172.6938
85.000000 92.314 171.7448
86.199997 92.231 171.3397
87.500000 92.176 171.0318
88.500000 92.141 170.5822
90.000000 92.060 169.6794
91.199997 91.993 169.0183
92.500000 91.946 168.3628
93.800003 91.916 167.6556
95.000000 91.873 166.9713
96.199997 91.815 166.3667
97.500000 91.750 165.7515
98.800003 91.689 165.0862
100.000000 91.627 164.4800
101.500000 91.553 163.8490
103.000000 91.461 163.3458
104.400002 91.366 163.1378
106.000000 91.278 162.7498
107.500000 91.179 162.0859
109.000000 91.080 161.3249
110.599998 90.978 160.5731
112.000000 90.894 160.2567
113.800003 90.836 160.0297
115.000000 90.790 159.5574
117.199997 90.575 158.4000
118.000000 90.491 158.1191
120.599998 90.305 157.3916
122.000000 90.247 157.3110
124.099998 90.170 157.0375
125.000000 90.111 156.8410
126.500000 89.992 156.4471
128.000000 89.875 155.9952
131.500000 89.709 155.1379
132.000000 89.688 155.0294
134.000000 89.554 154.6138
136.000000 89.352 154.3373
138.000000 89.179 154.1508
140.000000 89.051 153.9001
143.000000 88.885 153.8386
145.000000 88.746 153.6572
147.500000 88.547 153.3528
150.000000 88.378 153.3045
152.500000 88.230 153.4942
155.000000 88.074 153.7867
157.500000 87.944 153.9983
160.000000 87.819 154.1303
162.500000 87.684 154.1837
165.000000 87.552 154.1231
167.500000 87.410 154.1542
170.000000 87.204 154.4611
172.500000 86.929 154.8221
175.000000 86.691 155.3473
177.500000 86.604 155.9714
180.000000 86.544 156.6854
182.500000 86.459 157.5327
185.000000 86.373 158.0990
187.500000 86.282 158.4066
190.000000 86.156 158.9935
192.500000 86.061 159.8683
195.000000 86.003 160.6069
197.500000 85.961 161.4968
200.000000 85.934 162.4694
203.000000 85.872 163.3157
206.000000 85.820 163.7455
209.000000 85.784 164.2245
212.000000 85.763 165.1628
214.000000 85.749 165.6855
218.000000 85.720 166.4406
220.000000 85.721 166.9006
224.000000 85.709 167.9205
227.000000 85.667 168.5663
230.000000 85.617 169.1987
233.000000 85.566 169.7655
236.000000 85.529 170.1441
240.000000 85.510 170.6187
243.000000 85.517 171.2037
247.000000 85.553 171.8328
250.000000 85.573 172.2693
254.000000 85.561 172.7998
258.000000 85.550 173.1804
262.000000 85.596 173.6691
265.000000 85.618 174.2515
269.000000 85.624 174.9548
272.000000 85.618 175.3237
276.000000 85.618 175.7894
280.000000 85.643 176.1893
285.000000 85.675 176.6263
290.000000 85.701 177.0038
295.000000 85.730 177.3105
300.000000 85.749 177.7218
304.000000 85.744 178.0089
307.000000 85.733 178.2367
311.000000 85.730 178.6241
315.000000 85.740 178.9767
320.000000 85.773 179.2350
325.000000 85.819 179.3394
330.000000 85.827 179.6842
335.000000 85.801 179.9001
340.000000 85.771 -179.9907
345.000000 85.763 -179.6330
350.000000 85.777 -179.1310
355.000000 85.792 -178.7418
360.000000 85.790 -178.4479
365.000000 85.786 -178.1883
370.000000 85.787 -177.9097
375.000000 85.788 -177.6747
382.000000 85.794 -177.4564
387.000000 85.798 -177.1938
395.000000 85.803 -176.7034
400.000000 85.804 -176.5052
406.000000 85.803 -176.3293
412.000000 85.803 -176.0668
418.000000 85.790 -175.7123
425.000000 85.760 -175.3052
431.000000 85.749 -174.9639
437.000000 85.751 -174.6649
444.000000 85.746 -174.3145
450.000000 85.722 -173.9796
455.000000 85.701 -173.7320
462.000000 85.684 -173.4378
468.000000 85.666 -173.1273
475.000000 85.647 -172.6969
482.000000 85.631 -172.2495
487.000000 85.631 -171.9250
494.000000 85.643 -171.4601
500.000000 85.648 -171.0745
508.000000 85.642 -170.6372
515.000000 85.625 -170.2961
522.000000 85.601 -169.9020
530.000000 85.591 -169.4581
538.000000 85.603 -169.0211
545.000000 85.604 -168.5467
552.000000 85.603 -168.0674
560.000000 85.616 -167.4238
570.000000 85.622 -166.6262
580.000000 85.623 -166.0690
590.000000 85.635 -165.5303
600.000000 85.649 -164.8500
608.000000 85.646 -164.2720
615.000000 85.642 -163.7876
622.000000 85.648 -163.3251
630.000000 85.665 -162.8110
640.000000 85.687 -162.1626
650.000000 85.701 -161.4703
660.000000 85.715 -160.7776
670.000000 85.734 -160.1423
680.000000 85.759 -159.5311
690.000000 85.790 -158.8638
700.000000 85.823 -158.1702
710.000000 85.854 -157.5068
720.000000 85.884 -156.8560
730.000000 85.918 -156.2142
740.000000 85.960 -155.5921
750.000000 86.003 -154.9774
762.000000 86.046 -154.2403
775.000000 86.096 -153.4682
788.000000 86.158 -152.7118
800.000000 86.218 -151.9967
812.000000 86.276 -151.2930
825.000000 86.337 -150.5587
838.000000 86.400 -149.8358
850.000000 86.463 -149.1931
862.000000 86.524 -148.5495
875.000000 86.587 -147.8269
885.000000 86.638 -147.3076
900.000000 86.726 -146.5683
912.000000 86.801 -145.9574
925.000000 86.889 -145.3287
938.000000 86.981 -144.7461
950.000000 87.063 -144.2240
962.000000 87.142 -143.6937
975.000000 87.226 -143.1349
988.000000 87.311 -142.6287
1000.000000 87.392 -142.1897
1015.000000 87.494 -141.6566
1030.000000 87.595 -141.1660
1044.000000 87.690 -140.7496
1060.000000 87.798 -140.2981
1075.000000 87.898 -139.9005
1090.000000 88.007 -139.5518
1106.000000 88.130 -139.2251
1120.000000 88.239 -138.9520
1138.000000 88.373 -138.6214
1150.000000 88.460 -138.4293
1172.000000 88.616 -138.1197
1180.000000 88.671 -138.0124
1206.000000 88.850 -137.6851
1220.000000 88.946 -137.5354
1241.000000 89.088 -137.3159
1250.000000 89.146 -137.2189
1265.000000 89.240 -137.0629
1280.000000 89.330 -136.9157
1315.000000 89.524 -136.5416
1320.000000 89.551 -136.4865
1340.000000 89.656 -136.2838
1360.000000 89.745 -136.0924
1380.000000 89.828 -135.8729
1400.000000 89.921 -135.6308
1430.000000 90.066 -135.2798
1450.000000 90.162 -135.0304
1475.000000 90.281 -134.7066
1500.000000 90.402 -134.3977
1525.000000 90.518 -134.0569
1550.000000 90.633 -133.7158
1575.000000 90.752 -133.4071
1600.000000 90.868 -133.0684
1625.000000 90.981 -132.7283
1650.000000 91.097 -132.4045
1675.000000 91.214 -132.0768
1700.000000 91.338 -131.7529
1725.000000 91.467 -131.4568
1750.000000 91.598 -131.1615
1775.000000 91.727 -130.8702
1800.000000 91.857 -130.5918
1825.000000 91.990 -130.3396
1850.000000 92.123 -130.1067
1875.000000 92.254 -129.8798
1900.000000 92.385 -129.6712
1925.000000 92.519 -129.4913
1950.000000 92.658 -129.3394
1975.000000 92.797 -129.2159
2000.000000 92.935 -129.1078
2030.000000 93.101 -129.0092
2060.000000 93.274 -128.9687
2090.000000 93.450 -128.9689
2120.000000 93.628 -129.0211
2140.000000 93.746 -129.0802
2180.000000 93.975 -129.2631
2200.000000 94.085 -129.3844
2240.000000 94.302 -129.6871
2270.000000 94.471 -129.9863
2300.000000 94.645 -130.3537
2330.000000 94.815 -130.7697
2360.000000 94.974 -131.2302
2400.000000 95.172 -131.9201
2430.000000 95.315 -132.5007
2470.000000 95.504 -133.3689
2500.000000 95.640 -134.0746
2540.000000 95.809 -135.0876
2580.000000 95.959 -136.1703
2620.000000 96.089 -137.3044
2650.000000 96.181 -138.1979
2690.000000 96.298 -139.4451
2720.000000 96.374 -140.4063
2760.000000 96.452 -141.6964
2800.000000 96.502 -142.9930
2850.000000 96.541 -144.6182
2900.000000 96.563 -146.2343
2950.000000 96.565 -147.8104
3000.000000 96.535 -149.3116
3040.000000 96.487 -150.4407
3070.000000 96.443 -151.2512
3110.000000 96.378 -152.2847
3150.000000 96.306 -153.2633
3200.000000 96.200 -154.3880
3250.000000 96.078 -155.4001
3300.000000 95.947 -156.3019
3350.000000 95.809 -157.0794
3400.000000 95.670 -157.7419
3450.000000 95.534 -158.2977
3500.000000 95.401 -158.7475
3550.000000 95.267 -159.0964
3600.000000 95.136 -159.3606
3650.000000 95.006 -159.5469
3700.000000 94.872 -159.6425
3750.000000 94.738 -159.6651
3820.000000 94.564 -159.6010
3870.000000 94.446 -159.4864
3950.000000 94.262 -159.1829
4000.000000 94.154 -158.9329
4060.000000 94.031 -158.5707
4120.000000 93.912 -158.1510
4180.000000 93.805 -157.7035
4250.000000 93.699 -157.1694
4310.000000 93.609 -156.7014
4370.000000 93.512 -156.2261
4440.000000 93.401 -155.6780
4500.000000 93.319 -155.2260
4550.000000 93.259 -154.8519
4620.000000 93.178 -154.3181
4680.000000 93.110 -153.8563
4750.000000 93.031 -153.3159
4820.000000 92.952 -152.7789
4870.000000 92.898 -152.4029
4940.000000 92.828 -151.9014
5000.000000 92.772 -151.4920
5080.000000 92.702 -150.9794
5150.000000 92.643 -150.5568
5220.000000 92.583 -150.1569
5300.000000 92.515 -149.7221
5380.000000 92.443 -149.2956
5450.000000 92.381 -148.9335
5520.000000 92.320 -148.5706
5600.000000 92.251 -148.1512
5700.000000 92.163 -147.6034
5800.000000 92.073 -147.0276
5900.000000 91.979 -146.4156
6000.000000 91.882 -145.7515
6080.000000 91.809 -145.1746
6150.000000 91.749 -144.6302
6220.000000 91.696 -144.0494
6300.000000 91.641 -143.3464
6400.000000 91.581 -142.4159
6500.000000 91.539 -141.4447
6600.000000 91.522 -140.4397
6700.000000 91.531 -139.4034
6800.000000 91.572 -138.3563
6900.000000 91.665 -137.3406
7000.000000 91.821 -136.4051
7100.000000 92.026 -135.5963
7200.000000 92.275 -134.9750
7300.000000 92.563 -134.6228
7400.000000 92.892 -134.6291
7500.000000 93.261 -135.0829
7620.000000 93.762 -136.3836
7750.000000 94.338 -139.0125
7880.000000 94.806 -143.2103
8000.000000 95.076 -148.5772
8120.000000 95.121 -155.1456
8250.000000 94.842 -162.9101
8380.000000 94.200 -170.3092
8500.000000 93.328 -176.0039
8620.000000 92.270 179.7859
8750.000000 91.009 176.9435
8850.000000 90.014 175.8490
9000.000000 88.548 175.6528
9120.000000 87.429 176.4843
9250.000000 86.276 178.1419
9380.000000 85.187 -179.5866
9500.000000 84.241 -177.0618
9620.000000 83.350 -174.2056
9750.000000 82.443 -170.7933
9880.000000 81.590 -167.0883
10000.000000 80.847 -163.4306
10150.000000 79.973 -158.5554
10300.000000 79.159 -153.3591
10440.000000 78.452 -148.2370
10600.000000 77.706 -142.1094
10750.000000 77.073 -136.1559
10900.000000 76.508 -130.0621
11060.000000 75.981 -123.4816
11200.000000 75.575 -117.6933
11380.000000 75.122 -110.2650
11500.000000 74.860 -105.3432
11720.000000 74.443 -96.3630
11800.000000 74.308 -93.0861
12060.000000 73.929 -82.2447
12200.000000 73.768 -76.2746
12410.000000 73.599 -67.2467
12500.000000 73.558 -63.3829
12650.000000 73.539 -56.9816
12800.000000 73.574 -50.6334
13150.000000 73.853 -36.0193
13200.000000 73.918 -33.9591
13400.000000 74.255 -25.7944
13600.000000 74.733 -17.7653
13800.000000 75.382 -10.0028
14000.000000 76.215 -2.7077
14300.000000 77.825 7.0058
14500.000000 79.207 12.2738
14750.000000 81.344 16.4194
15000.000000 83.858 15.8968
15250.000000 86.306 7.4613
15500.000000 87.815 -10.6812
15750.000000 87.706 -32.5418
16000.000000 86.173 -48.2723
16250.000000 84.056 -55.3679
16500.000000 82.046 -56.8406
16750.000000 80.367 -55.5343
17000.000000 78.970 -52.9516
17250.000000 77.760 -49.7616
17500.000000 76.668 -46.2111
17750.000000 75.633 -42.3395
18000.000000 74.596 -38.0617
18250.000000 73.531 -33.1656
18500.000000 72.444 -27.4291
18750.000000 71.356 -20.7625
19000.000000 70.286 -13.1511
19250.000000 69.241 -4.6197
19500.000000 68.229 4.8060
19750.000000 67.288 15.0314
20000.000000 66.400 25.9513
20300.000000 65.468 39.9041
20600.000000 64.880 54.4514
20900.000000 64.702 68.8158
21200.000000 64.924 81.8186
21400.000000 65.221 89.0913
21800.000000 65.799 99.4267
22000.000000 65.925 102.9110
22400.000000 65.712 109.1890
22700.000000 65.282 115.0887
23000.000000 64.815 122.3944
23300.000000 64.424 130.8684
23600.000000 64.210 139.8513
24000.000000 64.174 147.7312
