* Measurement data measured by REW V5.20.13
* Source: Headset (DS by VECLAN.COM), MICROPHONE (Master Volume), L, volume: 0.720. Timing signal peak level -18.2 dBFS, measurement signal peak level -14.8 dBFS
* Format: 4M Log Swept Sine, 1 sweep at -12.0 dBFS using an acoustic timing reference
* Dated: Dec 12, 2023 12:55:59 PM
* REW Settings:
*  C-weighting compensation: Off
*  Target level: 75.0 dB
* Note: ; Apple + Abigail Delay -0.0663 ms (-23 mm, -0.9 in) using estimated IR delay relative to Acoustic reference played from  R with no timing offset Clock adjustment: -0.2 ppm
* Measurement: Truthear Hola wide-bore R
* Smoothing: 1/24 octave
* Frequency Step: 1/48 octave
* Start Frequency: 1.000 Hz
*
* Freq(Hz) SPL(dB) Phase(degrees)
1.000000 61.638 -114.2448
1.015000 62.003 -110.5147
1.030000 62.367 -106.9091
1.044000 62.706 -103.6721
1.060000 63.089 -100.1436
1.075000 63.442 -97.0197
1.090000 63.788 -94.0924
1.106000 64.149 -91.1904
1.120000 64.478 -88.7541
1.138000 64.921 -85.7349
1.150000 65.228 -83.7917
1.172000 65.812 -80.3708
1.180000 66.030 -79.1715
1.206000 66.757 -75.4348
1.220000 67.157 -73.5225
1.241000 67.766 -70.7820
1.250000 68.028 -69.6536
1.265000 68.468 -67.8330
1.280000 68.907 -66.0863
1.315000 69.923 -62.2897
1.320000 70.066 -61.7783
1.340000 70.632 -59.8084
1.360000 71.184 -57.9564
1.380000 71.716 -56.2188
1.400000 72.227 -54.5918
1.430000 72.941 -52.3511
1.450000 73.378 -50.9852
1.475000 73.875 -50.0281
1.500000 74.329 -49.9549
1.525000 74.749 -49.8116
1.550000 75.137 -49.6100
1.575000 75.497 -49.3622
1.600000 75.831 -49.0797
1.625000 76.143 -48.7745
1.650000 76.437 -48.4585
1.675000 76.716 -48.1434
1.700000 76.982 -47.8412
1.725000 77.240 -47.5636
1.750000 77.493 -47.3225
1.775000 77.743 -47.1297
1.800000 77.995 -46.9971
1.825000 78.251 -46.9365
1.850000 78.509 -46.8569
1.875000 78.756 -46.7645
1.900000 78.993 -46.6835
1.925000 79.220 -46.6148
1.950000 79.438 -46.5596
1.975000 79.649 -46.5188
2.000000 79.854 -46.4933
2.030000 80.091 -46.4845
2.060000 80.322 -46.5009
2.090000 80.548 -46.5442
2.120000 80.771 -46.6162
2.140000 80.918 -46.6810
2.180000 81.212 -46.8531
2.200000 81.360 -46.9615
2.240000 81.651 -47.2363
2.270000 81.864 -47.4915
2.300000 82.072 -47.7831
2.330000 82.275 -48.1059
2.360000 82.474 -48.4547
2.400000 82.734 -48.9511
2.430000 82.925 -49.3403
2.470000 83.175 -49.8719
2.500000 83.359 -50.2732
2.540000 83.601 -50.8021
2.580000 83.840 -51.3168
2.620000 84.072 -51.8451
2.650000 84.243 -52.2533
2.690000 84.466 -52.8105
2.720000 84.630 -53.2362
2.760000 84.844 -53.8111
2.800000 85.053 -54.3911
2.850000 85.308 -55.1176
2.900000 85.557 -55.8390
2.950000 85.800 -56.5492
3.000000 86.036 -57.2539
3.040000 86.219 -57.8166
3.070000 86.353 -58.2387
3.110000 86.528 -58.8027
3.150000 86.700 -59.3690
3.200000 86.910 -60.0822
3.250000 87.114 -60.8034
3.300000 87.315 -61.5350
3.350000 87.511 -62.2850
3.400000 87.701 -63.0527
3.450000 87.886 -63.8300
3.500000 88.066 -64.6090
3.550000 88.242 -65.3816
3.600000 88.414 -66.1398
3.650000 88.582 -66.8757
3.700000 88.748 -67.5840
3.750000 88.909 -68.2705
3.820000 89.127 -69.2053
3.870000 89.279 -69.8614
3.950000 89.515 -70.9056
4.000000 89.658 -71.5632
4.060000 89.827 -72.3654
4.120000 89.990 -73.1803
4.180000 90.148 -73.9997
4.250000 90.328 -74.9501
4.310000 90.478 -75.7506
4.370000 90.625 -76.5293
4.440000 90.793 -77.4014
4.500000 90.933 -78.1221
4.550000 91.047 -78.7084
4.620000 91.203 -79.5144
4.680000 91.334 -80.1982
4.750000 91.484 -80.9959
4.820000 91.633 -81.7967
4.870000 91.736 -82.3661
4.940000 91.879 -83.1584
5.000000 91.999 -83.8315
5.080000 92.155 -84.7188
5.150000 92.289 -85.4837
5.220000 92.420 -86.2380
5.300000 92.565 -87.0886
5.380000 92.707 -87.9284
5.450000 92.828 -88.6557
5.520000 92.946 -89.3769
5.600000 93.076 -90.1934
5.700000 93.234 -91.2009
5.800000 93.388 -92.1926
5.900000 93.537 -93.1668
6.000000 93.681 -94.1228
6.080000 93.793 -94.8759
6.150000 93.889 -95.5276
6.220000 93.983 -96.1735
6.300000 94.088 -96.9041
6.400000 94.215 -97.8051
6.500000 94.338 -98.6934
6.600000 94.457 -99.5703
6.700000 94.571 -100.4385
6.800000 94.681 -101.2956
6.900000 94.787 -102.1364
7.000000 94.891 -102.9565
7.100000 94.990 -103.7560
7.200000 95.086 -104.5381
7.300000 95.180 -105.3056
7.400000 95.273 -106.0594
7.500000 95.362 -106.7973
7.620000 95.467 -107.6664
7.750000 95.578 -108.5926
7.880000 95.686 -109.4998
8.000000 95.783 -110.3250
8.120000 95.878 -111.1437
8.250000 95.977 -112.0216
8.380000 96.073 -112.8888
8.500000 96.158 -113.6797
8.620000 96.239 -114.4618
8.750000 96.325 -115.2973
8.850000 96.388 -115.9305
9.000000 96.480 -116.8656
9.120000 96.550 -117.6014
9.250000 96.625 -118.3862
9.380000 96.698 -119.1581
9.500000 96.762 -119.8607
9.620000 96.821 -120.5545
9.750000 96.881 -121.2958
9.880000 96.934 -122.0252
10.000000 96.973 -122.6893
10.150000 97.011 -123.5051
10.300000 97.042 -124.2946
10.440000 97.061 -125.0058
10.600000 97.079 -125.7946
10.750000 97.097 -126.5113
10.900000 97.114 -127.2083
11.060000 97.134 -127.9455
11.200000 97.153 -128.5847
11.380000 97.177 -129.3947
11.500000 97.192 -129.9267
11.720000 97.221 -130.8863
11.800000 97.231 -131.2297
12.060000 97.267 -132.3290
12.200000 97.288 -132.9161
12.410000 97.319 -133.7881
12.500000 97.332 -134.1567
12.650000 97.353 -134.7647
12.800000 97.373 -135.3643
13.150000 97.415 -136.7279
13.200000 97.421 -136.9191
13.400000 97.445 -137.6749
13.600000 97.469 -138.4152
13.800000 97.493 -139.1392
14.000000 97.515 -139.8490
14.300000 97.546 -140.8867
14.500000 97.565 -141.5577
14.750000 97.587 -142.3733
15.000000 97.610 -143.1646
15.250000 97.634 -143.9392
15.500000 97.660 -144.6960
15.750000 97.686 -145.4355
16.000000 97.709 -146.1576
16.250000 97.731 -146.8665
16.500000 97.752 -147.5630
16.750000 97.772 -148.2470
17.000000 97.791 -148.9174
17.250000 97.810 -149.5741
17.500000 97.828 -150.2166
17.750000 97.845 -150.8478
18.000000 97.860 -151.4699
18.250000 97.873 -152.0851
18.500000 97.885 -152.6901
18.750000 97.897 -153.2829
19.000000 97.909 -153.8620
19.250000 97.921 -154.4298
19.500000 97.933 -154.9874
19.750000 97.945 -155.5357
20.000000 97.956 -156.0748
20.299999 97.969 -156.7094
20.600000 97.980 -157.3300
20.900000 97.991 -157.9366
21.200001 98.001 -158.5300
21.400000 98.007 -158.9195
21.799999 98.018 -159.6870
22.000000 98.023 -160.0664
22.400000 98.029 -160.8172
22.700001 98.032 -161.3686
23.000000 98.032 -161.9032
23.299999 98.031 -162.4169
23.600000 98.030 -162.9101
24.000000 98.031 -163.5433
24.299999 98.033 -164.0100
24.700001 98.037 -164.6337
25.000000 98.039 -165.1063
25.400000 98.040 -165.7391
25.799999 98.037 -166.3637
26.200001 98.031 -166.9688
26.500000 98.025 -167.4055
26.900000 98.015 -167.9624
27.200001 98.009 -168.3613
27.600000 98.001 -168.8737
28.000000 97.997 -169.3785
28.500000 97.996 -170.0283
29.000000 97.996 -170.7152
29.500000 97.988 -171.4187
30.000000 97.972 -172.0925
30.400000 97.955 -172.5898
30.700001 97.943 -172.9402
31.100000 97.930 -173.3931
31.500000 97.920 -173.8485
32.000000 97.907 -174.4348
32.500000 97.888 -175.0239
33.000000 97.861 -175.5765
33.500000 97.830 -176.0623
34.000000 97.802 -176.4803
34.500000 97.785 -176.8642
35.000000 97.777 -177.2618
35.500000 97.773 -177.7128
36.000000 97.765 -178.2176
36.500000 97.748 -178.7422
37.000000 97.721 -179.2483
37.500000 97.689 -179.7163
38.200001 97.645 179.6917
38.700001 97.616 179.2922
39.500000 97.574 178.6486
40.000000 97.547 178.2464
40.599998 97.513 177.7839
41.200001 97.482 177.3501
41.799999 97.454 176.9294
42.500000 97.426 176.4289
43.099998 97.402 175.9920
43.700001 97.374 175.5727
44.400002 97.342 175.1269
45.000000 97.318 174.7697
45.500000 97.299 174.4705
46.200001 97.273 174.0388
46.799999 97.247 173.6655
47.500000 97.212 173.2463
48.200001 97.176 172.8584
48.700001 97.150 172.5981
49.400002 97.115 172.2392
50.000000 97.086 171.9253
50.799999 97.044 171.5091
51.500000 97.005 171.1669
52.200001 96.970 170.8419
53.000000 96.933 170.4654
53.799999 96.896 170.0723
54.500000 96.860 169.7272
55.200001 96.823 169.3973
56.000000 96.782 169.0409
57.000000 96.734 168.6059
58.000000 96.683 168.1892
59.000000 96.631 167.7937
60.000000 96.575 167.4141
60.799999 96.531 167.1393
61.500000 96.496 166.9204
62.200001 96.462 166.7009
63.000000 96.421 166.4371
64.000000 96.368 166.1078
65.000000 96.315 165.7945
66.000000 96.265 165.4878
67.000000 96.215 165.1905
68.000000 96.164 164.9130
69.000000 96.113 164.6557
70.000000 96.065 164.4043
71.000000 96.014 164.1448
72.000000 95.963 163.8899
73.000000 95.911 163.6561
74.000000 95.860 163.4460
75.000000 95.813 163.2271
76.199997 95.753 162.9532
77.500000 95.688 162.6946
78.800003 95.624 162.4430
80.000000 95.563 162.2430
81.199997 95.504 162.0468
82.500000 95.437 161.8380
83.800003 95.370 161.6629
85.000000 95.313 161.5074
86.199997 95.257 161.3353
87.500000 95.196 161.1793
88.500000 95.153 161.0726
90.000000 95.090 160.8871
91.199997 95.042 160.7276
92.500000 94.992 160.5504
93.800003 94.943 160.3771
95.000000 94.896 160.2509
96.199997 94.849 160.1621
97.500000 94.797 160.0836
98.800003 94.740 160.0212
100.000000 94.685 159.9728
101.500000 94.618 159.8800
103.000000 94.552 159.7535
104.400002 94.493 159.6352
106.000000 94.428 159.5206
107.500000 94.372 159.4420
109.000000 94.317 159.3856
110.599998 94.257 159.3391
112.000000 94.202 159.3116
113.800003 94.131 159.2887
115.000000 94.083 159.2703
117.199997 93.999 159.2101
118.000000 93.970 159.1868
120.599998 93.876 159.1206
122.000000 93.830 159.1112
124.099998 93.765 159.1043
125.000000 93.738 159.0996
126.500000 93.691 159.0965
128.000000 93.645 159.1045
131.500000 93.542 159.1582
132.000000 93.528 159.1660
134.000000 93.470 159.1989
136.000000 93.414 159.2375
138.000000 93.360 159.2770
140.000000 93.307 159.3062
143.000000 93.228 159.4012
145.000000 93.177 159.4907
147.500000 93.111 159.5816
150.000000 93.046 159.6650
152.500000 92.986 159.7588
155.000000 92.932 159.8550
157.500000 92.884 159.9139
160.000000 92.830 159.9768
162.500000 92.775 160.1241
165.000000 92.721 160.2972
167.500000 92.666 160.4378
170.000000 92.609 160.5514
172.500000 92.552 160.6661
175.000000 92.495 160.8007
177.500000 92.437 160.9647
180.000000 92.381 161.1296
182.500000 92.328 161.2764
185.000000 92.280 161.4002
187.500000 92.233 161.5196
190.000000 92.187 161.6596
192.500000 92.141 161.8188
195.000000 92.096 161.9865
197.500000 92.051 162.1639
200.000000 92.008 162.3510
203.000000 91.964 162.5658
206.000000 91.920 162.7444
209.000000 91.875 162.8907
212.000000 91.831 163.0765
214.000000 91.802 163.2424
218.000000 91.746 163.5704
220.000000 91.719 163.7001
224.000000 91.671 163.9155
227.000000 91.636 164.0801
230.000000 91.596 164.2834
233.000000 91.552 164.5297
236.000000 91.507 164.7790
240.000000 91.448 165.0738
243.000000 91.408 165.2818
247.000000 91.364 165.5508
250.000000 91.335 165.7535
254.000000 91.296 166.0404
258.000000 91.254 166.3421
262.000000 91.218 166.6341
265.000000 91.193 166.8393
269.000000 91.162 167.1066
272.000000 91.141 167.3154
276.000000 91.113 167.6276
280.000000 91.080 167.9373
285.000000 91.035 168.2543
290.000000 90.991 168.5753
295.000000 90.948 168.9419
300.000000 90.909 169.3493
304.000000 90.879 169.6324
307.000000 90.864 169.8019
311.000000 90.855 170.0179
315.000000 90.842 170.2655
320.000000 90.820 170.6181
325.000000 90.789 170.9794
330.000000 90.760 171.3041
335.000000 90.741 171.6163
340.000000 90.721 171.9520
345.000000 90.699 172.2894
350.000000 90.674 172.6125
355.000000 90.647 172.9410
360.000000 90.618 173.2963
365.000000 90.596 173.6450
370.000000 90.578 173.9551
375.000000 90.562 174.2421
382.000000 90.537 174.6777
387.000000 90.514 175.0101
395.000000 90.474 175.5371
400.000000 90.455 175.8375
406.000000 90.436 176.2066
412.000000 90.421 176.5926
418.000000 90.404 176.9638
425.000000 90.382 177.4002
431.000000 90.361 177.7892
437.000000 90.339 178.1607
444.000000 90.322 178.5790
450.000000 90.308 178.9270
455.000000 90.297 179.2141
462.000000 90.278 179.6388
468.000000 90.259 -179.9766
475.000000 90.240 -179.5526
482.000000 90.225 -179.1474
487.000000 90.217 -178.8477
494.000000 90.207 -178.4296
500.000000 90.199 -178.0844
508.000000 90.191 -177.6213
515.000000 90.181 -177.2015
522.000000 90.172 -176.7748
530.000000 90.166 -176.2975
538.000000 90.164 -175.8404
545.000000 90.162 -175.4367
552.000000 90.159 -175.0148
560.000000 90.157 -174.5306
570.000000 90.157 -173.9634
580.000000 90.156 -173.3744
590.000000 90.158 -172.8050
600.000000 90.158 -172.2348
608.000000 90.155 -171.7641
615.000000 90.156 -171.3555
622.000000 90.160 -170.9421
630.000000 90.163 -170.4659
640.000000 90.164 -169.8807
650.000000 90.170 -169.3083
660.000000 90.177 -168.7247
670.000000 90.185 -168.1451
680.000000 90.198 -167.5874
690.000000 90.214 -167.0184
700.000000 90.229 -166.4415
710.000000 90.247 -165.8644
720.000000 90.267 -165.2915
730.000000 90.287 -164.7303
740.000000 90.308 -164.1704
750.000000 90.329 -163.5995
762.000000 90.356 -162.9180
775.000000 90.388 -162.1864
788.000000 90.424 -161.4634
800.000000 90.464 -160.8130
812.000000 90.510 -160.1725
825.000000 90.557 -159.4746
838.000000 90.599 -158.7808
850.000000 90.642 -158.1510
862.000000 90.693 -157.5288
875.000000 90.752 -156.8803
885.000000 90.795 -156.3864
900.000000 90.865 -155.6763
912.000000 90.926 -155.1139
925.000000 90.991 -154.5190
938.000000 91.055 -153.9525
950.000000 91.117 -153.4553
962.000000 91.184 -152.9787
975.000000 91.261 -152.4693
988.000000 91.343 -151.9774
1000.000000 91.417 -151.5589
1015.000000 91.497 -151.1109
1030.000000 91.577 -150.7094
1044.000000 91.656 -150.3450
1060.000000 91.746 -149.9418
1075.000000 91.826 -149.5908
1090.000000 91.909 -149.2802
1106.000000 92.007 -148.9833
1120.000000 92.096 -148.7441
1138.000000 92.211 -148.4760
1150.000000 92.286 -148.3097
1172.000000 92.418 -148.0200
1180.000000 92.464 -147.9196
1206.000000 92.610 -147.6266
1220.000000 92.690 -147.4948
1241.000000 92.809 -147.3110
1250.000000 92.857 -147.2287
1265.000000 92.934 -147.0905
1280.000000 93.007 -146.9515
1315.000000 93.188 -146.6794
1320.000000 93.213 -146.6433
1340.000000 93.304 -146.4976
1360.000000 93.374 -146.3424
1380.000000 93.439 -146.1884
1400.000000 93.514 -146.0414
1430.000000 93.630 -145.8131
1450.000000 93.712 -145.6685
1475.000000 93.809 -145.4738
1500.000000 93.905 -145.2789
1525.000000 94.001 -145.0904
1550.000000 94.090 -144.8967
1575.000000 94.179 -144.7067
1600.000000 94.267 -144.5239
1625.000000 94.354 -144.3531
1650.000000 94.440 -144.1796
1675.000000 94.522 -144.0116
1700.000000 94.598 -143.8558
1725.000000 94.672 -143.7145
1750.000000 94.747 -143.5784
1775.000000 94.823 -143.4434
1800.000000 94.906 -143.3220
1825.000000 94.990 -143.2153
1850.000000 95.074 -143.1182
1875.000000 95.158 -143.0273
1900.000000 95.238 -142.9459
1925.000000 95.312 -142.8678
1950.000000 95.379 -142.7980
1975.000000 95.443 -142.7351
2000.000000 95.503 -142.6816
2030.000000 95.573 -142.6495
2060.000000 95.660 -142.6332
2090.000000 95.756 -142.6169
2120.000000 95.847 -142.6116
2140.000000 95.903 -142.6178
2180.000000 96.011 -142.6601
2200.000000 96.064 -142.6971
2240.000000 96.170 -142.7831
2270.000000 96.245 -142.8609
2300.000000 96.316 -142.9574
2330.000000 96.382 -143.0726
2360.000000 96.446 -143.2035
2400.000000 96.531 -143.3983
2430.000000 96.594 -143.5598
2470.000000 96.675 -143.7987
2500.000000 96.730 -143.9828
2540.000000 96.798 -144.2472
2580.000000 96.862 -144.5267
2620.000000 96.926 -144.8299
2650.000000 96.973 -145.0775
2690.000000 97.032 -145.4193
2720.000000 97.070 -145.6786
2760.000000 97.113 -146.0325
2800.000000 97.147 -146.3954
2850.000000 97.183 -146.8540
2900.000000 97.215 -147.3176
2950.000000 97.237 -147.7842
3000.000000 97.246 -148.2378
3040.000000 97.251 -148.6215
3070.000000 97.255 -148.9112
3110.000000 97.258 -149.2752
3150.000000 97.258 -149.6226
3200.000000 97.256 -150.0508
3250.000000 97.238 -150.4587
3300.000000 97.201 -150.8359
3350.000000 97.158 -151.2036
3400.000000 97.117 -151.5667
3450.000000 97.075 -151.9152
3500.000000 97.029 -152.2370
3550.000000 96.983 -152.5248
3600.000000 96.936 -152.7750
3650.000000 96.885 -152.9987
3700.000000 96.828 -153.2074
3750.000000 96.767 -153.3926
3820.000000 96.678 -153.5968
3870.000000 96.612 -153.7102
3950.000000 96.487 -153.8249
4000.000000 96.395 -153.8599
4060.000000 96.283 -153.8770
4120.000000 96.173 -153.8630
4180.000000 96.065 -153.8124
4250.000000 95.941 -153.7109
4310.000000 95.835 -153.5909
4370.000000 95.720 -153.4302
4440.000000 95.573 -153.1805
4500.000000 95.438 -152.9203
4550.000000 95.322 -152.6739
4620.000000 95.160 -152.2883
4680.000000 95.024 -151.9320
4750.000000 94.869 -151.4782
4820.000000 94.712 -150.9703
4870.000000 94.598 -150.5728
4940.000000 94.436 -149.9847
5000.000000 94.299 -149.4457
5080.000000 94.121 -148.6411
5150.000000 93.965 -147.8739
5220.000000 93.810 -147.0547
5300.000000 93.639 -146.0475
5380.000000 93.474 -144.9664
5450.000000 93.335 -143.9658
5520.000000 93.205 -142.9230
5600.000000 93.069 -141.6794
5700.000000 92.916 -140.0500
5800.000000 92.782 -138.3792
5900.000000 92.667 -136.6738
6000.000000 92.568 -134.9400
6080.000000 92.503 -133.5366
6150.000000 92.460 -132.2951
6220.000000 92.428 -131.0405
6300.000000 92.408 -129.5992
6400.000000 92.407 -127.8058
6500.000000 92.435 -126.0559
6600.000000 92.495 -124.3706
6700.000000 92.586 -122.7806
6800.000000 92.715 -121.3331
6900.000000 92.899 -120.0750
7000.000000 93.130 -119.0612
7100.000000 93.388 -118.3454
7200.000000 93.662 -117.9681
7300.000000 93.938 -117.9568
7400.000000 94.208 -118.2823
7500.000000 94.483 -118.9169
7620.000000 94.859 -120.1794
7750.000000 95.314 -122.5356
7880.000000 95.668 -126.4998
8000.000000 95.802 -131.8592
8120.000000 95.637 -138.4736
8250.000000 95.028 -145.8481
8380.000000 93.990 -151.9590
8500.000000 92.747 -155.6310
8620.000000 91.344 -157.2055
8750.000000 89.756 -156.6826
8850.000000 88.540 -154.8499
9000.000000 86.781 -149.8880
9120.000000 85.464 -143.9444
9250.000000 84.206 -135.4265
9380.000000 83.286 -124.9751
9500.000000 82.926 -114.5201
9620.000000 83.104 -104.8141
9750.000000 83.740 -96.8655
9880.000000 84.505 -92.4479
10000.000000 85.075 -91.1729
10150.000000 85.426 -91.7923
10300.000000 85.367 -92.8802
10440.000000 85.043 -93.1369
10600.000000 84.505 -92.0967
10750.000000 83.948 -89.9399
10900.000000 83.412 -86.8933
11060.000000 82.892 -82.9213
11200.000000 82.483 -79.0202
11380.000000 82.016 -73.6127
11500.000000 81.745 -69.8300
11720.000000 81.332 -62.6122
11800.000000 81.207 -59.9122
12060.000000 80.893 -50.9148
12200.000000 80.782 -45.9385
12410.000000 80.695 -38.3381
12500.000000 80.695 -35.0529
12650.000000 80.750 -29.5732
12800.000000 80.878 -24.1332
13150.000000 81.485 -11.9556
13200.000000 81.609 -10.3171
13400.000000 82.206 -4.1436
13600.000000 82.978 1.2264
13800.000000 83.954 5.4263
14000.000000 85.112 7.9554
14300.000000 86.973 7.2454
14500.000000 88.063 2.9203
14750.000000 88.904 -6.6217
15000.000000 88.933 -18.2482
15250.000000 88.210 -28.4633
15500.000000 87.054 -35.4942
15750.000000 85.789 -39.6746
16000.000000 84.538 -42.1251
16250.000000 83.291 -43.7451
16500.000000 81.973 -44.8456
16750.000000 80.519 -45.1799
17000.000000 78.910 -44.2567
17250.000000 77.184 -41.7072
17500.000000 75.414 -37.3896
17750.000000 73.665 -31.4120
18000.000000 71.997 -23.9109
18250.000000 70.440 -15.1549
18500.000000 68.933 -5.4238
18750.000000 67.527 5.2299
19000.000000 66.227 16.6202
19250.000000 64.998 27.8618
19500.000000 63.838 31.4705
19750.000000 62.827 -5.0386
20000.000000 61.993 -114.7104
20300.000000 61.269 131.8058
20600.000000 60.917 114.1922
20900.000000 60.985 128.1180
21200.000000 61.530 144.5098
21400.000000 62.019 153.7219
21800.000000 62.704 165.9587
22000.000000 62.743 161.1974
22400.000000 61.757 -143.8861
22700.000000 59.015 108.1895
23000.000000 53.645 40.7305
23300.000000 46.602 39.2930
23600.000000 41.783 -74.7227
24000.000000 41.579 57.4414
