* Measurement data measured by REW V5.20.13
* Source: Microphone (High Definition Audio Device), MICROPHONE (Master Volume), L, volume: 1.000. Timing signal peak level -18.4 dBFS, measurement signal peak level -16.3 dBFS
* Format: 512k Log Swept Sine, 1 sweep at -12.0 dBFS using an acoustic timing reference
* Dated: Dec 23, 2022 1:57:41 PM
* REW Settings:
*  C-weighting compensation: Off
*  Target level: 75.0 dB
* Note: ; Delay -0.0553 ms (-19 mm, -0.75 in) using estimated IR delay relative to Acoustic reference played from HEADPHONE R with no timing offset Clock adjustment: 120.9 ppm
* Measurement: CrinZero foam R
* Smoothing: 1/24 octave
* Frequency Step: 1/48 octave
* Start Frequency: 1.000 Hz
*
* Freq(Hz) SPL(dB) Phase(degrees)
1.000000 61.999 -74.9108
1.015000 62.029 -76.0776
1.030000 62.057 -77.2131
1.044000 62.082 -78.2409
1.060000 62.109 -79.3735
1.075000 62.133 -80.3904
1.090000 62.155 -81.3597
1.106000 62.176 -82.3386
1.120000 62.193 -83.1581
1.138000 62.214 -84.1668
1.150000 62.227 -84.8128
1.172000 62.249 -85.9464
1.180000 62.257 -86.3433
1.206000 62.280 -87.5826
1.220000 62.291 -88.2205
1.241000 62.307 -89.1434
1.250000 62.313 -89.5278
1.265000 62.322 -90.1552
1.280000 62.330 -90.7679
1.315000 62.345 -92.1525
1.320000 62.347 -92.3464
1.340000 62.353 -93.1148
1.360000 62.358 -93.8762
1.380000 62.360 -94.6356
1.400000 62.361 -95.3980
1.430000 62.359 -96.5584
1.450000 62.356 -97.3506
1.475000 62.349 -98.3712
1.500000 62.339 -99.4331
1.525000 62.325 -100.5270
1.550000 62.307 -101.6407
1.575000 62.286 -102.7623
1.600000 62.262 -103.8796
1.625000 62.236 -104.9807
1.650000 62.208 -106.0534
1.675000 62.178 -107.0857
1.700000 62.146 -108.0656
1.725000 62.113 -108.9810
1.750000 62.079 -109.8199
1.775000 62.045 -110.5702
1.800000 62.010 -111.2198
1.825000 61.976 -111.7568
1.850000 61.939 -112.1814
1.875000 61.892 -112.5190
1.900000 61.838 -112.7750
1.925000 61.778 -112.9535
1.950000 61.715 -113.0585
1.975000 61.650 -113.0942
2.000000 61.586 -113.0647
2.030000 61.513 -112.9489
2.060000 61.448 -112.7523
2.090000 61.394 -112.4819
2.120000 61.355 -112.1449
2.140000 61.339 -111.8866
2.180000 61.336 -111.2992
2.200000 61.350 -110.9736
2.240000 61.399 -110.1421
2.270000 61.447 -109.3508
2.300000 61.507 -108.4456
2.330000 61.579 -107.4529
2.360000 61.665 -106.3996
2.400000 61.802 -104.9468
2.430000 61.922 -103.8556
2.470000 62.109 -102.4490
2.500000 62.269 -101.4650
2.540000 62.512 -100.2982
2.580000 62.791 -99.3320
2.620000 63.121 -98.4130
2.650000 63.398 -97.7403
2.690000 63.799 -96.8854
2.720000 64.120 -96.2893
2.760000 64.566 -95.5749
2.800000 65.025 -94.9751
2.850000 65.603 -94.4245
2.900000 66.168 -94.1407
2.950000 66.708 -94.1704
3.000000 67.254 -94.5125
3.040000 67.698 -94.9827
3.070000 68.033 -95.4356
3.110000 68.479 -96.1552
3.150000 68.923 -96.9871
3.200000 69.468 -98.1513
3.250000 69.997 -99.4134
3.300000 70.504 -100.7310
3.350000 70.992 -102.1755
3.400000 71.467 -103.7915
3.450000 71.930 -105.5414
3.500000 72.379 -107.3877
3.550000 72.816 -109.2928
3.600000 73.239 -111.2194
3.650000 73.650 -113.1297
3.700000 74.046 -115.0217
3.750000 74.428 -116.9561
3.820000 74.941 -119.7222
3.870000 75.292 -121.7254
3.950000 75.829 -124.9502
4.000000 76.151 -126.9623
4.060000 76.524 -129.3675
4.120000 76.880 -131.8026
4.180000 77.219 -134.2548
4.250000 77.595 -137.1081
4.310000 77.903 -139.5222
4.370000 78.198 -141.8840
4.440000 78.528 -144.5622
4.500000 78.794 -146.8218
4.550000 79.005 -148.6771
4.620000 79.287 -151.2242
4.680000 79.518 -153.3532
4.750000 79.775 -155.7643
4.820000 80.020 -158.1014
4.870000 80.185 -159.7347
4.940000 80.404 -161.9611
5.000000 80.583 -163.8044
5.080000 80.813 -166.1536
5.150000 81.008 -168.0941
5.220000 81.193 -169.9321
5.300000 81.394 -171.9152
5.380000 81.588 -173.7779
5.450000 81.757 -175.3131
5.520000 81.928 -176.7610
5.600000 82.120 -178.2876
5.700000 82.357 179.9710
5.800000 82.600 178.3669
5.900000 82.856 176.8611
6.000000 83.121 175.5063
6.080000 83.340 174.5011
6.150000 83.536 173.6462
6.220000 83.738 172.7876
6.300000 83.976 171.8141
6.400000 84.286 170.6418
6.500000 84.602 169.4674
6.600000 84.919 168.2358
6.700000 85.240 166.9460
6.800000 85.564 165.6165
6.900000 85.883 164.2397
7.000000 86.191 162.8065
7.100000 86.493 161.3087
7.200000 86.786 159.7654
7.300000 87.065 158.2001
7.400000 87.328 156.6163
7.500000 87.578 154.9965
7.620000 87.857 153.0532
7.750000 88.134 151.0026
7.880000 88.384 148.9788
8.000000 88.593 147.1730
8.120000 88.786 145.4683
8.250000 88.972 143.7132
8.380000 89.142 142.0736
8.500000 89.291 140.6848
8.620000 89.428 139.4097
8.750000 89.571 138.1411
8.850000 89.682 137.2414
9.000000 89.845 136.0309
9.120000 89.977 135.1396
9.250000 90.128 134.2269
9.380000 90.284 133.3854
9.500000 90.430 132.6267
9.620000 90.577 131.8654
9.750000 90.738 131.0545
9.880000 90.893 130.2272
10.000000 91.028 129.4360
10.150000 91.188 128.4226
10.300000 91.335 127.3794
10.440000 91.462 126.3734
10.600000 91.595 125.2054
10.750000 91.713 124.1031
10.900000 91.822 122.9937
11.060000 91.930 121.8267
11.200000 92.017 120.8170
11.380000 92.123 119.5422
11.500000 92.189 118.7103
11.720000 92.303 117.2142
11.800000 92.344 116.6785
12.060000 92.474 114.9657
12.200000 92.542 114.0536
12.410000 92.642 112.7002
12.500000 92.683 112.1252
12.650000 92.748 111.1725
12.800000 92.811 110.2327
13.150000 92.948 108.1032
13.200000 92.967 107.8082
13.400000 93.043 106.6533
13.600000 93.122 105.5338
13.800000 93.204 104.4514
14.000000 93.291 103.3849
14.300000 93.431 101.7991
14.500000 93.529 100.7247
14.750000 93.655 99.3472
15.000000 93.782 97.9270
15.250000 93.906 96.4738
15.500000 94.023 95.0191
15.750000 94.131 93.5851
16.000000 94.230 92.2065
16.250000 94.324 90.9001
16.500000 94.415 89.6688
16.750000 94.509 88.5094
17.000000 94.606 87.3998
17.250000 94.706 86.3274
17.500000 94.807 85.2759
17.750000 94.907 84.2381
18.000000 95.004 83.2172
18.250000 95.095 82.2171
18.500000 95.182 81.2495
18.750000 95.266 80.3177
19.000000 95.346 79.4250
19.250000 95.426 78.5666
19.500000 95.505 77.7332
19.750000 95.584 76.9173
20.000000 95.662 76.1055
20.299999 95.753 75.1278
20.600000 95.840 74.1396
20.900000 95.920 73.1398
21.200001 95.994 72.1333
21.400000 96.038 71.4641
21.799999 96.118 70.1406
22.000000 96.155 69.4911
22.400000 96.223 68.2227
22.700001 96.272 67.2952
23.000000 96.321 66.3808
23.299999 96.370 65.4725
23.600000 96.418 64.5687
24.000000 96.481 63.3773
24.299999 96.528 62.5064
24.700001 96.590 61.3904
25.000000 96.638 60.5887
25.400000 96.709 59.5528
25.799999 96.786 58.5263
26.200001 96.865 57.4889
26.500000 96.923 56.7056
26.900000 96.997 55.6693
27.200001 97.049 54.9091
27.600000 97.118 53.9238
28.000000 97.185 52.9608
28.500000 97.265 51.7668
29.000000 97.338 50.5795
29.500000 97.402 49.4166
30.000000 97.460 48.2867
30.400000 97.502 47.3963
30.700001 97.533 46.7292
31.100000 97.570 45.8395
31.500000 97.602 44.9579
32.000000 97.636 43.8879
32.500000 97.668 42.8703
33.000000 97.701 41.9041
33.500000 97.740 40.9719
34.000000 97.785 40.0444
34.500000 97.835 39.0919
35.000000 97.882 38.1038
35.500000 97.920 37.1016
36.000000 97.945 36.1288
36.500000 97.963 35.2208
37.000000 97.979 34.3825
37.500000 97.998 33.5872
38.200001 98.031 32.4709
38.700001 98.054 31.6372
39.500000 98.081 30.2566
40.000000 98.090 29.4044
40.599998 98.099 28.4203
41.200001 98.112 27.4686
41.799999 98.128 26.5281
42.500000 98.151 25.4404
43.099998 98.173 24.5294
43.700001 98.196 23.6416
44.400002 98.225 22.6183
45.000000 98.247 21.7344
45.500000 98.257 20.9996
46.200001 98.258 20.0259
46.799999 98.252 19.2887
47.500000 98.251 18.5057
48.200001 98.259 17.6906
48.700001 98.261 17.0661
49.400002 98.254 16.1956
50.000000 98.249 15.4889
50.799999 98.255 14.5287
51.500000 98.264 13.6053
52.200001 98.267 12.6426
53.000000 98.265 11.5681
53.799999 98.260 10.5503
54.500000 98.257 9.7065
55.200001 98.254 8.8906
56.000000 98.244 7.9866
57.000000 98.213 6.9273
58.000000 98.157 6.0964
59.000000 98.132 5.5911
60.000000 98.171 4.7836
60.799999 98.173 3.7310
61.500000 98.131 2.8458
62.200001 98.083 2.1388
63.000000 98.046 1.3917
64.000000 98.010 0.3940
65.000000 97.970 -0.5804
66.000000 97.930 -1.4937
67.000000 97.890 -2.3209
68.000000 97.858 -3.1042
69.000000 97.824 -3.9136
70.000000 97.784 -4.7125
71.000000 97.742 -5.5153
72.000000 97.695 -6.3422
73.000000 97.642 -7.1375
74.000000 97.591 -7.9061
75.000000 97.541 -8.6597
76.199997 97.483 -9.5447
77.500000 97.416 -10.4922
78.800003 97.344 -11.3744
80.000000 97.281 -12.1578
81.199997 97.215 -12.9419
82.500000 97.143 -13.7728
83.800003 97.066 -14.5989
85.000000 96.993 -15.3164
86.199997 96.924 -16.0193
87.500000 96.851 -16.7584
88.500000 96.797 -17.3380
90.000000 96.705 -18.2067
91.199997 96.623 -18.8286
92.500000 96.535 -19.4454
93.800003 96.447 -20.0494
95.000000 96.364 -20.6049
96.199997 96.282 -21.1699
97.500000 96.193 -21.8059
98.800003 96.101 -22.4255
100.000000 96.017 -22.9615
101.500000 95.914 -23.6023
103.000000 95.811 -24.2266
104.400002 95.711 -24.7855
106.000000 95.599 -25.3937
107.500000 95.493 -25.9474
109.000000 95.389 -26.4332
110.599998 95.287 -26.9097
112.000000 95.200 -27.3535
113.800003 95.068 -27.9598
115.000000 94.963 -28.2723
117.199997 94.771 -28.6774
118.000000 94.704 -28.8043
120.599998 94.510 -29.3820
122.000000 94.400 -29.8276
124.099998 94.233 -30.3767
125.000000 94.167 -30.5801
126.500000 94.053 -30.8664
128.000000 93.935 -31.0320
131.500000 93.672 -31.3560
132.000000 93.634 -31.4261
134.000000 93.476 -31.7352
136.000000 93.317 -31.9436
138.000000 93.165 -32.0790
140.000000 93.015 -32.1387
143.000000 92.803 -32.1547
145.000000 92.672 -32.1828
147.500000 92.499 -32.2002
150.000000 92.325 -32.0644
152.500000 92.159 -31.8812
155.000000 91.987 -31.6595
157.500000 91.813 -31.3912
160.000000 91.653 -31.1016
162.500000 91.510 -30.7058
165.000000 91.366 -30.1824
167.500000 91.210 -29.5897
170.000000 91.061 -29.1564
172.500000 90.923 -28.8774
175.000000 90.805 -28.4781
177.500000 90.701 -27.9062
180.000000 90.593 -27.2457
182.500000 90.479 -26.5508
185.000000 90.378 -25.8820
187.500000 90.297 -25.3333
190.000000 90.233 -24.8491
192.500000 90.164 -24.2839
195.000000 90.078 -23.5229
197.500000 89.985 -22.7773
200.000000 89.899 -22.1218
203.000000 89.847 -21.3326
206.000000 89.818 -20.5641
209.000000 89.775 -19.8286
212.000000 89.736 -19.2595
214.000000 89.715 -18.8992
218.000000 89.681 -18.0115
220.000000 89.669 -17.5746
224.000000 89.645 -16.7812
227.000000 89.632 -16.1837
230.000000 89.618 -15.6182
233.000000 89.614 -15.0616
236.000000 89.636 -14.4598
240.000000 89.653 -13.7594
243.000000 89.618 -13.3578
247.000000 89.592 -12.9586
250.000000 89.597 -12.6506
254.000000 89.603 -12.1220
258.000000 89.607 -11.6360
262.000000 89.619 -11.2133
265.000000 89.625 -10.9136
269.000000 89.639 -10.5831
272.000000 89.655 -10.3474
276.000000 89.672 -9.9883
280.000000 89.671 -9.6155
285.000000 89.659 -9.2440
290.000000 89.661 -8.9756
295.000000 89.658 -8.6785
300.000000 89.656 -8.3804
304.000000 89.662 -8.0531
307.000000 89.662 -7.8490
311.000000 89.672 -7.7186
315.000000 89.688 -7.5637
320.000000 89.697 -7.3292
325.000000 89.706 -7.1317
330.000000 89.706 -6.9019
335.000000 89.700 -6.6301
340.000000 89.695 -6.3502
345.000000 89.684 -6.1448
350.000000 89.672 -5.9626
355.000000 89.659 -5.7317
360.000000 89.648 -5.5472
365.000000 89.633 -5.4116
370.000000 89.612 -5.2239
375.000000 89.596 -4.9916
382.000000 89.588 -4.6503
387.000000 89.577 -4.4246
395.000000 89.545 -4.1328
400.000000 89.520 -3.8871
406.000000 89.494 -3.5164
412.000000 89.474 -3.2146
418.000000 89.459 -2.9916
425.000000 89.433 -2.7212
431.000000 89.407 -2.4082
437.000000 89.386 -2.1353
444.000000 89.354 -1.8248
450.000000 89.335 -1.5566
455.000000 89.321 -1.3095
462.000000 89.294 -0.9245
468.000000 89.271 -0.5654
475.000000 89.251 -0.1472
482.000000 89.233 0.2437
487.000000 89.218 0.5247
494.000000 89.198 0.9137
500.000000 89.182 1.2131
508.000000 89.160 1.6116
515.000000 89.138 2.0505
522.000000 89.128 2.4236
530.000000 89.104 2.8605
538.000000 89.087 3.3495
545.000000 89.080 3.7199
552.000000 89.067 4.1230
560.000000 89.053 4.6379
570.000000 89.040 5.2786
580.000000 89.023 5.8578
590.000000 89.010 6.4827
600.000000 89.004 7.1454
608.000000 88.995 7.6632
615.000000 88.984 8.1013
622.000000 88.971 8.5146
630.000000 88.958 9.0253
640.000000 88.950 9.7611
650.000000 88.948 10.4595
660.000000 88.943 11.0945
670.000000 88.937 11.7639
680.000000 88.942 12.4587
690.000000 88.953 13.1831
700.000000 88.963 13.8965
710.000000 88.963 14.6244
720.000000 88.969 15.3632
730.000000 88.995 16.0607
740.000000 89.022 16.7751
750.000000 89.042 17.4739
762.000000 89.073 18.2856
775.000000 89.117 19.1940
788.000000 89.162 20.1188
800.000000 89.200 20.9684
812.000000 89.244 21.8165
825.000000 89.294 22.7229
838.000000 89.349 23.5513
850.000000 89.410 24.3369
862.000000 89.475 25.1415
875.000000 89.551 25.9698
885.000000 89.614 26.5839
900.000000 89.716 27.4733
912.000000 89.795 28.1913
925.000000 89.883 28.9387
938.000000 89.977 29.5883
950.000000 90.065 30.1643
962.000000 90.157 30.7490
975.000000 90.259 31.3834
988.000000 90.361 31.9958
1000.000000 90.458 32.5094
1015.000000 90.573 33.0986
1030.000000 90.686 33.6214
1044.000000 90.795 34.0679
1060.000000 90.927 34.5594
1075.000000 91.047 34.9611
1090.000000 91.170 35.3037
1106.000000 91.307 35.6238
1120.000000 91.428 35.8822
1138.000000 91.571 36.2058
1150.000000 91.665 36.3992
1172.000000 91.841 36.6938
1180.000000 91.904 36.7982
1206.000000 92.102 37.1172
1220.000000 92.204 37.2548
1241.000000 92.348 37.4592
1250.000000 92.410 37.5456
1265.000000 92.515 37.6851
1280.000000 92.622 37.8126
1315.000000 92.856 38.0922
1320.000000 92.888 38.1327
1340.000000 93.004 38.3038
1360.000000 93.100 38.5082
1380.000000 93.194 38.7244
1400.000000 93.299 38.9190
1430.000000 93.460 39.1885
1450.000000 93.569 39.3566
1475.000000 93.704 39.5971
1500.000000 93.835 39.8871
1525.000000 93.958 40.2188
1550.000000 94.082 40.5159
1575.000000 94.206 40.8120
1600.000000 94.330 41.1250
1625.000000 94.455 41.4458
1650.000000 94.583 41.7589
1675.000000 94.711 42.0679
1700.000000 94.842 42.3642
1725.000000 94.975 42.6600
1750.000000 95.107 42.9579
1775.000000 95.240 43.2393
1800.000000 95.375 43.5042
1825.000000 95.512 43.7563
1850.000000 95.651 44.0084
1875.000000 95.792 44.2389
1900.000000 95.936 44.4330
1925.000000 96.083 44.6166
1950.000000 96.230 44.7905
1975.000000 96.377 44.9399
2000.000000 96.526 45.0572
2030.000000 96.705 45.1693
2060.000000 96.884 45.2487
2090.000000 97.067 45.2804
2120.000000 97.252 45.2799
2140.000000 97.375 45.2560
2180.000000 97.620 45.1418
2200.000000 97.740 45.0487
2240.000000 97.980 44.8078
2270.000000 98.159 44.5788
2300.000000 98.333 44.3016
2330.000000 98.504 43.9730
2360.000000 98.674 43.5919
2400.000000 98.894 43.0088
2430.000000 99.055 42.5238
2470.000000 99.261 41.8116
2500.000000 99.408 41.2246
2540.000000 99.595 40.3809
2580.000000 99.770 39.4770
2620.000000 99.932 38.5043
2650.000000 100.045 37.7396
2690.000000 100.182 36.6902
2720.000000 100.275 35.8828
2760.000000 100.383 34.7791
2800.000000 100.475 33.6566
2850.000000 100.568 32.2316
2900.000000 100.635 30.8094
2950.000000 100.676 29.4145
3000.000000 100.697 28.0760
3040.000000 100.700 27.0446
3070.000000 100.693 26.2977
3110.000000 100.674 25.3474
3150.000000 100.645 24.4526
3200.000000 100.597 23.4202
3250.000000 100.536 22.4847
3300.000000 100.465 21.6426
3350.000000 100.387 20.8902
3400.000000 100.306 20.2301
3450.000000 100.225 19.6556
3500.000000 100.146 19.1655
3550.000000 100.068 18.7588
3600.000000 99.991 18.4302
3650.000000 99.913 18.1674
3700.000000 99.837 17.9633
3750.000000 99.765 17.8099
3820.000000 99.668 17.6770
3870.000000 99.601 17.6331
3950.000000 99.497 17.6190
4000.000000 99.437 17.6413
4060.000000 99.372 17.6934
4120.000000 99.312 17.7706
4180.000000 99.260 17.8519
4250.000000 99.207 17.9438
4310.000000 99.163 18.0030
4370.000000 99.117 18.0508
4440.000000 99.066 18.0873
4500.000000 99.026 18.0839
4550.000000 98.997 18.0481
4620.000000 98.960 17.9373
4680.000000 98.931 17.7913
4750.000000 98.900 17.5661
4820.000000 98.868 17.2750
4870.000000 98.844 17.0232
4940.000000 98.809 16.5969
5000.000000 98.777 16.1700
5080.000000 98.729 15.5251
5150.000000 98.679 14.8907
5220.000000 98.621 14.1979
5300.000000 98.542 13.3480
5380.000000 98.449 12.4587
5450.000000 98.360 11.6597
5520.000000 98.263 10.8511
5600.000000 98.140 9.9280
5700.000000 97.970 8.8033
5800.000000 97.783 7.7571
5900.000000 97.585 6.8079
6000.000000 97.382 5.9869
6080.000000 97.220 5.4161
6150.000000 97.083 4.9810
6220.000000 96.951 4.6099
6300.000000 96.810 4.2628
6400.000000 96.649 3.9355
6500.000000 96.507 3.7037
6600.000000 96.389 3.5537
6700.000000 96.303 3.4609
6800.000000 96.258 3.3912
6900.000000 96.265 3.2953
7000.000000 96.329 3.1370
7100.000000 96.437 2.9125
7200.000000 96.579 2.5673
7300.000000 96.757 2.0295
7400.000000 96.964 1.2166
7500.000000 97.196 0.0484
7620.000000 97.504 -1.9111
7750.000000 97.837 -4.7701
7880.000000 98.047 -8.4227
8000.000000 98.109 -12.4466
8120.000000 98.035 -16.9108
8250.000000 97.777 -21.9017
8380.000000 97.331 -26.6145
8500.000000 96.767 -30.3803
8620.000000 96.086 -33.3572
8750.000000 95.251 -35.5835
8850.000000 94.569 -36.5938
9000.000000 93.527 -37.0469
9120.000000 92.701 -36.5972
9250.000000 91.836 -35.4131
9380.000000 91.011 -33.6318
9500.000000 90.287 -31.5638
9620.000000 89.601 -29.1401
9750.000000 88.908 -26.1909
9880.000000 88.269 -22.9696
10000.000000 87.724 -19.8030
10150.000000 87.095 -15.6473
10300.000000 86.518 -11.3290
10440.000000 86.024 -7.2317
10600.000000 85.509 -2.5291
10750.000000 85.079 1.8541
10900.000000 84.691 6.1965
11060.000000 84.318 10.6820
11200.000000 84.026 14.3847
11380.000000 83.676 18.7776
11500.000000 83.445 21.4810
11720.000000 82.991 26.1185
11800.000000 82.806 27.7964
12060.000000 82.179 33.7968
12200.000000 81.902 37.5702
12410.000000 81.685 43.4359
12500.000000 81.680 45.7732
12650.000000 81.782 49.1902
12800.000000 82.010 51.8965
13150.000000 83.009 55.1778
13200.000000 83.214 55.2778
13400.000000 84.225 54.5630
13600.000000 85.554 51.5181
13800.000000 87.120 45.2297
14000.000000 88.714 34.9349
14300.000000 90.517 11.9086
14500.000000 90.969 -6.2168
14750.000000 90.643 -26.9933
15000.000000 89.706 -42.2344
15250.000000 88.657 -51.9061
15500.000000 87.838 -57.7358
15750.000000 87.339 -61.4226
16000.000000 87.086 -64.1135
16250.000000 87.016 -66.4938
16500.000000 87.081 -69.1754
16750.000000 87.225 -72.8035
17000.000000 87.367 -77.8916
17250.000000 87.399 -84.7445
17500.000000 87.187 -93.3387
17750.000000 86.596 -102.9558
18000.000000 85.595 -112.3319
18250.000000 84.230 -120.5066
18500.000000 82.509 -126.9197
18750.000000 80.517 -130.8120
19000.000000 78.400 -131.7974
19250.000000 76.299 -130.4153
19500.000000 74.342 -126.8488
19750.000000 72.708 -121.6567
20000.000000 71.581 -116.4176
20300.000000 71.095 -112.9153
20600.000000 71.347 -115.4143
20900.000000 71.831 -125.0542
21200.000000 72.255 -142.1813
21400.000000 72.452 -158.4692
21800.000000 72.526 147.8527
22000.000000 72.218 86.7425
22400.000000 69.490 108.7975
22700.000000 64.531 -112.0742
23000.000000 57.447 -82.7578
23300.000000 50.597 -144.5781
23600.000000 47.879 84.3320
24000.000000 48.388 24.7422
