* Measurement data measured by REW V5.20.13
* Source: Microphone (Realtek(R) Audio), MICROPHONE (Master Volume), L, volume: 0.670. Timing signal peak level -35.2 dBFS, measurement signal peak level -33.8 dBFS
* Format: 2M Log Swept Sine, 1 sweep at -12.0 dBFS using an acoustic timing reference
* Dated: Jul 10, 2023 9:24:42 AM
* REW Settings:
*  C-weighting compensation: Off
*  Target level: 75.0 dB
* Note: ; Delay -0.0529 ms (-18 mm, -0.71 in) using estimated IR delay relative to Acoustic reference played from HEADPHONE L with no timing offset Clock adjustment: 120.9 ppm
* Measurement: CrinZero L
* Smoothing: 1/24 octave
* Frequency Step: 1/48 octave
* Start Frequency: 1.000 Hz
*
* Freq(Hz) SPL(dB) Phase(degrees)
1.000000 73.074 -18.7032
1.015000 73.168 -16.8491
1.030000 73.263 -15.0890
1.044000 73.351 -13.5394
1.060000 73.452 -11.8889
1.075000 73.547 -10.4680
1.090000 73.641 -9.1793
1.106000 73.741 -7.9577
1.120000 73.831 -7.0020
1.138000 73.951 -5.9152
1.150000 74.033 -5.2745
1.172000 74.186 -4.2621
1.180000 74.243 -3.9429
1.206000 74.431 -3.0703
1.220000 74.533 -2.6967
1.241000 74.687 -2.2487
1.250000 74.753 -2.0943
1.265000 74.863 -1.8821
1.280000 74.972 -1.7210
1.315000 75.223 -1.5085
1.320000 75.258 -1.4934
1.340000 75.397 -1.4620
1.360000 75.532 -1.4657
1.380000 75.662 -1.4898
1.400000 75.786 -1.5194
1.430000 75.959 -1.5418
1.450000 76.065 -1.5204
1.475000 76.185 -1.4372
1.500000 76.297 -1.3673
1.525000 76.401 -1.3351
1.550000 76.499 -1.3446
1.575000 76.590 -1.3999
1.600000 76.673 -1.5050
1.625000 76.751 -1.6639
1.650000 76.822 -1.8808
1.675000 76.887 -2.1596
1.700000 76.946 -2.5044
1.725000 77.000 -2.9192
1.750000 77.048 -3.4082
1.775000 77.090 -3.9752
1.800000 77.127 -4.6244
1.825000 77.160 -5.3599
1.850000 77.184 -6.2008
1.875000 77.194 -7.1773
1.900000 77.191 -8.2752
1.925000 77.177 -9.4784
1.950000 77.155 -10.7710
1.975000 77.128 -12.1372
2.000000 77.096 -13.5609
2.030000 77.057 -15.3228
2.060000 77.020 -17.1170
2.090000 76.988 -18.9160
2.120000 76.966 -20.6922
2.140000 76.959 -21.8500
2.180000 76.968 -24.0659
2.200000 76.986 -25.1082
2.240000 77.040 -27.1722
2.270000 77.091 -28.7337
2.300000 77.151 -30.2984
2.330000 77.218 -31.8587
2.360000 77.294 -33.4072
2.400000 77.406 -35.4403
2.430000 77.497 -36.9317
2.470000 77.628 -38.8615
2.500000 77.733 -40.2549
2.540000 77.880 -42.0266
2.580000 78.036 -43.6867
2.620000 78.210 -45.2532
2.650000 78.351 -46.3741
2.690000 78.552 -47.8019
2.720000 78.709 -48.8264
2.760000 78.924 -50.1359
2.800000 79.143 -51.3870
2.850000 79.414 -52.8788
2.900000 79.676 -54.3028
2.950000 79.924 -55.6682
3.000000 80.166 -56.9513
3.040000 80.358 -57.9166
3.070000 80.501 -58.6068
3.110000 80.690 -59.4842
3.150000 80.878 -60.3151
3.200000 81.110 -61.2928
3.250000 81.339 -62.2077
3.300000 81.565 -63.0651
3.350000 81.787 -63.8360
3.400000 82.007 -64.5120
3.450000 82.224 -65.1148
3.500000 82.438 -65.6657
3.550000 82.649 -66.1863
3.600000 82.857 -66.6981
3.650000 83.061 -67.2225
3.700000 83.263 -67.7655
3.750000 83.461 -68.2994
3.820000 83.733 -69.0264
3.870000 83.924 -69.5287
3.950000 84.224 -70.2989
4.000000 84.407 -70.7567
4.060000 84.625 -71.2760
4.120000 84.838 -71.7492
4.180000 85.048 -72.1894
4.250000 85.287 -72.6835
4.310000 85.488 -73.1095
4.370000 85.685 -73.5553
4.440000 85.910 -74.1140
4.500000 86.099 -74.6108
4.550000 86.253 -75.0332
4.620000 86.465 -75.6320
4.680000 86.641 -76.1477
4.750000 86.841 -76.7461
4.820000 87.034 -77.3385
4.870000 87.169 -77.7611
4.940000 87.352 -78.3533
5.000000 87.504 -78.8627
5.080000 87.699 -79.5463
5.150000 87.862 -80.1509
5.220000 88.019 -80.7673
5.300000 88.189 -81.4799
5.380000 88.351 -82.1904
5.450000 88.487 -82.8017
5.520000 88.616 -83.3971
5.600000 88.756 -84.0695
5.700000 88.919 -84.8942
5.800000 89.071 -85.6889
5.900000 89.216 -86.4416
6.000000 89.350 -87.1582
6.080000 89.450 -87.7059
6.150000 89.535 -88.1653
6.220000 89.618 -88.6052
6.300000 89.710 -89.0830
6.400000 89.819 -89.6442
6.500000 89.924 -90.1688
6.600000 90.029 -90.6600
6.700000 90.134 -91.1096
6.800000 90.236 -91.5225
6.900000 90.339 -91.9165
7.000000 90.444 -92.3060
7.100000 90.551 -92.6786
7.200000 90.658 -93.0413
7.300000 90.767 -93.4078
7.400000 90.877 -93.7833
7.500000 90.988 -94.1592
7.620000 91.121 -94.6231
7.750000 91.264 -95.1572
7.880000 91.407 -95.7207
8.000000 91.536 -96.2628
8.120000 91.661 -96.8253
8.250000 91.793 -97.4612
8.380000 91.921 -98.1128
8.500000 92.032 -98.7214
8.620000 92.139 -99.3422
8.750000 92.249 -100.0147
8.850000 92.331 -100.5247
9.000000 92.445 -101.2863
9.120000 92.533 -101.8821
9.250000 92.627 -102.5050
9.380000 92.716 -103.1087
9.500000 92.796 -103.6501
9.620000 92.873 -104.1756
9.750000 92.952 -104.7270
9.880000 93.026 -105.2646
10.000000 93.087 -105.7506
10.150000 93.155 -106.3422
10.300000 93.219 -106.9144
10.440000 93.271 -107.4279
10.600000 93.329 -108.0013
10.750000 93.386 -108.5304
10.900000 93.443 -109.0524
11.060000 93.506 -109.6197
11.200000 93.562 -110.1253
11.380000 93.633 -110.7747
11.500000 93.680 -111.2063
11.720000 93.764 -111.9901
11.800000 93.795 -112.2700
12.060000 93.894 -113.1652
12.200000 93.949 -113.6398
12.410000 94.030 -114.3394
12.500000 94.065 -114.6317
12.650000 94.122 -115.1088
12.800000 94.179 -115.5757
13.150000 94.311 -116.6280
13.200000 94.330 -116.7766
13.400000 94.409 -117.3662
13.600000 94.488 -117.9563
13.800000 94.567 -118.5494
14.000000 94.645 -119.1513
14.300000 94.756 -120.0694
14.500000 94.824 -120.6841
14.750000 94.903 -121.4392
15.000000 94.976 -122.1715
15.250000 95.046 -122.8699
15.500000 95.113 -123.5245
15.750000 95.179 -124.1328
16.000000 95.244 -124.6975
16.250000 95.311 -125.2368
16.500000 95.380 -125.7605
16.750000 95.451 -126.2806
17.000000 95.525 -126.8057
17.250000 95.600 -127.3381
17.500000 95.675 -127.8792
17.750000 95.748 -128.4266
18.000000 95.819 -128.9793
18.250000 95.888 -129.5370
18.500000 95.955 -130.0972
18.750000 96.021 -130.6586
19.000000 96.085 -131.2201
19.250000 96.147 -131.7802
19.500000 96.207 -132.3343
19.750000 96.266 -132.8786
20.000000 96.322 -133.4070
20.299999 96.388 -134.0203
20.600000 96.454 -134.6135
20.900000 96.521 -135.1935
21.200001 96.588 -135.7706
21.400000 96.632 -136.1586
21.799999 96.719 -136.9450
22.000000 96.761 -137.3424
22.400000 96.841 -138.1376
22.700001 96.897 -138.7238
23.000000 96.951 -139.2952
23.299999 97.003 -139.8542
23.600000 97.055 -140.4062
24.000000 97.123 -141.1395
24.299999 97.172 -141.6889
24.700001 97.233 -142.4130
25.000000 97.275 -142.9403
25.400000 97.330 -143.6141
25.799999 97.386 -144.2620
26.200001 97.445 -144.9099
26.500000 97.489 -145.4118
26.900000 97.546 -146.1069
27.200001 97.584 -146.6373
27.600000 97.627 -147.3304
28.000000 97.666 -147.9803
28.500000 97.716 -148.7296
29.000000 97.774 -149.4619
29.500000 97.836 -150.2337
30.000000 97.891 -151.0477
30.400000 97.927 -151.6972
30.700001 97.949 -152.1668
31.100000 97.977 -152.7622
31.500000 98.005 -153.3305
32.000000 98.043 -154.0238
32.500000 98.081 -154.7112
33.000000 98.118 -155.3880
33.500000 98.154 -156.0511
34.000000 98.194 -156.7159
34.500000 98.235 -157.4053
35.000000 98.273 -158.1210
35.500000 98.303 -158.8345
36.000000 98.328 -159.5139
36.500000 98.352 -160.1541
37.000000 98.379 -160.7770
37.500000 98.405 -161.4019
38.200001 98.440 -162.2711
38.700001 98.463 -162.8741
39.500000 98.500 -163.8362
40.000000 98.519 -164.4524
40.599998 98.535 -165.1812
41.200001 98.546 -165.8618
41.799999 98.559 -166.5119
42.500000 98.578 -167.2994
43.099998 98.590 -168.0121
43.700001 98.596 -168.7179
44.400002 98.601 -169.5011
45.000000 98.609 -170.1596
45.500000 98.618 -170.7195
46.200001 98.630 -171.5125
46.799999 98.641 -172.1800
47.500000 98.656 -172.9463
48.200001 98.669 -173.6998
48.700001 98.675 -174.2104
49.400002 98.682 -174.8786
50.000000 98.687 -175.4389
50.799999 98.682 -176.1751
51.500000 98.667 -176.7656
52.200001 98.648 -177.3144
53.000000 98.628 -177.9425
53.799999 98.612 -178.6692
54.500000 98.585 -179.4624
55.200001 98.527 179.7826
56.000000 98.468 179.2664
57.000000 98.501 178.6656
58.000000 98.571 177.4703
59.000000 98.596 176.0226
60.000000 98.546 174.7250
60.799999 98.479 174.2198
61.500000 98.460 174.0522
62.200001 98.472 173.7772
63.000000 98.473 173.2855
64.000000 98.451 172.6553
65.000000 98.419 171.9407
66.000000 98.367 171.1928
67.000000 98.316 170.5096
68.000000 98.280 169.8091
69.000000 98.248 169.0587
70.000000 98.213 168.3167
71.000000 98.173 167.6197
72.000000 98.127 166.9806
73.000000 98.079 166.3967
74.000000 98.033 165.7985
75.000000 97.984 165.1646
76.199997 97.922 164.4033
77.500000 97.857 163.5905
78.800003 97.793 162.8120
80.000000 97.733 162.1486
81.199997 97.676 161.5146
82.500000 97.610 160.7982
83.800003 97.537 160.0760
85.000000 97.467 159.4059
86.199997 97.398 158.7547
87.500000 97.326 158.0791
88.500000 97.272 157.5798
90.000000 97.189 156.8763
91.199997 97.121 156.3310
92.500000 97.044 155.7411
93.800003 96.964 155.1363
95.000000 96.883 154.5752
96.199997 96.798 154.0598
97.500000 96.709 153.5468
98.800003 96.623 153.0442
100.000000 96.543 152.5883
101.500000 96.440 152.0289
103.000000 96.338 151.4578
104.400002 96.243 150.9294
106.000000 96.136 150.3275
107.500000 96.028 149.8220
109.000000 95.920 149.4297
110.599998 95.806 149.0205
112.000000 95.701 148.6325
113.800003 95.571 148.1199
115.000000 95.489 147.7488
117.199997 95.338 147.1939
118.000000 95.285 147.0824
120.599998 95.137 146.7262
122.000000 95.029 146.3525
124.099998 94.827 145.8419
125.000000 94.743 145.6348
126.500000 94.614 145.3018
128.000000 94.501 144.9946
131.500000 94.259 144.5040
132.000000 94.224 144.4457
134.000000 94.074 144.1913
136.000000 93.908 143.9540
138.000000 93.748 143.8291
140.000000 93.603 143.7236
143.000000 93.378 143.5885
145.000000 93.231 143.5941
147.500000 93.050 143.5740
150.000000 92.857 143.6165
152.500000 92.663 143.7330
155.000000 92.478 143.8498
157.500000 92.302 144.0509
160.000000 92.145 144.3065
162.500000 91.972 144.5695
165.000000 91.790 144.9253
167.500000 91.624 145.3216
170.000000 91.479 145.7367
172.500000 91.323 146.2030
175.000000 91.149 146.6212
177.500000 90.979 146.7799
180.000000 90.816 146.9127
182.500000 90.689 147.6729
185.000000 90.611 148.7379
187.500000 90.511 149.6269
190.000000 90.376 150.2953
192.500000 90.242 150.9127
195.000000 90.130 151.5955
197.500000 90.038 152.3226
200.000000 89.956 153.0169
203.000000 89.865 153.8520
206.000000 89.777 154.7039
209.000000 89.688 155.5747
212.000000 89.613 156.4219
214.000000 89.569 156.9717
218.000000 89.487 158.1043
220.000000 89.452 158.6105
224.000000 89.401 159.4656
227.000000 89.370 160.1186
230.000000 89.339 160.8023
233.000000 89.302 161.5588
236.000000 89.269 162.4568
240.000000 89.241 163.4119
243.000000 89.223 163.8756
247.000000 89.195 164.6573
250.000000 89.167 165.3799
254.000000 89.154 166.2301
258.000000 89.160 166.9743
262.000000 89.148 167.7005
265.000000 89.140 168.1674
269.000000 89.123 168.7914
272.000000 89.108 169.2874
276.000000 89.094 169.8420
280.000000 89.094 170.3119
285.000000 89.115 170.9810
290.000000 89.135 171.6501
295.000000 89.130 172.1908
300.000000 89.117 172.5791
304.000000 89.119 173.1318
307.000000 89.127 173.6179
311.000000 89.131 174.1375
315.000000 89.129 174.5562
320.000000 89.118 175.0011
325.000000 89.113 175.4263
330.000000 89.118 175.8970
335.000000 89.124 176.3698
340.000000 89.123 176.8522
345.000000 89.120 177.3228
350.000000 89.113 177.7538
355.000000 89.103 178.2185
360.000000 89.097 178.7149
365.000000 89.084 179.0662
370.000000 89.065 179.3535
375.000000 89.057 179.7433
382.000000 89.046 -179.6242
387.000000 89.028 -179.1929
395.000000 88.992 -178.5586
400.000000 88.976 -178.1797
406.000000 88.959 -177.7024
412.000000 88.940 -177.2736
418.000000 88.920 -176.9155
425.000000 88.903 -176.3105
431.000000 88.888 -175.6522
437.000000 88.873 -175.1035
444.000000 88.858 -174.5449
450.000000 88.838 -174.0363
455.000000 88.821 -173.6371
462.000000 88.804 -173.1024
468.000000 88.786 -172.6116
475.000000 88.762 -171.9855
482.000000 88.743 -171.3580
487.000000 88.736 -170.9108
494.000000 88.729 -170.2540
500.000000 88.722 -169.7213
508.000000 88.716 -169.0461
515.000000 88.707 -168.4221
522.000000 88.694 -167.7755
530.000000 88.686 -167.0016
538.000000 88.681 -166.1519
545.000000 88.678 -165.4825
552.000000 88.680 -164.9143
560.000000 88.685 -164.1939
570.000000 88.693 -163.2570
580.000000 88.701 -162.3234
590.000000 88.710 -161.3801
600.000000 88.730 -160.3576
608.000000 88.753 -159.5603
615.000000 88.770 -158.8932
622.000000 88.784 -158.2145
630.000000 88.805 -157.4191
640.000000 88.844 -156.4111
650.000000 88.888 -155.4006
660.000000 88.948 -154.3931
670.000000 89.007 -153.5318
680.000000 89.060 -152.7555
690.000000 89.121 -151.9855
700.000000 89.188 -151.2341
710.000000 89.255 -150.4945
720.000000 89.321 -149.7920
730.000000 89.388 -149.0992
740.000000 89.457 -148.4293
750.000000 89.527 -147.8000
762.000000 89.610 -147.1044
775.000000 89.691 -146.4523
788.000000 89.769 -145.7721
800.000000 89.845 -145.0915
812.000000 89.914 -144.4885
825.000000 89.982 -143.8559
838.000000 90.049 -143.1315
850.000000 90.108 -142.4939
862.000000 90.166 -141.9098
875.000000 90.229 -141.2560
885.000000 90.276 -140.7281
900.000000 90.347 -139.8887
912.000000 90.411 -139.2812
925.000000 90.485 -138.6577
938.000000 90.558 -138.0218
950.000000 90.625 -137.4278
962.000000 90.694 -136.8426
975.000000 90.770 -136.2129
988.000000 90.846 -135.6071
1000.000000 90.917 -135.0603
1015.000000 91.011 -134.3920
1030.000000 91.104 -133.7738
1044.000000 91.189 -133.2389
1060.000000 91.285 -132.6579
1075.000000 91.376 -132.1570
1090.000000 91.468 -131.6560
1106.000000 91.570 -131.0874
1120.000000 91.660 -130.6411
1138.000000 91.775 -130.0790
1150.000000 91.853 -129.7053
1172.000000 92.000 -129.0522
1180.000000 92.053 -128.8233
1206.000000 92.222 -128.0827
1220.000000 92.310 -127.7058
1241.000000 92.450 -127.1424
1250.000000 92.511 -126.9032
1265.000000 92.612 -126.5196
1280.000000 92.711 -126.1447
1315.000000 92.936 -125.2609
1320.000000 92.967 -125.1397
1340.000000 93.086 -124.6835
1360.000000 93.187 -124.2375
1380.000000 93.283 -123.7930
1400.000000 93.390 -123.3368
1430.000000 93.555 -122.6395
1450.000000 93.665 -122.1719
1475.000000 93.804 -121.5728
1500.000000 93.941 -120.9950
1525.000000 94.076 -120.4172
1550.000000 94.210 -119.8333
1575.000000 94.342 -119.2612
1600.000000 94.472 -118.6940
1625.000000 94.604 -118.1332
1650.000000 94.741 -117.5942
1675.000000 94.880 -117.0544
1700.000000 95.022 -116.5109
1725.000000 95.165 -115.9834
1750.000000 95.306 -115.4756
1775.000000 95.450 -115.0121
1800.000000 95.596 -114.5691
1825.000000 95.742 -114.1235
1850.000000 95.890 -113.6874
1875.000000 96.039 -113.2734
1900.000000 96.189 -112.8874
1925.000000 96.341 -112.5315
1950.000000 96.495 -112.2146
1975.000000 96.650 -111.9345
2000.000000 96.807 -111.6825
2030.000000 96.993 -111.4142
2060.000000 97.177 -111.1985
2090.000000 97.363 -111.0397
2120.000000 97.552 -110.9291
2140.000000 97.677 -110.8807
2180.000000 97.918 -110.8413
2200.000000 98.036 -110.8567
2240.000000 98.267 -110.9671
2270.000000 98.435 -111.1161
2300.000000 98.600 -111.3151
2330.000000 98.761 -111.5724
2360.000000 98.917 -111.8856
2400.000000 99.114 -112.3654
2430.000000 99.253 -112.7688
2470.000000 99.424 -113.3685
2500.000000 99.543 -113.8483
2540.000000 99.690 -114.5346
2580.000000 99.821 -115.2844
2620.000000 99.931 -116.0645
2650.000000 100.002 -116.6486
2690.000000 100.083 -117.4210
2720.000000 100.132 -117.9936
2760.000000 100.181 -118.7272
2800.000000 100.216 -119.4065
2850.000000 100.248 -120.1788
2900.000000 100.272 -120.9004
2950.000000 100.287 -121.6270
3000.000000 100.281 -122.3464
3040.000000 100.257 -122.8841
3070.000000 100.233 -123.2504
3110.000000 100.193 -123.6714
3150.000000 100.147 -124.0183
3200.000000 100.086 -124.3742
3250.000000 100.018 -124.6537
3300.000000 99.946 -124.8391
3350.000000 99.873 -124.9199
3400.000000 99.802 -124.8951
3450.000000 99.737 -124.7840
3500.000000 99.681 -124.6087
3550.000000 99.632 -124.4008
3600.000000 99.586 -124.1623
3650.000000 99.540 -123.8798
3700.000000 99.496 -123.5730
3750.000000 99.456 -123.2375
3820.000000 99.405 -122.6980
3870.000000 99.374 -122.2797
3950.000000 99.330 -121.5647
4000.000000 99.308 -121.0973
4060.000000 99.291 -120.5354
4120.000000 99.284 -119.9855
4180.000000 99.288 -119.4718
4250.000000 99.303 -118.9729
4310.000000 99.311 -118.6310
4370.000000 99.310 -118.3519
4440.000000 99.300 -118.0670
4500.000000 99.292 -117.8402
4550.000000 99.287 -117.6824
4620.000000 99.283 -117.5307
4680.000000 99.279 -117.4759
4750.000000 99.268 -117.4993
4820.000000 99.249 -117.6067
4870.000000 99.229 -117.7317
4940.000000 99.190 -117.9697
5000.000000 99.147 -118.2249
5080.000000 99.073 -118.6372
5150.000000 98.989 -119.0493
5220.000000 98.885 -119.4808
5300.000000 98.740 -119.9655
5380.000000 98.570 -120.3971
5450.000000 98.400 -120.6953
5520.000000 98.218 -120.8938
5600.000000 97.997 -120.9677
5700.000000 97.704 -120.8118
5800.000000 97.405 -120.3991
5900.000000 97.111 -119.7154
6000.000000 96.828 -118.7503
6080.000000 96.615 -117.8076
6150.000000 96.442 -116.8645
6220.000000 96.284 -115.8247
6300.000000 96.122 -114.5517
6400.000000 95.953 -112.8471
6500.000000 95.824 -111.0135
6600.000000 95.737 -109.0779
6700.000000 95.697 -107.1068
6800.000000 95.714 -105.1352
6900.000000 95.806 -103.2262
7000.000000 95.977 -101.4318
7100.000000 96.212 -99.8028
7200.000000 96.507 -98.4205
7300.000000 96.858 -97.4031
7400.000000 97.258 -96.8743
7500.000000 97.694 -96.9691
7620.000000 98.252 -98.1022
7750.000000 98.833 -100.7812
7880.000000 99.217 -105.0109
8000.000000 99.326 -110.0496
8120.000000 99.161 -115.5975
8250.000000 98.659 -121.2970
8380.000000 97.870 -125.8287
8500.000000 96.968 -128.5521
8620.000000 95.974 -129.8125
8750.000000 94.864 -129.6848
8850.000000 94.022 -128.6895
9000.000000 92.817 -126.0210
9120.000000 91.921 -123.0708
9250.000000 91.027 -119.2409
9380.000000 90.211 -114.9183
9500.000000 89.527 -110.6059
9620.000000 88.910 -106.0426
9750.000000 88.315 -100.8647
9880.000000 87.796 -95.5024
10000.000000 87.378 -90.4933
10150.000000 86.933 -84.1977
10300.000000 86.571 -77.8728
10440.000000 86.306 -72.0424
10600.000000 86.084 -65.5322
10750.000000 85.950 -59.6795
10900.000000 85.879 -54.2317
11060.000000 85.856 -49.0156
11200.000000 85.842 -45.0305
11380.000000 85.751 -40.6149
11500.000000 85.606 -37.7540
11720.000000 85.194 -31.2186
11800.000000 85.049 -28.1506
12060.000000 84.990 -15.9320
12200.000000 85.370 -8.8859
12410.000000 86.531 0.5229
12500.000000 87.242 3.7444
12650.000000 88.698 7.4397
12800.000000 90.416 8.0707
13150.000000 93.784 -9.7466
13200.000000 93.978 -14.4278
13400.000000 93.774 -33.3655
13600.000000 92.388 -46.5814
13800.000000 90.552 -52.4103
14000.000000 88.814 -52.8693
14300.000000 86.833 -48.1687
14500.000000 85.914 -43.2025
14750.000000 85.119 -35.8284
15000.000000 84.657 -27.5760
15250.000000 84.517 -18.7433
15500.000000 84.767 -9.8355
15750.000000 85.447 -1.6055
16000.000000 86.527 4.8734
16250.000000 87.925 7.6559
16500.000000 89.256 3.8570
16750.000000 89.784 -7.5762
17000.000000 88.910 -21.5046
17250.000000 86.714 -29.9663
17500.000000 83.846 -31.4443
17750.000000 81.059 -40.5715
18000.000000 78.772 -134.0654
18250.000000 76.574 -93.1149
18500.000000 73.972 141.8389
18750.000000 71.234 7.3615
19000.000000 68.219 -28.1715
19250.000000 65.243 93.1147
19500.000000 63.293 -29.5640
19750.000000 62.830 138.6626
20000.000000 63.436 45.0474
20300.000000 64.727 -56.3975
20600.000000 66.100 -67.1821
20900.000000 67.365 89.7778
21200.000000 68.422 112.8926
21400.000000 69.061 38.6582
21800.000000 70.470 19.6475
22000.000000 71.288 -17.1685
22400.000000 72.410 171.3350
22700.000000 71.615 158.5742
23000.000000 69.480 24.3730
23300.000000 67.862 89.7773
23600.000000 67.496 95.1875
24000.000000 67.605 115.1953
