* Measurement data measured by REW V5.20.13
* Source: Headset (DS by VECLAN.COM), MICROPHONE (Master Volume), L, volume: 0.720. Timing signal peak level -18.8 dBFS, measurement signal peak level -14.7 dBFS
* Format: 4M Log Swept Sine, 1 sweep at -12.0 dBFS using an acoustic timing reference
* Dated: Dec 12, 2023 12:12:38 PM
* REW Settings:
*  C-weighting compensation: Off
*  Target level: 75.0 dB
* Note: ; Apple + Abigail Delay -0.0640 ms (-22 mm, -0.86 in) using estimated IR delay relative to Acoustic reference played from  L with no timing offset Clock adjustment: -0.2 ppm
* Measurement: Truthear Hola L
* Smoothing: 1/24 octave
* Frequency Step: 1/48 octave
* Start Frequency: 1.000 Hz
*
* Freq(Hz) SPL(dB) Phase(degrees)
1.000000 73.406 -23.6659
1.015000 74.064 -24.9080
1.030000 74.695 -26.0959
1.044000 75.252 -27.1508
1.060000 75.847 -28.2873
1.075000 76.358 -29.2802
1.090000 76.819 -30.1974
1.106000 77.252 -31.0863
1.120000 77.605 -31.7857
1.138000 78.032 -32.5842
1.150000 78.300 -33.0582
1.172000 78.761 -33.8167
1.180000 78.919 -34.0600
1.206000 79.399 -34.7447
1.220000 79.639 -35.0539
1.241000 79.976 -35.4524
1.250000 80.112 -35.6025
1.265000 80.330 -35.8297
1.280000 80.538 -36.0332
1.315000 80.986 -36.4479
1.320000 81.046 -36.5034
1.340000 81.281 -36.7245
1.360000 81.506 -36.9544
1.380000 81.724 -37.2067
1.400000 81.938 -37.4949
1.430000 82.256 -38.0244
1.450000 82.471 -38.4620
1.475000 82.743 -39.1203
1.500000 82.996 -39.8467
1.525000 83.228 -40.6185
1.550000 83.440 -41.4273
1.575000 83.634 -42.2651
1.600000 83.813 -43.1234
1.625000 83.978 -43.9940
1.650000 84.133 -44.8688
1.675000 84.279 -45.7394
1.700000 84.418 -46.5976
1.725000 84.553 -47.4352
1.750000 84.687 -48.2438
1.775000 84.820 -49.0153
1.800000 84.955 -49.7413
1.825000 85.096 -50.4137
1.850000 85.238 -51.0291
1.875000 85.375 -51.5978
1.900000 85.507 -52.1256
1.925000 85.634 -52.6182
1.950000 85.756 -53.0809
1.975000 85.875 -53.5194
2.000000 85.991 -53.9390
2.030000 86.127 -54.4255
2.060000 86.261 -54.9023
2.090000 86.394 -55.3789
2.120000 86.527 -55.8649
2.140000 86.617 -56.1988
2.180000 86.798 -56.9029
2.200000 86.891 -57.2787
2.240000 87.079 -58.0537
2.270000 87.220 -58.6451
2.300000 87.362 -59.2434
2.330000 87.503 -59.8474
2.360000 87.643 -60.4554
2.400000 87.829 -61.2701
2.430000 87.967 -61.8823
2.470000 88.149 -62.6973
2.500000 88.284 -63.3057
2.540000 88.460 -64.1105
2.580000 88.633 -64.9065
2.620000 88.803 -65.7044
2.650000 88.929 -66.3046
2.690000 89.094 -67.1050
2.720000 89.217 -67.7038
2.760000 89.378 -68.4982
2.800000 89.536 -69.2853
2.850000 89.731 -70.2548
2.900000 89.921 -71.2033
2.950000 90.107 -72.1250
3.000000 90.289 -73.0156
3.040000 90.431 -73.7101
3.070000 90.536 -74.2230
3.110000 90.674 -74.8995
3.150000 90.809 -75.5715
3.200000 90.975 -76.4111
3.250000 91.137 -77.2578
3.300000 91.296 -78.1195
3.350000 91.452 -79.0021
3.400000 91.604 -79.8999
3.450000 91.752 -80.8038
3.500000 91.896 -81.7048
3.550000 92.038 -82.5940
3.600000 92.176 -83.4624
3.650000 92.312 -84.3009
3.700000 92.445 -85.1029
3.750000 92.575 -85.8737
3.820000 92.751 -86.9141
3.870000 92.874 -87.6394
3.950000 93.064 -88.7890
4.000000 93.180 -89.5119
4.060000 93.316 -90.3946
4.120000 93.448 -91.2896
4.180000 93.576 -92.1873
4.250000 93.720 -93.2255
4.310000 93.841 -94.0968
4.370000 93.959 -94.9411
4.440000 94.094 -95.8822
4.500000 94.206 -96.6557
4.550000 94.297 -97.2824
4.620000 94.422 -98.1406
4.680000 94.526 -98.8659
4.750000 94.647 -99.7100
4.820000 94.765 -100.5551
4.870000 94.848 -101.1539
4.940000 94.962 -101.9844
5.000000 95.058 -102.6879
5.080000 95.183 -103.6123
5.150000 95.289 -104.4069
5.220000 95.393 -105.1873
5.300000 95.509 -106.0638
5.380000 95.622 -106.9266
5.450000 95.718 -107.6726
5.520000 95.811 -108.4117
5.600000 95.915 -109.2461
5.700000 96.039 -110.2731
5.800000 96.160 -111.2836
5.900000 96.276 -112.2782
6.000000 96.389 -113.2554
6.080000 96.476 -114.0256
6.150000 96.550 -114.6925
6.220000 96.622 -115.3537
6.300000 96.702 -116.1023
6.400000 96.798 -117.0263
6.500000 96.890 -117.9379
6.600000 96.977 -118.8378
6.700000 97.058 -119.7301
6.800000 97.135 -120.6118
6.900000 97.208 -121.4745
7.000000 97.277 -122.3111
7.100000 97.341 -123.1243
7.200000 97.402 -123.9158
7.300000 97.459 -124.6857
7.400000 97.515 -125.4337
7.500000 97.567 -126.1596
7.620000 97.627 -127.0035
7.750000 97.690 -127.8863
7.880000 97.750 -128.7334
8.000000 97.804 -129.4907
8.120000 97.856 -130.2306
8.250000 97.912 -131.0084
8.380000 97.966 -131.7673
8.500000 98.016 -132.4554
8.620000 98.064 -133.1283
8.750000 98.115 -133.8470
8.850000 98.154 -134.3961
9.000000 98.212 -135.2087
9.120000 98.258 -135.8561
9.250000 98.307 -136.5596
9.380000 98.356 -137.2627
9.500000 98.397 -137.9134
9.620000 98.434 -138.5682
9.750000 98.470 -139.2807
9.880000 98.498 -139.9900
10.000000 98.513 -140.6433
10.150000 98.520 -141.4552
10.300000 98.517 -142.2399
10.440000 98.503 -142.9473
10.600000 98.482 -143.7263
10.750000 98.462 -144.4227
10.900000 98.440 -145.0905
11.060000 98.418 -145.7833
11.200000 98.401 -146.3723
11.380000 98.380 -147.1064
11.500000 98.367 -147.5808
11.720000 98.344 -148.4246
11.800000 98.336 -148.7243
12.060000 98.316 -149.6739
12.200000 98.307 -150.1781
12.410000 98.297 -150.9211
12.500000 98.292 -151.2316
12.650000 98.283 -151.7397
12.800000 98.275 -152.2339
13.150000 98.257 -153.3255
13.200000 98.255 -153.4757
13.400000 98.249 -154.0605
13.600000 98.247 -154.6301
13.800000 98.248 -155.1865
14.000000 98.252 -155.7446
14.300000 98.260 -156.5911
14.500000 98.264 -157.1667
14.750000 98.266 -157.8912
15.000000 98.265 -158.6164
15.250000 98.261 -159.3294
15.500000 98.254 -160.0102
15.750000 98.243 -160.6483
16.000000 98.230 -161.2330
16.250000 98.217 -161.7750
16.500000 98.207 -162.2836
16.750000 98.201 -162.7732
17.000000 98.199 -163.2623
17.250000 98.200 -163.7590
17.500000 98.202 -164.2721
17.750000 98.200 -164.8016
18.000000 98.194 -165.3402
18.250000 98.182 -165.8801
18.500000 98.166 -166.3959
18.750000 98.147 -166.8753
19.000000 98.127 -167.3070
19.250000 98.113 -167.6932
19.500000 98.105 -168.0519
19.750000 98.105 -168.3988
20.000000 98.113 -168.7693
20.299999 98.131 -169.2786
20.600000 98.149 -169.8798
20.900000 98.160 -170.5719
21.200001 98.156 -171.3208
21.400000 98.142 -171.8159
21.799999 98.093 -172.7275
22.000000 98.061 -173.1142
22.400000 97.995 -173.7193
22.700001 97.953 -174.0477
23.000000 97.926 -174.3168
23.299999 97.911 -174.5781
23.600000 97.907 -174.8639
24.000000 97.908 -175.3051
24.299999 97.909 -175.6714
24.700001 97.907 -176.1777
25.000000 97.904 -176.5547
25.400000 97.900 -177.0490
25.799999 97.896 -177.5435
26.200001 97.891 -178.0473
26.500000 97.884 -178.4281
26.900000 97.869 -178.9282
27.200001 97.856 -179.2887
27.600000 97.834 -179.7449
28.000000 97.811 179.8225
28.500000 97.782 179.3036
29.000000 97.751 178.8060
29.500000 97.720 178.3339
30.000000 97.688 177.8835
30.400000 97.662 177.5301
30.700001 97.642 177.2650
31.100000 97.617 176.9084
31.500000 97.591 176.5479
32.000000 97.559 176.0958
32.500000 97.526 175.6509
33.000000 97.491 175.2229
33.500000 97.457 174.8143
34.000000 97.426 174.4144
34.500000 97.400 174.0063
35.000000 97.373 173.5871
35.500000 97.344 173.1747
36.000000 97.314 172.7951
36.500000 97.283 172.4551
37.000000 97.256 172.1302
37.500000 97.231 171.7940
38.200001 97.194 171.3056
38.700001 97.164 170.9635
39.500000 97.111 170.4425
40.000000 97.078 170.1326
40.599998 97.038 169.7762
41.200001 96.999 169.4291
41.799999 96.961 169.0801
42.500000 96.918 168.6675
43.099998 96.880 168.3214
43.700001 96.844 167.9942
44.400002 96.807 167.6244
45.000000 96.776 167.2966
45.500000 96.747 167.0249
46.200001 96.705 166.6852
46.799999 96.672 166.4244
47.500000 96.635 166.0984
48.200001 96.590 165.7812
48.700001 96.557 165.5989
49.400002 96.518 165.3544
50.000000 96.485 165.0873
50.799999 96.427 164.7392
51.500000 96.381 164.5103
52.200001 96.345 164.2217
53.000000 96.289 163.8423
53.799999 96.231 163.6394
54.500000 96.210 163.4527
55.200001 96.186 163.0728
56.000000 96.122 162.6508
57.000000 96.038 162.4620
58.000000 95.985 162.3261
59.000000 95.937 162.0854
60.000000 95.875 161.7402
60.799999 95.811 161.5007
61.500000 95.762 161.3607
62.200001 95.722 161.1959
63.000000 95.676 160.9500
64.000000 95.620 160.6707
65.000000 95.575 160.3797
66.000000 95.530 160.0976
67.000000 95.488 159.8613
68.000000 95.441 159.6311
69.000000 95.389 159.4599
70.000000 95.333 159.2361
71.000000 95.254 159.0631
72.000000 95.187 159.0166
73.000000 95.138 158.8680
74.000000 95.080 158.6695
75.000000 95.026 158.5433
76.199997 94.978 158.3504
77.500000 94.922 158.0811
78.800003 94.854 157.8224
80.000000 94.778 157.6525
81.199997 94.705 157.5633
82.500000 94.633 157.4556
83.800003 94.569 157.3642
85.000000 94.524 157.2491
86.199997 94.477 157.0950
87.500000 94.420 156.9783
88.500000 94.376 156.9155
90.000000 94.304 156.8598
91.199997 94.251 156.8430
92.500000 94.197 156.7687
93.800003 94.138 156.6508
95.000000 94.075 156.5461
96.199997 94.008 156.5132
97.500000 93.946 156.5377
98.800003 93.893 156.5363
100.000000 93.845 156.4984
101.500000 93.784 156.4440
103.000000 93.730 156.3963
104.400002 93.681 156.3177
106.000000 93.616 156.2240
107.500000 93.551 156.1766
109.000000 93.484 156.1686
110.599998 93.414 156.2029
112.000000 93.354 156.2443
113.800003 93.276 156.2971
115.000000 93.224 156.3275
117.199997 93.136 156.3457
118.000000 93.107 156.3476
120.599998 93.022 156.3509
122.000000 92.976 156.3709
124.099998 92.905 156.4395
125.000000 92.874 156.4667
126.500000 92.820 156.5065
128.000000 92.770 156.5456
131.500000 92.666 156.6841
132.000000 92.652 156.7099
134.000000 92.597 156.8094
136.000000 92.540 156.9063
138.000000 92.485 156.9975
140.000000 92.430 157.0720
143.000000 92.354 157.2084
145.000000 92.306 157.3126
147.500000 92.247 157.4448
150.000000 92.187 157.5964
152.500000 92.120 157.7565
155.000000 92.050 157.9102
157.500000 91.992 158.0651
160.000000 91.942 158.2063
162.500000 91.890 158.3938
165.000000 91.834 158.5916
167.500000 91.776 158.7568
170.000000 91.719 158.9054
172.500000 91.664 159.0609
175.000000 91.610 159.2339
177.500000 91.557 159.4303
180.000000 91.508 159.6192
182.500000 91.458 159.7968
185.000000 91.409 159.9719
187.500000 91.361 160.1413
190.000000 91.313 160.3134
192.500000 91.265 160.5077
195.000000 91.220 160.7148
197.500000 91.176 160.9308
200.000000 91.134 161.1451
203.000000 91.087 161.3764
206.000000 91.040 161.5774
209.000000 90.989 161.7833
212.000000 90.944 162.0390
214.000000 90.917 162.2272
218.000000 90.863 162.5785
220.000000 90.836 162.7346
224.000000 90.782 163.0200
227.000000 90.745 163.2213
230.000000 90.704 163.4606
233.000000 90.664 163.7480
236.000000 90.627 164.0329
240.000000 90.580 164.3620
243.000000 90.543 164.5923
247.000000 90.496 164.9116
250.000000 90.465 165.1508
254.000000 90.427 165.4748
258.000000 90.389 165.7826
262.000000 90.348 166.0867
265.000000 90.317 166.3239
269.000000 90.278 166.6444
272.000000 90.252 166.8875
276.000000 90.221 167.2026
280.000000 90.191 167.5128
285.000000 90.151 167.8951
290.000000 90.112 168.2891
295.000000 90.075 168.6805
300.000000 90.039 169.0901
304.000000 90.010 169.4099
307.000000 89.992 169.6239
311.000000 89.972 169.9062
315.000000 89.956 170.2043
320.000000 89.935 170.5814
325.000000 89.910 170.9353
330.000000 89.885 171.2896
335.000000 89.861 171.6524
340.000000 89.837 172.0174
345.000000 89.813 172.3901
350.000000 89.790 172.7507
355.000000 89.768 173.1082
360.000000 89.745 173.4742
365.000000 89.725 173.8350
370.000000 89.705 174.1806
375.000000 89.687 174.5161
382.000000 89.661 175.0004
387.000000 89.641 175.3569
395.000000 89.608 175.8956
400.000000 89.590 176.2131
406.000000 89.570 176.6203
412.000000 89.551 177.0448
418.000000 89.533 177.4591
425.000000 89.513 177.9240
431.000000 89.495 178.3202
437.000000 89.480 178.7101
444.000000 89.463 179.1588
450.000000 89.446 179.5432
455.000000 89.432 179.8663
462.000000 89.414 -179.6847
468.000000 89.399 -179.2953
475.000000 89.385 -178.8463
482.000000 89.373 -178.4108
487.000000 89.367 -178.1003
494.000000 89.357 -177.6609
500.000000 89.349 -177.2812
508.000000 89.341 -176.7795
515.000000 89.334 -176.3426
522.000000 89.328 -175.8993
530.000000 89.323 -175.3912
538.000000 89.320 -174.8993
545.000000 89.319 -174.4627
552.000000 89.319 -174.0179
560.000000 89.323 -173.5217
570.000000 89.329 -172.9344
580.000000 89.328 -172.3126
590.000000 89.323 -171.6844
600.000000 89.319 -171.0794
608.000000 89.316 -170.5930
615.000000 89.318 -170.1571
622.000000 89.322 -169.7126
630.000000 89.326 -169.2121
640.000000 89.330 -168.6075
650.000000 89.336 -167.9951
660.000000 89.343 -167.3736
670.000000 89.352 -166.7665
680.000000 89.364 -166.1714
690.000000 89.378 -165.5668
700.000000 89.389 -164.9531
710.000000 89.406 -164.3291
720.000000 89.428 -163.7277
730.000000 89.450 -163.1430
740.000000 89.471 -162.5352
750.000000 89.495 -161.9339
762.000000 89.526 -161.2228
775.000000 89.559 -160.4423
788.000000 89.597 -159.6638
800.000000 89.643 -158.9707
812.000000 89.694 -158.2902
825.000000 89.745 -157.5405
838.000000 89.790 -156.7875
850.000000 89.835 -156.1249
862.000000 89.885 -155.4813
875.000000 89.939 -154.7928
885.000000 89.982 -154.2875
900.000000 90.057 -153.5372
912.000000 90.134 -152.9689
925.000000 90.223 -152.3941
938.000000 90.305 -151.8189
950.000000 90.374 -151.3094
962.000000 90.442 -150.8197
975.000000 90.514 -150.2890
988.000000 90.590 -149.7747
1000.000000 90.661 -149.3376
1015.000000 90.741 -148.8663
1030.000000 90.822 -148.4344
1044.000000 90.902 -148.0434
1060.000000 90.994 -147.6149
1075.000000 91.074 -147.2355
1090.000000 91.149 -146.8934
1106.000000 91.229 -146.5352
1120.000000 91.310 -146.2421
1138.000000 91.432 -145.9438
1150.000000 91.515 -145.7478
1172.000000 91.657 -145.3788
1180.000000 91.705 -145.2537
1206.000000 91.858 -144.8871
1220.000000 91.938 -144.7164
1241.000000 92.052 -144.4580
1250.000000 92.099 -144.3448
1265.000000 92.177 -144.1635
1280.000000 92.256 -143.9897
1315.000000 92.445 -143.6237
1320.000000 92.469 -143.5706
1340.000000 92.557 -143.3503
1360.000000 92.633 -143.1383
1380.000000 92.715 -142.9376
1400.000000 92.809 -142.7520
1430.000000 92.931 -142.4595
1450.000000 93.004 -142.2545
1475.000000 93.111 -142.0316
1500.000000 93.228 -141.8277
1525.000000 93.328 -141.6082
1550.000000 93.414 -141.3990
1575.000000 93.502 -141.2043
1600.000000 93.589 -141.0206
1625.000000 93.670 -140.8359
1650.000000 93.752 -140.6482
1675.000000 93.835 -140.4596
1700.000000 93.921 -140.2813
1725.000000 94.005 -140.1025
1750.000000 94.085 -139.9159
1775.000000 94.163 -139.7255
1800.000000 94.242 -139.5374
1825.000000 94.318 -139.3434
1850.000000 94.400 -139.1828
1875.000000 94.485 -139.0432
1900.000000 94.565 -138.9230
1925.000000 94.643 -138.8241
1950.000000 94.723 -138.7348
1975.000000 94.805 -138.6386
2000.000000 94.886 -138.5438
2030.000000 94.976 -138.4599
2060.000000 95.072 -138.4030
2090.000000 95.173 -138.3715
2120.000000 95.270 -138.3750
2140.000000 95.333 -138.3915
2180.000000 95.450 -138.4420
2200.000000 95.505 -138.4769
2240.000000 95.610 -138.5518
2270.000000 95.689 -138.6256
2300.000000 95.765 -138.7152
2330.000000 95.837 -138.8212
2360.000000 95.903 -138.9403
2400.000000 95.978 -139.1017
2430.000000 96.025 -139.2163
2470.000000 96.094 -139.3927
2500.000000 96.154 -139.5463
2540.000000 96.225 -139.7471
2580.000000 96.284 -139.9354
2620.000000 96.338 -140.1049
2650.000000 96.375 -140.2102
2690.000000 96.415 -140.2827
2720.000000 96.437 -140.2654
2760.000000 96.467 -140.1391
2800.000000 96.518 -139.9076
2850.000000 96.636 -139.5983
2900.000000 96.812 -139.5627
2950.000000 96.992 -140.0210
3000.000000 97.129 -140.8606
3040.000000 97.201 -141.6651
3070.000000 97.233 -142.2685
3110.000000 97.255 -143.0194
3150.000000 97.264 -143.7051
3200.000000 97.264 -144.4798
3250.000000 97.253 -145.1845
3300.000000 97.216 -145.8175
3350.000000 97.161 -146.4010
3400.000000 97.114 -146.9624
3450.000000 97.083 -147.4953
3500.000000 97.055 -147.9785
3550.000000 97.019 -148.3957
3600.000000 96.975 -148.7400
3650.000000 96.924 -149.0128
3700.000000 96.870 -149.2192
3750.000000 96.821 -149.3588
3820.000000 96.764 -149.4892
3870.000000 96.733 -149.6110
3950.000000 96.682 -149.9318
4000.000000 96.642 -150.2107
4060.000000 96.585 -150.6019
4120.000000 96.511 -151.0061
4180.000000 96.422 -151.3851
4250.000000 96.300 -151.7708
4310.000000 96.181 -152.0442
4370.000000 96.047 -152.2460
4440.000000 95.878 -152.3853
4500.000000 95.728 -152.4281
4550.000000 95.602 -152.4107
4620.000000 95.426 -152.3101
4680.000000 95.277 -152.1695
4750.000000 95.106 -151.9538
4820.000000 94.936 -151.7027
4870.000000 94.813 -151.5055
4940.000000 94.638 -151.2107
5000.000000 94.485 -150.9253
5080.000000 94.280 -150.4588
5150.000000 94.098 -149.9912
5220.000000 93.916 -149.4735
5300.000000 93.711 -148.8102
5380.000000 93.507 -148.0617
5450.000000 93.331 -147.3364
5520.000000 93.155 -146.5518
5600.000000 92.955 -145.5775
5700.000000 92.714 -144.2233
5800.000000 92.493 -142.7236
5900.000000 92.293 -141.0984
6000.000000 92.114 -139.3581
6080.000000 91.991 -137.8829
6150.000000 91.901 -136.5426
6220.000000 91.825 -135.1712
6300.000000 91.756 -133.5888
6400.000000 91.701 -131.6262
6500.000000 91.688 -129.7240
6600.000000 91.708 -127.9230
6700.000000 91.755 -126.2571
6800.000000 91.837 -124.7434
6900.000000 91.967 -123.3871
7000.000000 92.138 -122.1957
7100.000000 92.332 -121.1671
7200.000000 92.550 -120.2994
7300.000000 92.789 -119.6219
7400.000000 93.061 -119.1996
7500.000000 93.376 -119.1268
7620.000000 93.830 -119.7503
7750.000000 94.381 -121.7969
7880.000000 94.805 -125.7805
8000.000000 94.964 -131.2548
8120.000000 94.803 -137.8964
8250.000000 94.201 -145.1326
8380.000000 93.197 -150.9761
8500.000000 92.012 -154.3533
8620.000000 90.692 -155.6445
8750.000000 89.218 -154.9093
8850.000000 88.109 -153.0352
9000.000000 86.537 -148.3301
9120.000000 85.394 -143.0641
9250.000000 84.319 -136.0063
9380.000000 83.484 -127.7651
9500.000000 83.009 -119.5256
9620.000000 82.875 -111.3759
9750.000000 83.088 -103.6632
9880.000000 83.530 -98.0449
10000.000000 83.956 -95.0251
10150.000000 84.309 -93.6047
10300.000000 84.358 -93.3799
10440.000000 84.155 -92.9935
10600.000000 83.730 -91.5517
10750.000000 83.256 -89.0834
10900.000000 82.787 -85.6849
11060.000000 82.335 -81.2812
11200.000000 81.997 -76.9630
11380.000000 81.652 -70.9841
11500.000000 81.479 -66.8177
11720.000000 81.279 -58.9529
11800.000000 81.244 -56.0424
12060.000000 81.268 -46.5564
12200.000000 81.363 -41.5061
12410.000000 81.617 -34.0435
12500.000000 81.771 -30.9069
12650.000000 82.096 -25.8027
12800.000000 82.515 -20.9067
13150.000000 83.913 -10.8113
13200.000000 84.166 -9.5953
13400.000000 85.330 -5.5923
13600.000000 86.730 -3.5021
13800.000000 88.297 -4.3548
14000.000000 89.802 -9.4319
14300.000000 91.155 -25.4090
14500.000000 91.071 -38.2706
14750.000000 89.968 -50.8864
15000.000000 88.354 -57.4201
15250.000000 86.812 -59.4512
15500.000000 85.615 -59.3763
15750.000000 84.771 -58.9443
16000.000000 84.121 -59.2303
16250.000000 83.492 -60.7880
16500.000000 82.705 -63.5536
16750.000000 81.622 -66.7201
17000.000000 80.215 -69.0805
17250.000000 78.558 -69.6513
17500.000000 76.774 -68.0649
17750.000000 74.961 -64.4512
18000.000000 73.198 -59.0767
18250.000000 71.529 -52.2539
18500.000000 69.933 -44.3859
18750.000000 68.464 -35.7586
19000.000000 67.132 -26.4987
19250.000000 65.904 -16.6828
19500.000000 64.745 -6.3731
19750.000000 63.679 4.3394
20000.000000 62.693 14.9870
20300.000000 61.458 27.1705
20600.000000 60.085 40.7743
20900.000000 58.993 57.6833
21200.000000 58.757 74.3623
21400.000000 58.914 83.0735
21800.000000 59.127 91.6479
22000.000000 59.022 80.0384
22400.000000 57.911 56.9211
22700.000000 55.163 162.3594
23000.000000 49.967 102.6270
23300.000000 43.865 -22.8281
23600.000000 40.817 173.5039
24000.000000 40.590 -177.0938
