* Measurement data measured by REW V5.20.13
* Source: Microphone (Realtek(R) Audio), MICROPHONE (Master Volume), L, volume: 0.670. Timing signal peak level -36.5 dBFS, measurement signal peak level -35.4 dBFS
* Format: 2M Log Swept Sine, 1 sweep at -12.0 dBFS using an acoustic timing reference
* Dated: Jul 10, 2023 8:33:51 AM
* REW Settings:
*  C-weighting compensation: Off
*  Target level: 75.0 dB
* Note: ; Delay -0.0524 ms (-18 mm, -0.71 in) using estimated IR delay relative to Acoustic reference played from HEADPHONE L with no timing offset Clock adjustment: 120.8 ppm
* Measurement: ZeroRed L
* Smoothing: 1/24 octave
* Frequency Step: 1/48 octave
* Start Frequency: 1.000 Hz
*
* Freq(Hz) SPL(dB) Phase(degrees)
1.000000 69.001 2.7613
1.015000 69.142 -0.5027
1.030000 69.288 -3.6086
1.044000 69.430 -6.3491
1.060000 69.601 -9.2753
1.075000 69.770 -11.8008
1.090000 69.950 -14.0975
1.106000 70.153 -16.2817
1.120000 70.337 -17.9972
1.138000 70.581 -19.9588
1.150000 70.748 -21.1232
1.172000 71.061 -22.9828
1.180000 71.177 -23.5766
1.206000 71.562 -25.2313
1.220000 71.774 -25.9636
1.241000 72.095 -26.8799
1.250000 72.233 -27.2125
1.265000 72.466 -27.6962
1.280000 72.700 -28.1016
1.315000 73.248 -28.8094
1.320000 73.326 -28.8897
1.340000 73.639 -29.1760
1.360000 73.949 -29.4275
1.380000 74.257 -29.6721
1.400000 74.561 -29.9376
1.430000 75.006 -30.4358
1.450000 75.294 -30.8751
1.475000 75.645 -31.5660
1.500000 75.996 -32.2058
1.525000 76.349 -32.7510
1.550000 76.702 -33.2149
1.575000 77.054 -33.6108
1.600000 77.403 -33.9522
1.625000 77.749 -34.2522
1.650000 78.089 -34.5243
1.675000 78.422 -34.7817
1.700000 78.747 -35.0378
1.725000 79.062 -35.3060
1.750000 79.366 -35.5995
1.775000 79.657 -35.9317
1.800000 79.934 -36.3160
1.825000 80.196 -36.7656
1.850000 80.442 -37.2821
1.875000 80.672 -37.8407
1.900000 80.888 -38.4347
1.925000 81.091 -39.0580
1.950000 81.282 -39.7049
1.975000 81.464 -40.3692
2.000000 81.636 -41.0452
2.030000 81.831 -41.8635
2.060000 82.018 -42.6799
2.090000 82.197 -43.4841
2.120000 82.371 -44.2659
2.140000 82.485 -44.7697
2.180000 82.712 -45.7218
2.200000 82.826 -46.1641
2.240000 83.043 -46.9936
2.270000 83.194 -47.5787
2.300000 83.337 -48.1379
2.330000 83.473 -48.6763
2.360000 83.603 -49.1994
2.400000 83.769 -49.8817
2.430000 83.891 -50.3891
2.470000 84.051 -51.0697
2.500000 84.171 -51.5900
2.540000 84.334 -52.3068
2.580000 84.502 -53.0599
2.620000 84.670 -53.8414
2.650000 84.796 -54.4405
2.690000 84.963 -55.2508
2.720000 85.087 -55.8630
2.760000 85.251 -56.6796
2.800000 85.411 -57.4897
2.850000 85.607 -58.4822
2.900000 85.797 -59.4390
2.950000 85.980 -60.3480
3.000000 86.155 -61.2208
3.040000 86.290 -61.8985
3.070000 86.389 -62.3962
3.110000 86.519 -63.0478
3.150000 86.646 -63.6875
3.200000 86.801 -64.4740
3.250000 86.954 -65.2501
3.300000 87.107 -66.0201
3.350000 87.256 -66.7811
3.400000 87.403 -67.5289
3.450000 87.546 -68.2638
3.500000 87.687 -68.9861
3.550000 87.826 -69.6960
3.600000 87.962 -70.3938
3.650000 88.098 -71.0798
3.700000 88.232 -71.7532
3.750000 88.364 -72.4127
3.820000 88.545 -73.3145
3.870000 88.672 -73.9448
3.950000 88.873 -74.9324
4.000000 88.998 -75.5384
4.060000 89.146 -76.2538
4.120000 89.292 -76.9488
4.180000 89.436 -77.6273
4.250000 89.602 -78.4056
4.310000 89.743 -79.0679
4.370000 89.882 -79.7317
4.440000 90.044 -80.5115
4.500000 90.182 -81.1776
4.550000 90.295 -81.7309
4.620000 90.453 -82.5038
4.680000 90.586 -83.1652
4.750000 90.738 -83.9365
4.820000 90.889 -84.7067
4.870000 90.995 -85.2551
4.940000 91.141 -86.0218
5.000000 91.265 -86.6795
5.080000 91.425 -87.5596
5.150000 91.561 -88.3349
5.220000 91.694 -89.1175
5.300000 91.842 -90.0171
5.380000 91.985 -90.9163
5.450000 92.106 -91.6979
5.520000 92.223 -92.4713
5.600000 92.351 -93.3515
5.700000 92.504 -94.4441
5.800000 92.649 -95.5208
5.900000 92.787 -96.5752
6.000000 92.916 -97.6141
6.080000 93.014 -98.4309
6.150000 93.096 -99.1312
6.220000 93.176 -99.8150
6.300000 93.263 -100.5766
6.400000 93.365 -101.5029
6.500000 93.463 -102.3982
6.600000 93.556 -103.2600
6.700000 93.646 -104.0862
6.800000 93.731 -104.8791
6.900000 93.814 -105.6426
7.000000 93.896 -106.3797
7.100000 93.975 -107.0858
7.200000 94.053 -107.7654
7.300000 94.129 -108.4248
7.400000 94.205 -109.0663
7.500000 94.279 -109.6851
7.620000 94.368 -110.4070
7.750000 94.462 -111.1737
7.880000 94.556 -111.9199
8.000000 94.640 -112.5948
8.120000 94.723 -113.2618
8.250000 94.812 -113.9727
8.380000 94.899 -114.6733
8.500000 94.976 -115.3130
8.620000 95.052 -115.9452
8.750000 95.131 -116.6209
8.850000 95.191 -117.1338
9.000000 95.277 -117.8927
9.120000 95.344 -118.4892
9.250000 95.416 -119.1226
9.380000 95.487 -119.7435
9.500000 95.550 -120.3092
9.620000 95.610 -120.8693
9.750000 95.672 -121.4684
9.880000 95.727 -122.0625
10.000000 95.771 -122.6094
10.150000 95.816 -123.2875
10.300000 95.855 -123.9506
10.440000 95.882 -124.5541
10.600000 95.910 -125.2318
10.750000 95.937 -125.8566
10.900000 95.964 -126.4731
11.060000 95.992 -127.1363
11.200000 96.018 -127.7217
11.380000 96.050 -128.4699
11.500000 96.071 -128.9648
11.720000 96.107 -129.8613
11.800000 96.120 -130.1821
12.060000 96.163 -131.2087
12.200000 96.187 -131.7549
12.410000 96.223 -132.5619
12.500000 96.238 -132.8994
12.650000 96.261 -133.4516
12.800000 96.285 -133.9902
13.150000 96.338 -135.1908
13.200000 96.346 -135.3576
13.400000 96.380 -136.0119
13.600000 96.415 -136.6533
13.800000 96.453 -137.2835
14.000000 96.491 -137.9117
14.300000 96.547 -138.8515
14.500000 96.581 -139.4738
14.750000 96.622 -140.2370
15.000000 96.661 -140.9797
15.250000 96.701 -141.6983
15.500000 96.741 -142.3899
15.750000 96.781 -143.0565
16.000000 96.822 -143.7071
16.250000 96.862 -144.3596
16.500000 96.901 -145.0194
16.750000 96.938 -145.6907
17.000000 96.971 -146.3633
17.250000 97.000 -147.0276
17.500000 97.024 -147.6704
17.750000 97.044 -148.2799
18.000000 97.062 -148.8584
18.250000 97.081 -149.4088
18.500000 97.101 -149.9462
18.750000 97.124 -150.4812
19.000000 97.149 -151.0241
19.250000 97.173 -151.5827
19.500000 97.195 -152.1505
19.750000 97.214 -152.7221
20.000000 97.230 -153.2828
20.299999 97.245 -153.9318
20.600000 97.259 -154.5495
20.900000 97.273 -155.1386
21.200001 97.289 -155.7099
21.400000 97.302 -156.0890
21.799999 97.328 -156.8537
22.000000 97.341 -157.2436
22.400000 97.366 -158.0403
22.700001 97.382 -158.6447
23.000000 97.393 -159.2433
23.299999 97.400 -159.8228
23.600000 97.403 -160.3712
24.000000 97.405 -161.0395
24.299999 97.408 -161.4931
24.700001 97.418 -162.0520
25.000000 97.429 -162.4588
25.400000 97.449 -163.0124
25.799999 97.469 -163.5941
26.200001 97.485 -164.1977
26.500000 97.494 -164.6536
26.900000 97.502 -165.2528
27.200001 97.505 -165.6906
27.600000 97.507 -166.2572
28.000000 97.508 -166.8078
28.500000 97.512 -167.4916
29.000000 97.518 -168.2105
29.500000 97.519 -168.9917
30.000000 97.503 -169.7923
30.400000 97.475 -170.3725
30.700001 97.451 -170.7383
31.100000 97.424 -171.1296
31.500000 97.413 -171.4577
32.000000 97.422 -171.8986
32.500000 97.441 -172.4661
33.000000 97.450 -173.1311
33.500000 97.441 -173.7865
34.000000 97.426 -174.3586
34.500000 97.414 -174.8621
35.000000 97.407 -175.3467
35.500000 97.401 -175.8359
36.000000 97.392 -176.3208
36.500000 97.381 -176.7958
37.000000 97.370 -177.2725
37.500000 97.356 -177.7608
38.200001 97.331 -178.4471
38.700001 97.309 -178.9199
39.500000 97.276 -179.6412
40.000000 97.257 179.9203
40.599998 97.238 179.3978
41.200001 97.219 178.8695
41.799999 97.200 178.3343
42.500000 97.172 177.7274
43.099998 97.145 177.2443
43.700001 97.118 176.7906
44.400002 97.084 176.2936
45.000000 97.055 175.9058
45.500000 97.036 175.5980
46.200001 97.016 175.1299
46.799999 97.001 174.6592
47.500000 96.975 174.0757
48.200001 96.943 173.5357
48.700001 96.921 173.1916
49.400002 96.896 172.7473
50.000000 96.877 172.3914
50.799999 96.850 171.9900
51.500000 96.830 171.7181
52.200001 96.815 171.4319
53.000000 96.781 171.0224
53.799999 96.717 170.6281
54.500000 96.645 170.2941
55.200001 96.549 169.9359
56.000000 96.409 169.7641
57.000000 96.321 169.9598
58.000000 96.359 169.2623
59.000000 96.282 167.7794
60.000000 96.140 167.2080
60.799999 96.134 167.1422
61.500000 96.182 166.7946
62.200001 96.211 166.1843
63.000000 96.195 165.5252
64.000000 96.140 165.0591
65.000000 96.089 164.8117
66.000000 96.037 164.5334
67.000000 95.971 164.1872
68.000000 95.897 163.8210
69.000000 95.827 163.4458
70.000000 95.766 163.0268
71.000000 95.707 162.6146
72.000000 95.652 162.2707
73.000000 95.602 161.9512
74.000000 95.545 161.6380
75.000000 95.480 161.3641
76.199997 95.401 161.0607
77.500000 95.316 160.6891
78.800003 95.231 160.3141
80.000000 95.163 159.9875
81.199997 95.101 159.6293
82.500000 95.023 159.2615
83.800003 94.939 159.0154
85.000000 94.867 158.8246
86.199997 94.795 158.6071
87.500000 94.710 158.3481
88.500000 94.640 158.1624
90.000000 94.537 157.9169
91.199997 94.459 157.7592
92.500000 94.387 157.5997
93.800003 94.320 157.3990
95.000000 94.251 157.2035
96.199997 94.172 157.0703
97.500000 94.089 157.0006
98.800003 94.010 156.8986
100.000000 93.931 156.7662
101.500000 93.829 156.6069
103.000000 93.734 156.4671
104.400002 93.649 156.3423
106.000000 93.552 156.2408
107.500000 93.459 156.1625
109.000000 93.360 156.0847
110.599998 93.247 156.0621
112.000000 93.150 156.1194
113.800003 93.040 156.2839
115.000000 92.971 156.3293
117.199997 92.815 156.2274
118.000000 92.749 156.1620
120.599998 92.532 156.2473
122.000000 92.477 156.4811
124.099998 92.434 156.6289
125.000000 92.407 156.6709
126.500000 92.341 156.7957
128.000000 92.260 156.9742
131.500000 92.069 157.3917
132.000000 92.044 157.4512
134.000000 91.954 157.7513
136.000000 91.876 158.0625
138.000000 91.789 158.3704
140.000000 91.699 158.6806
143.000000 91.571 159.1620
145.000000 91.494 159.5219
147.500000 91.392 159.9858
150.000000 91.293 160.4703
152.500000 91.221 160.9390
155.000000 91.148 161.4299
157.500000 91.059 162.1160
160.000000 90.970 162.7430
162.500000 90.887 163.1772
165.000000 90.828 163.5865
167.500000 90.785 164.1094
170.000000 90.727 164.7614
172.500000 90.655 165.4833
175.000000 90.599 165.9656
177.500000 90.568 166.0873
180.000000 90.533 166.1776
182.500000 90.484 166.8765
185.000000 90.458 167.8664
187.500000 90.427 168.6426
190.000000 90.397 169.2477
192.500000 90.377 169.8200
195.000000 90.359 170.4310
197.500000 90.344 171.0085
200.000000 90.338 171.4978
203.000000 90.334 172.0427
206.000000 90.321 172.6275
209.000000 90.309 173.2280
212.000000 90.311 173.7869
214.000000 90.316 174.1466
218.000000 90.325 174.8990
220.000000 90.332 175.2526
224.000000 90.344 175.8669
227.000000 90.344 176.3040
230.000000 90.347 176.6827
233.000000 90.362 177.0338
236.000000 90.377 177.3647
240.000000 90.375 177.7472
243.000000 90.394 178.1155
247.000000 90.440 178.6432
250.000000 90.460 179.0195
254.000000 90.490 179.4567
258.000000 90.514 179.8951
262.000000 90.531 -179.7015
265.000000 90.543 -179.4226
269.000000 90.559 -179.1111
272.000000 90.581 -178.9148
276.000000 90.627 -178.6039
280.000000 90.674 -178.3028
285.000000 90.701 -177.9824
290.000000 90.720 -177.7019
295.000000 90.752 -177.3940
300.000000 90.784 -176.9845
304.000000 90.811 -176.7979
307.000000 90.830 -176.7235
311.000000 90.850 -176.5943
315.000000 90.868 -176.4526
320.000000 90.886 -176.2843
325.000000 90.904 -176.0603
330.000000 90.924 -175.8570
335.000000 90.942 -175.7144
340.000000 90.957 -175.6034
345.000000 90.969 -175.4551
350.000000 90.975 -175.2382
355.000000 90.979 -175.0148
360.000000 90.985 -174.8325
365.000000 91.000 -174.6914
370.000000 91.014 -174.5813
375.000000 91.021 -174.4455
382.000000 91.028 -174.2050
387.000000 91.026 -174.0493
395.000000 91.017 -173.7913
400.000000 91.013 -173.5997
406.000000 91.003 -173.3681
412.000000 90.989 -173.1594
418.000000 90.974 -173.0510
425.000000 90.968 -172.8927
431.000000 90.977 -172.6743
437.000000 90.983 -172.4776
444.000000 90.974 -172.2350
450.000000 90.958 -172.0328
455.000000 90.950 -171.8670
462.000000 90.948 -171.6151
468.000000 90.941 -171.3839
475.000000 90.933 -171.0994
482.000000 90.926 -170.8023
487.000000 90.918 -170.6133
494.000000 90.902 -170.3752
500.000000 90.889 -170.1696
508.000000 90.878 -169.8652
515.000000 90.872 -169.5705
522.000000 90.864 -169.2865
530.000000 90.855 -168.9677
538.000000 90.842 -168.6774
545.000000 90.833 -168.3542
552.000000 90.829 -167.9692
560.000000 90.822 -167.5791
570.000000 90.818 -167.1236
580.000000 90.813 -166.7291
590.000000 90.802 -166.3198
600.000000 90.789 -165.8288
608.000000 90.781 -165.4124
615.000000 90.775 -165.0764
622.000000 90.769 -164.7530
630.000000 90.763 -164.3571
640.000000 90.749 -163.8628
650.000000 90.739 -163.3793
660.000000 90.737 -162.8476
670.000000 90.725 -162.3321
680.000000 90.711 -161.7848
690.000000 90.702 -161.2145
700.000000 90.700 -160.6592
710.000000 90.705 -160.0995
720.000000 90.710 -159.5242
730.000000 90.709 -158.9693
740.000000 90.713 -158.4119
750.000000 90.717 -157.8344
762.000000 90.727 -157.1294
775.000000 90.748 -156.3857
788.000000 90.764 -155.6690
800.000000 90.775 -154.9462
812.000000 90.789 -154.1960
825.000000 90.814 -153.3963
838.000000 90.846 -152.6030
850.000000 90.877 -151.9062
862.000000 90.908 -151.2253
875.000000 90.949 -150.4733
885.000000 90.987 -149.9319
900.000000 91.053 -149.1502
912.000000 91.096 -148.4670
925.000000 91.139 -147.7241
938.000000 91.191 -147.0299
950.000000 91.244 -146.4204
962.000000 91.299 -145.8150
975.000000 91.359 -145.1777
988.000000 91.421 -144.5803
1000.000000 91.480 -144.0521
1015.000000 91.556 -143.4051
1030.000000 91.637 -142.8210
1044.000000 91.712 -142.3253
1060.000000 91.790 -141.7740
1075.000000 91.865 -141.2910
1090.000000 91.948 -140.8411
1106.000000 92.046 -140.3737
1120.000000 92.135 -139.9813
1138.000000 92.251 -139.5355
1150.000000 92.324 -139.2493
1172.000000 92.444 -138.6989
1180.000000 92.488 -138.4984
1206.000000 92.634 -137.8769
1220.000000 92.709 -137.5961
1241.000000 92.819 -137.1715
1250.000000 92.868 -136.9826
1265.000000 92.950 -136.6672
1280.000000 93.032 -136.3436
1315.000000 93.219 -135.5662
1320.000000 93.245 -135.4542
1340.000000 93.342 -134.9857
1360.000000 93.426 -134.5101
1380.000000 93.518 -134.0348
1400.000000 93.623 -133.5708
1430.000000 93.792 -132.9797
1450.000000 93.911 -132.6387
1475.000000 94.069 -132.2555
1500.000000 94.225 -131.9483
1525.000000 94.367 -131.7212
1550.000000 94.494 -131.5494
1575.000000 94.615 -131.4295
1600.000000 94.725 -131.3299
1625.000000 94.824 -131.2190
1650.000000 94.914 -131.1023
1675.000000 94.997 -130.9941
1700.000000 95.078 -130.8715
1725.000000 95.158 -130.6976
1750.000000 95.235 -130.4928
1775.000000 95.307 -130.2947
1800.000000 95.377 -130.0751
1825.000000 95.447 -129.8348
1850.000000 95.519 -129.5865
1875.000000 95.593 -129.3446
1900.000000 95.669 -129.1102
1925.000000 95.745 -128.8604
1950.000000 95.820 -128.5921
1975.000000 95.895 -128.3285
2000.000000 95.973 -128.0728
2030.000000 96.069 -127.7718
2060.000000 96.167 -127.4841
2090.000000 96.266 -127.2163
2120.000000 96.368 -126.9839
2140.000000 96.435 -126.8377
2180.000000 96.570 -126.5565
2200.000000 96.636 -126.4294
2240.000000 96.767 -126.2089
2270.000000 96.865 -126.0868
2300.000000 96.963 -125.9776
2330.000000 97.061 -125.8712
2360.000000 97.158 -125.8035
2400.000000 97.284 -125.7701
2430.000000 97.379 -125.7651
2470.000000 97.501 -125.7820
2500.000000 97.589 -125.8219
2540.000000 97.705 -125.9228
2580.000000 97.814 -126.0716
2620.000000 97.918 -126.2442
2650.000000 97.995 -126.3905
2690.000000 98.093 -126.6237
2720.000000 98.162 -126.8274
2760.000000 98.246 -127.1216
2800.000000 98.323 -127.4400
2850.000000 98.410 -127.9031
2900.000000 98.484 -128.4092
2950.000000 98.544 -128.9428
3000.000000 98.593 -129.4933
3040.000000 98.625 -129.9617
3070.000000 98.643 -130.3223
3110.000000 98.657 -130.8086
3150.000000 98.658 -131.3235
3200.000000 98.637 -131.9709
3250.000000 98.592 -132.5156
3300.000000 98.537 -132.9218
3350.000000 98.480 -133.2263
3400.000000 98.424 -133.4453
3450.000000 98.379 -133.5817
3500.000000 98.352 -133.6819
3550.000000 98.337 -133.8368
3600.000000 98.322 -134.0975
3650.000000 98.295 -134.4520
3700.000000 98.252 -134.8511
3750.000000 98.190 -135.2387
3820.000000 98.081 -135.6954
3870.000000 97.990 -135.9632
3950.000000 97.826 -136.2926
4000.000000 97.713 -136.4236
4060.000000 97.573 -136.5261
4120.000000 97.428 -136.5815
4180.000000 97.278 -136.5792
4250.000000 97.097 -136.5017
4310.000000 96.934 -136.3833
4370.000000 96.761 -136.2101
4440.000000 96.551 -135.9382
4500.000000 96.367 -135.6288
4550.000000 96.213 -135.3243
4620.000000 95.997 -134.8487
4680.000000 95.813 -134.4061
4750.000000 95.592 -133.8595
4820.000000 95.357 -133.2369
4870.000000 95.180 -132.6926
4940.000000 94.933 -131.7414
5000.000000 94.734 -130.7490
5080.000000 94.499 -129.2640
5150.000000 94.322 -127.9107
5220.000000 94.166 -126.5680
5300.000000 94.002 -125.0729
5380.000000 93.853 -123.5997
5450.000000 93.734 -122.3099
5520.000000 93.623 -121.0046
5600.000000 93.509 -119.4944
5700.000000 93.385 -117.5956
5800.000000 93.280 -115.6957
5900.000000 93.198 -113.7634
6000.000000 93.138 -111.8087
6080.000000 93.108 -110.2385
6150.000000 93.098 -108.8616
6220.000000 93.103 -107.4920
6300.000000 93.126 -105.9575
6400.000000 93.184 -104.0876
6500.000000 93.275 -102.2812
6600.000000 93.400 -100.5664
6700.000000 93.557 -98.9787
6800.000000 93.754 -97.5453
6900.000000 94.004 -96.3256
7000.000000 94.306 -95.3465
7100.000000 94.640 -94.6229
7200.000000 95.000 -94.1985
7300.000000 95.385 -94.1288
7400.000000 95.789 -94.4899
7500.000000 96.208 -95.3644
7620.000000 96.734 -97.2319
7750.000000 97.290 -100.5194
7880.000000 97.666 -105.3899
8000.000000 97.775 -111.2612
8120.000000 97.580 -117.9885
8250.000000 96.964 -125.1386
8380.000000 95.951 -130.7604
8500.000000 94.773 -133.7752
8620.000000 93.499 -134.6010
8750.000000 92.131 -133.4097
8850.000000 91.140 -131.3598
9000.000000 89.804 -127.0113
9120.000000 88.869 -122.8005
9250.000000 87.980 -117.7713
9380.000000 87.204 -112.4163
9500.000000 86.573 -107.2942
9620.000000 86.017 -102.0781
9750.000000 85.497 -96.3670
9880.000000 85.057 -90.6045
10000.000000 84.709 -85.2739
10150.000000 84.344 -78.6988
10300.000000 84.056 -72.2140
10440.000000 83.852 -66.2623
10600.000000 83.693 -59.6590
10750.000000 83.617 -53.7511
10900.000000 83.605 -48.2314
11060.000000 83.646 -42.9205
11200.000000 83.699 -38.8267
11380.000000 83.720 -34.2081
11500.000000 83.675 -31.3381
11720.000000 83.470 -25.6294
11800.000000 83.380 -23.1544
12060.000000 83.297 -13.1256
12200.000000 83.528 -6.9199
12410.000000 84.380 2.1530
12500.000000 84.941 5.5645
12650.000000 86.133 10.1029
12800.000000 87.615 12.5611
13150.000000 91.344 4.1359
13200.000000 91.747 0.7787
13400.000000 92.550 -16.7075
13600.000000 91.918 -34.0843
13800.000000 90.293 -44.3391
14000.000000 88.437 -47.2575
14300.000000 86.204 -43.8690
14500.000000 85.185 -39.2044
14750.000000 84.324 -32.1427
15000.000000 83.822 -24.2882
15250.000000 83.652 -16.0767
15500.000000 83.843 -7.9290
15750.000000 84.420 -0.4927
16000.000000 85.366 5.1514
16250.000000 86.585 7.0551
16500.000000 87.697 2.5366
16750.000000 88.016 -9.2079
17000.000000 87.005 -23.4253
17250.000000 84.710 -35.2635
17500.000000 81.694 -67.0183
17750.000000 78.635 121.6594
18000.000000 75.998 12.8846
18250.000000 73.471 -24.4510
18500.000000 70.332 105.4922
18750.000000 66.957 -168.7981
19000.000000 63.826 -87.5352
19250.000000 61.586 162.4092
19500.000000 61.061 -7.0425
19750.000000 61.893 -115.8164
20000.000000 63.054 25.5327
20300.000000 64.058 -162.7529
20600.000000 64.819 3.3545
20900.000000 65.494 -14.1118
21200.000000 66.177 1.0220
21400.000000 66.710 13.5908
21800.000000 68.180 25.9229
22000.000000 69.104 -26.9609
22400.000000 70.423 145.7188
22700.000000 69.692 -5.1865
23000.000000 67.783 94.0879
23300.000000 66.435 -171.9492
23600.000000 66.035 -166.7695
24000.000000 66.095 -11.1953
