* Measurement data measured by REW V5.20.13
* Source: Headset (DS by VECLAN.COM), MICROPHONE (Master Volume), L, volume: 0.720. Timing signal peak level -16.6 dBFS, measurement signal peak level -15.0 dBFS
* Format: 4M Log Swept Sine, 1 sweep at -12.0 dBFS using an acoustic timing reference
* Dated: Dec 12, 2023 1:26:25 PM
* REW Settings:
*  C-weighting compensation: Off
*  Target level: 75.0 dB
* Note: ; Apple + Abigail Delay -0.0637 ms (-22 mm, -0.86 in) using estimated IR delay relative to Acoustic reference played from  R with no timing offset Clock adjustment: -0.1 ppm
* Measurement: Truthear Hola W1 R
* Smoothing: 1/24 octave
* Frequency Step: 1/48 octave
* Start Frequency: 1.000 Hz
*
* Freq(Hz) SPL(dB) Phase(degrees)
1.000000 65.803 -117.7272
1.015000 65.747 -116.1999
1.030000 65.708 -114.6124
1.044000 65.688 -113.0764
1.060000 65.687 -111.2572
1.075000 65.709 -109.4899
1.090000 65.756 -107.6632
1.106000 65.833 -105.6330
1.120000 65.921 -103.7007
1.138000 66.059 -100.9973
1.150000 66.165 -99.0712
1.172000 66.389 -95.3147
1.180000 66.478 -93.8847
1.206000 66.798 -89.0421
1.220000 66.986 -86.3331
1.241000 67.287 -82.1734
1.250000 67.422 -80.3651
1.265000 67.655 -77.3304
1.280000 67.895 -74.2841
1.315000 68.480 -67.2248
1.320000 68.566 -66.2309
1.340000 68.912 -62.3166
1.360000 69.261 -58.5298
1.380000 69.612 -54.9099
1.400000 69.959 -51.4966
1.430000 70.471 -46.8500
1.450000 70.801 -44.1254
1.475000 71.199 -41.1832
1.500000 71.609 -38.5674
1.525000 72.036 -36.2128
1.550000 72.475 -34.1040
1.575000 72.924 -32.2257
1.600000 73.380 -30.5625
1.625000 73.839 -29.0990
1.650000 74.297 -27.8199
1.675000 74.752 -26.7097
1.700000 75.199 -25.7532
1.725000 75.636 -24.9349
1.750000 76.060 -24.2396
1.775000 76.467 -23.6517
1.800000 76.853 -23.1560
1.825000 77.216 -22.7371
1.850000 77.554 -22.4415
1.875000 77.876 -22.3937
1.900000 78.182 -22.5707
1.925000 78.474 -22.9432
1.950000 78.752 -23.4815
1.975000 79.019 -24.1562
2.000000 79.276 -24.9379
2.030000 79.572 -25.9756
2.060000 79.857 -27.0739
2.090000 80.134 -28.1819
2.120000 80.404 -29.2487
2.140000 80.582 -29.9118
2.180000 80.935 -31.0548
2.200000 81.112 -31.5052
2.240000 81.455 -32.2859
2.270000 81.702 -32.8229
2.300000 81.940 -33.3287
2.330000 82.170 -33.8123
2.360000 82.392 -34.2832
2.400000 82.680 -34.9070
2.430000 82.889 -35.3839
2.470000 83.160 -36.0494
2.500000 83.360 -36.5827
2.540000 83.621 -37.3569
2.580000 83.878 -38.2216
2.620000 84.127 -39.1696
2.650000 84.308 -39.9244
2.690000 84.541 -40.9760
2.720000 84.711 -41.7894
2.760000 84.932 -42.8938
2.800000 85.146 -44.0058
2.850000 85.405 -45.3811
2.900000 85.657 -46.7102
2.950000 85.901 -47.9678
3.000000 86.135 -49.1958
3.040000 86.315 -50.1655
3.070000 86.446 -50.8850
3.110000 86.616 -51.8335
3.150000 86.780 -52.7688
3.200000 86.980 -53.9185
3.250000 87.175 -55.0454
3.300000 87.364 -56.1481
3.350000 87.547 -57.2229
3.400000 87.723 -58.2704
3.450000 87.892 -59.2943
3.500000 88.055 -60.2986
3.550000 88.214 -61.2870
3.600000 88.368 -62.2634
3.650000 88.519 -63.2317
3.700000 88.667 -64.1973
3.750000 88.810 -65.1619
3.820000 89.002 -66.4976
3.870000 89.135 -67.4313
3.950000 89.342 -68.8701
4.000000 89.468 -69.7236
4.060000 89.618 -70.6895
4.120000 89.763 -71.5912
4.180000 89.904 -72.4420
4.250000 90.064 -73.3893
4.310000 90.200 -74.1786
4.370000 90.335 -74.9621
4.440000 90.492 -75.8792
4.500000 90.625 -76.6531
4.550000 90.735 -77.2871
4.620000 90.887 -78.1564
4.680000 91.017 -78.8828
4.750000 91.170 -79.7063
4.820000 91.323 -80.4946
4.870000 91.433 -81.0328
4.940000 91.587 -81.7641
5.000000 91.718 -82.3821
5.080000 91.892 -83.2128
5.150000 92.042 -83.9627
5.220000 92.191 -84.7258
5.300000 92.361 -85.6054
5.380000 92.529 -86.4903
5.450000 92.672 -87.2663
5.520000 92.812 -88.0423
5.600000 92.968 -88.9318
5.700000 93.158 -90.0473
5.800000 93.342 -91.1642
5.900000 93.516 -92.2810
6.000000 93.684 -93.4032
6.080000 93.812 -94.3004
6.150000 93.919 -95.0806
6.220000 94.023 -95.8528
6.300000 94.135 -96.7294
6.400000 94.268 -97.8205
6.500000 94.393 -98.8913
6.600000 94.510 -99.9259
6.700000 94.617 -100.9271
6.800000 94.717 -101.8981
6.900000 94.811 -102.8303
7.000000 94.900 -103.7160
7.100000 94.984 -104.5573
7.200000 95.063 -105.3572
7.300000 95.141 -106.1175
7.400000 95.219 -106.8352
7.500000 95.294 -107.5071
7.620000 95.384 -108.2733
7.750000 95.484 -109.0763
7.880000 95.584 -109.8385
8.000000 95.678 -110.5229
8.120000 95.771 -111.2068
8.250000 95.874 -111.9374
8.380000 95.977 -112.6666
8.500000 96.069 -113.3481
8.620000 96.160 -114.0342
8.750000 96.256 -114.7804
8.850000 96.328 -115.3560
9.000000 96.432 -116.2236
9.120000 96.512 -116.9171
9.250000 96.597 -117.6644
9.380000 96.679 -118.4093
9.500000 96.751 -119.0952
9.620000 96.819 -119.7790
9.750000 96.888 -120.5176
9.880000 96.950 -121.2562
10.000000 96.997 -121.9392
10.150000 97.047 -122.7931
10.300000 97.087 -123.6447
10.440000 97.114 -124.4366
10.600000 97.139 -125.3406
10.750000 97.160 -126.1893
10.900000 97.177 -127.0378
11.060000 97.190 -127.9424
11.200000 97.198 -128.7376
11.380000 97.202 -129.7303
11.500000 97.199 -130.3704
11.720000 97.188 -131.4833
11.800000 97.184 -131.8602
12.060000 97.166 -132.9938
12.200000 97.160 -133.5441
12.410000 97.156 -134.2968
12.500000 97.157 -134.5993
12.650000 97.163 -135.0694
12.800000 97.174 -135.5214
13.150000 97.225 -136.5571
13.200000 97.235 -136.7112
13.400000 97.280 -137.3441
13.600000 97.330 -138.0198
13.800000 97.383 -138.7475
14.000000 97.433 -139.5178
14.300000 97.497 -140.7404
14.500000 97.530 -141.5726
14.750000 97.560 -142.5971
15.000000 97.580 -143.5860
15.250000 97.595 -144.5162
15.500000 97.605 -145.3762
15.750000 97.613 -146.1615
16.000000 97.620 -146.8731
16.250000 97.629 -147.5289
16.500000 97.642 -148.1405
16.750000 97.660 -148.7240
17.000000 97.683 -149.2969
17.250000 97.709 -149.8682
17.500000 97.738 -150.4481
17.750000 97.765 -151.0436
18.000000 97.791 -151.6548
18.250000 97.813 -152.2818
18.500000 97.830 -152.9117
18.750000 97.844 -153.5361
19.000000 97.854 -154.1467
19.250000 97.862 -154.7376
19.500000 97.868 -155.3069
19.750000 97.873 -155.8529
20.000000 97.877 -156.3762
20.299999 97.884 -156.9808
20.600000 97.892 -157.5691
20.900000 97.902 -158.1529
21.200001 97.912 -158.7445
21.400000 97.919 -159.1464
21.799999 97.927 -159.9622
22.000000 97.928 -160.3695
22.400000 97.924 -161.1605
22.700001 97.917 -161.7138
23.000000 97.910 -162.2226
23.299999 97.907 -162.6957
23.600000 97.908 -163.1517
24.000000 97.918 -163.7677
24.299999 97.928 -164.2555
24.700001 97.938 -164.9405
25.000000 97.941 -165.4617
25.400000 97.938 -166.1333
25.799999 97.931 -166.7530
26.200001 97.926 -167.3256
26.500000 97.923 -167.7406
26.900000 97.922 -168.2937
27.200001 97.920 -168.7136
27.600000 97.914 -169.2743
28.000000 97.905 -169.8222
28.500000 97.891 -170.4769
29.000000 97.877 -171.1028
29.500000 97.864 -171.7135
30.000000 97.850 -172.3176
30.400000 97.836 -172.7962
30.700001 97.824 -173.1518
31.100000 97.808 -173.6215
31.500000 97.792 -174.0854
32.000000 97.772 -174.6526
32.500000 97.750 -175.2001
33.000000 97.729 -175.7297
33.500000 97.708 -176.2498
34.000000 97.688 -176.7670
34.500000 97.668 -177.2769
35.000000 97.647 -177.7694
35.500000 97.628 -178.2408
36.000000 97.610 -178.6955
36.500000 97.592 -179.1409
37.000000 97.572 -179.5845
37.500000 97.550 179.9750
38.200001 97.518 179.3819
38.700001 97.495 178.9766
39.500000 97.458 178.3377
40.000000 97.434 177.9448
40.599998 97.405 177.4868
41.200001 97.375 177.0404
41.799999 97.345 176.6022
42.500000 97.311 176.1101
43.099998 97.284 175.7051
43.700001 97.258 175.2997
44.400002 97.227 174.8163
45.000000 97.196 174.4099
45.500000 97.169 174.0934
46.200001 97.131 173.6843
46.799999 97.101 173.3464
47.500000 97.067 172.9481
48.200001 97.032 172.5507
48.700001 97.006 172.2733
49.400002 96.970 171.8936
50.000000 96.940 171.5712
50.799999 96.900 171.1435
51.500000 96.863 170.7806
52.200001 96.827 170.4382
53.000000 96.788 170.0619
53.799999 96.749 169.6870
54.500000 96.712 169.3660
55.200001 96.673 169.0569
56.000000 96.628 168.7159
57.000000 96.571 168.3065
58.000000 96.512 167.9034
59.000000 96.448 167.5308
60.000000 96.391 167.2153
60.799999 96.356 166.9419
61.500000 96.327 166.6765
62.200001 96.295 166.4105
63.000000 96.255 166.1203
64.000000 96.203 165.7843
65.000000 96.151 165.4812
66.000000 96.100 165.1907
67.000000 96.048 164.9081
68.000000 95.996 164.6320
69.000000 95.941 164.3523
70.000000 95.884 164.0956
71.000000 95.831 163.8694
72.000000 95.782 163.6347
73.000000 95.733 163.4019
74.000000 95.683 163.1883
75.000000 95.631 162.9863
76.199997 95.570 162.7556
77.500000 95.506 162.4972
78.800003 95.441 162.2413
80.000000 95.380 162.0257
81.199997 95.319 161.8345
82.500000 95.254 161.6431
83.800003 95.190 161.4583
85.000000 95.132 161.2918
86.199997 95.077 161.1239
87.500000 95.020 160.9514
88.500000 94.978 160.8190
90.000000 94.913 160.6326
91.199997 94.860 160.5143
92.500000 94.805 160.4007
93.800003 94.752 160.2834
95.000000 94.700 160.1731
96.199997 94.646 160.0792
97.500000 94.591 159.9974
98.800003 94.540 159.9172
100.000000 94.491 159.8317
101.500000 94.428 159.7155
103.000000 94.364 159.6174
104.400002 94.304 159.5414
106.000000 94.235 159.4574
107.500000 94.170 159.4037
109.000000 94.109 159.3729
110.599998 94.048 159.3281
112.000000 93.995 159.2864
113.800003 93.930 159.2482
115.000000 93.888 159.2184
117.199997 93.809 159.1670
118.000000 93.780 159.1591
120.599998 93.690 159.1561
122.000000 93.644 159.1612
124.099998 93.578 159.1483
125.000000 93.548 159.1364
126.500000 93.498 159.1339
128.000000 93.450 159.1505
131.500000 93.344 159.2192
132.000000 93.328 159.2374
134.000000 93.269 159.3246
136.000000 93.216 159.3917
138.000000 93.163 159.4172
140.000000 93.108 159.4298
143.000000 93.030 159.5340
145.000000 92.983 159.6226
147.500000 92.921 159.6956
150.000000 92.857 159.8015
152.500000 92.793 159.9350
155.000000 92.729 160.0608
157.500000 92.670 160.1742
160.000000 92.617 160.2567
162.500000 92.564 160.3817
165.000000 92.513 160.5414
167.500000 92.460 160.6857
170.000000 92.403 160.8188
172.500000 92.348 160.9551
175.000000 92.295 161.1042
177.500000 92.244 161.2748
180.000000 92.193 161.4327
182.500000 92.140 161.5826
185.000000 92.088 161.7276
187.500000 92.039 161.8690
190.000000 91.990 162.0370
192.500000 91.944 162.2127
195.000000 91.900 162.3822
197.500000 91.857 162.5551
200.000000 91.816 162.7314
203.000000 91.770 162.9354
206.000000 91.722 163.1180
209.000000 91.673 163.3021
212.000000 91.632 163.5328
214.000000 91.606 163.7048
218.000000 91.554 164.0070
220.000000 91.526 164.1371
224.000000 91.471 164.4006
227.000000 91.430 164.6110
230.000000 91.390 164.8349
233.000000 91.354 165.0774
236.000000 91.320 165.3216
240.000000 91.272 165.6157
243.000000 91.236 165.8209
247.000000 91.191 166.0963
250.000000 91.158 166.3103
254.000000 91.117 166.6060
258.000000 91.076 166.9129
262.000000 91.037 167.2221
265.000000 91.008 167.4446
269.000000 90.972 167.7335
272.000000 90.947 167.9531
276.000000 90.919 168.2541
280.000000 90.892 168.5523
285.000000 90.848 168.9163
290.000000 90.809 169.2838
295.000000 90.777 169.6620
300.000000 90.744 170.0510
304.000000 90.714 170.3490
307.000000 90.695 170.5497
311.000000 90.674 170.8103
315.000000 90.656 171.0830
320.000000 90.633 171.4245
325.000000 90.606 171.7650
330.000000 90.583 172.1067
335.000000 90.564 172.4521
340.000000 90.543 172.8073
345.000000 90.519 173.1532
350.000000 90.495 173.4890
355.000000 90.470 173.8448
360.000000 90.443 174.2182
365.000000 90.421 174.5633
370.000000 90.401 174.8934
375.000000 90.384 175.2258
382.000000 90.361 175.6929
387.000000 90.341 176.0262
395.000000 90.306 176.5489
400.000000 90.283 176.8694
406.000000 90.259 177.2814
412.000000 90.234 177.6760
418.000000 90.211 178.0635
425.000000 90.194 178.5354
431.000000 90.185 178.9153
437.000000 90.179 179.2690
444.000000 90.167 179.7045
450.000000 90.151 -179.8992
455.000000 90.139 -179.5830
462.000000 90.124 -179.1722
468.000000 90.112 -178.8016
475.000000 90.096 -178.3563
482.000000 90.081 -177.9303
487.000000 90.072 -177.6197
494.000000 90.060 -177.1799
500.000000 90.054 -176.8157
508.000000 90.047 -176.3416
515.000000 90.039 -175.9069
522.000000 90.033 -175.4647
530.000000 90.033 -174.9749
538.000000 90.041 -174.5122
545.000000 90.046 -174.1211
552.000000 90.045 -173.6901
560.000000 90.040 -173.1812
570.000000 90.034 -172.5968
580.000000 90.032 -172.0052
590.000000 90.034 -171.4150
600.000000 90.037 -170.8288
608.000000 90.038 -170.3629
615.000000 90.042 -169.9434
622.000000 90.046 -169.5109
630.000000 90.049 -169.0189
640.000000 90.054 -168.4266
650.000000 90.062 -167.8355
660.000000 90.072 -167.2341
670.000000 90.081 -166.6457
680.000000 90.092 -166.0633
690.000000 90.105 -165.4716
700.000000 90.120 -164.8791
710.000000 90.140 -164.2889
720.000000 90.162 -163.7043
730.000000 90.182 -163.1334
740.000000 90.198 -162.5480
750.000000 90.214 -161.9448
762.000000 90.240 -161.2460
775.000000 90.286 -160.4887
788.000000 90.348 -159.7828
800.000000 90.404 -159.1360
812.000000 90.446 -158.4598
825.000000 90.483 -157.7278
838.000000 90.524 -157.0301
850.000000 90.570 -156.3970
862.000000 90.619 -155.7530
875.000000 90.673 -155.0720
885.000000 90.714 -154.5642
900.000000 90.783 -153.8248
912.000000 90.847 -153.2434
925.000000 90.919 -152.6434
938.000000 90.989 -152.0754
950.000000 91.052 -151.5641
962.000000 91.113 -151.0654
975.000000 91.184 -150.5312
988.000000 91.263 -150.0193
1000.000000 91.339 -149.5852
1015.000000 91.425 -149.1210
1030.000000 91.514 -148.6988
1044.000000 91.598 -148.3172
1060.000000 91.689 -147.8975
1075.000000 91.768 -147.5254
1090.000000 91.851 -147.1959
1106.000000 91.951 -146.8722
1120.000000 92.044 -146.6169
1138.000000 92.163 -146.3260
1150.000000 92.238 -146.1354
1172.000000 92.370 -145.8108
1180.000000 92.417 -145.7005
1206.000000 92.568 -145.3841
1220.000000 92.650 -145.2423
1241.000000 92.771 -145.0360
1250.000000 92.822 -144.9434
1265.000000 92.904 -144.7948
1280.000000 92.983 -144.6497
1315.000000 93.156 -144.3292
1320.000000 93.179 -144.2872
1340.000000 93.266 -144.1186
1360.000000 93.332 -143.9371
1380.000000 93.397 -143.7590
1400.000000 93.479 -143.5966
1430.000000 93.608 -143.3469
1450.000000 93.690 -143.1755
1475.000000 93.787 -142.9547
1500.000000 93.882 -142.7403
1525.000000 93.980 -142.5338
1550.000000 94.076 -142.3404
1575.000000 94.165 -142.1532
1600.000000 94.246 -141.9736
1625.000000 94.322 -141.8036
1650.000000 94.402 -141.6367
1675.000000 94.486 -141.4798
1700.000000 94.565 -141.3319
1725.000000 94.640 -141.1976
1750.000000 94.710 -141.0702
1775.000000 94.782 -140.9452
1800.000000 94.861 -140.8399
1825.000000 94.939 -140.7476
1850.000000 95.015 -140.6696
1875.000000 95.086 -140.5884
1900.000000 95.153 -140.5100
1925.000000 95.217 -140.4369
1950.000000 95.281 -140.3707
1975.000000 95.345 -140.3019
2000.000000 95.406 -140.2404
2030.000000 95.465 -140.1770
2060.000000 95.520 -140.0814
2090.000000 95.576 -139.9433
2120.000000 95.630 -139.7554
2140.000000 95.665 -139.5948
2180.000000 95.748 -139.1791
2200.000000 95.798 -138.9297
2240.000000 95.924 -138.4053
2270.000000 96.047 -138.1015
2300.000000 96.185 -137.9827
2330.000000 96.322 -138.0700
2360.000000 96.447 -138.3200
2400.000000 96.583 -138.7803
2430.000000 96.664 -139.1462
2470.000000 96.754 -139.6198
2500.000000 96.810 -139.9482
2540.000000 96.874 -140.3598
2580.000000 96.931 -140.7412
2620.000000 96.982 -141.0962
2650.000000 97.017 -141.3517
2690.000000 97.060 -141.6809
2720.000000 97.088 -141.9225
2760.000000 97.120 -142.2457
2800.000000 97.146 -142.5645
2850.000000 97.174 -142.9404
2900.000000 97.195 -143.2843
2950.000000 97.209 -143.6054
3000.000000 97.222 -143.8979
3040.000000 97.231 -144.1511
3070.000000 97.235 -144.3522
3110.000000 97.238 -144.6212
3150.000000 97.236 -144.8917
3200.000000 97.222 -145.2298
3250.000000 97.196 -145.5438
3300.000000 97.161 -145.7936
3350.000000 97.122 -145.9670
3400.000000 97.085 -146.0850
3450.000000 97.054 -146.1756
3500.000000 97.028 -146.2628
3550.000000 97.000 -146.3458
3600.000000 96.961 -146.3920
3650.000000 96.917 -146.3768
3700.000000 96.878 -146.2949
3750.000000 96.854 -146.1549
3820.000000 96.846 -145.9397
3870.000000 96.847 -145.8400
3950.000000 96.843 -145.8212
4000.000000 96.836 -145.8861
4060.000000 96.825 -146.0208
4120.000000 96.805 -146.1947
4180.000000 96.776 -146.3990
4250.000000 96.728 -146.6624
4310.000000 96.673 -146.8989
4370.000000 96.602 -147.1245
4440.000000 96.503 -147.3592
4500.000000 96.407 -147.5343
4550.000000 96.321 -147.6549
4620.000000 96.192 -147.7711
4680.000000 96.076 -147.8245
4750.000000 95.932 -147.8303
4820.000000 95.781 -147.7746
4870.000000 95.667 -147.6953
4940.000000 95.502 -147.5453
5000.000000 95.357 -147.3802
5080.000000 95.160 -147.0768
5150.000000 94.980 -146.7469
5220.000000 94.794 -146.3586
5300.000000 94.583 -145.8310
5380.000000 94.379 -145.1941
5450.000000 94.206 -144.5409
5520.000000 94.039 -143.8111
5600.000000 93.853 -142.8953
5700.000000 93.629 -141.6154
5800.000000 93.417 -140.2029
5900.000000 93.222 -138.6910
6000.000000 93.046 -137.1099
6080.000000 92.922 -135.8042
6150.000000 92.826 -134.6334
6220.000000 92.742 -133.4407
6300.000000 92.658 -132.0562
6400.000000 92.573 -130.2964
6500.000000 92.514 -128.5227
6600.000000 92.483 -126.7565
6700.000000 92.479 -125.0536
6800.000000 92.507 -123.4607
6900.000000 92.582 -121.9802
7000.000000 92.702 -120.6197
7100.000000 92.854 -119.3797
7200.000000 93.036 -118.2732
7300.000000 93.252 -117.3661
7400.000000 93.492 -116.7137
7500.000000 93.759 -116.3809
7620.000000 94.141 -116.5873
7750.000000 94.595 -117.9119
7880.000000 94.927 -120.7207
8000.000000 95.047 -124.6158
8120.000000 94.930 -129.3485
8250.000000 94.487 -134.6090
8380.000000 93.732 -139.0721
8500.000000 92.813 -141.8894
8620.000000 91.741 -143.1822
8750.000000 90.474 -142.7781
8850.000000 89.471 -141.1970
9000.000000 87.983 -136.6992
9120.000000 86.858 -131.1383
9250.000000 85.802 -123.0191
9380.000000 85.090 -112.9378
9500.000000 84.927 -102.7891
9620.000000 85.303 -93.3566
9750.000000 86.141 -85.6972
9880.000000 87.091 -81.6036
10000.000000 87.815 -80.6433
10150.000000 88.351 -81.6074
10300.000000 88.483 -82.9298
10440.000000 88.362 -83.2885
10600.000000 88.097 -82.2742
10750.000000 87.839 -80.1165
10900.000000 87.634 -77.1088
11060.000000 87.509 -73.2653
11200.000000 87.491 -69.5578
11380.000000 87.610 -64.5605
11500.000000 87.783 -61.1952
11720.000000 88.319 -55.1608
11800.000000 88.594 -53.0726
12060.000000 89.853 -47.1264
12200.000000 90.817 -44.9031
12410.000000 92.706 -44.3965
12500.000000 93.639 -45.9902
12650.000000 95.156 -52.5329
12800.000000 96.243 -65.0026
13150.000000 95.211 -102.8097
13200.000000 94.662 -106.6457
13400.000000 91.986 -115.4242
13600.000000 89.235 -116.4068
13800.000000 86.909 -113.3381
14000.000000 85.068 -108.3693
14300.000000 83.003 -99.5262
14500.000000 81.947 -93.3948
14750.000000 80.841 -85.6265
15000.000000 79.925 -77.5363
15250.000000 79.260 -69.2863
15500.000000 78.904 -61.3936
15750.000000 78.829 -54.2924
16000.000000 78.952 -48.3152
16250.000000 79.207 -43.7898
16500.000000 79.524 -41.1334
16750.000000 79.799 -40.6328
17000.000000 79.902 -42.2056
17250.000000 79.714 -45.3139
17500.000000 79.175 -48.9751
17750.000000 78.292 -52.2140
18000.000000 77.117 -54.3571
18250.000000 75.718 -55.0245
18500.000000 74.163 -54.3451
18750.000000 72.475 -52.3934
19000.000000 70.667 -49.0046
19250.000000 68.740 -44.8788
19500.000000 66.709 -47.4147
19750.000000 64.662 -89.1913
20000.000000 62.669 157.1742
20300.000000 60.377 41.3949
20600.000000 58.344 23.5258
20900.000000 56.690 39.5851
21200.000000 55.628 61.2370
21400.000000 55.299 75.6667
21800.000000 55.344 100.0802
22000.000000 55.583 98.5818
22400.000000 55.533 109.3818
22700.000000 53.436 -137.4312
23000.000000 48.698 -140.4277
23300.000000 43.226 69.9668
23600.000000 40.753 -34.7422
24000.000000 40.570 -43.2344
