* Measurement data measured by REW V5.20.13
* Source: Headset (DS by VECLAN.COM), MICROPHONE (Master Volume), L, volume: 0.720. Timing signal peak level -17.9 dBFS, measurement signal peak level -15.0 dBFS
* Format: 4M Log Swept Sine, 1 sweep at -12.0 dBFS using an acoustic timing reference
* Dated: Dec 12, 2023 12:35:38 PM
* REW Settings:
*  C-weighting compensation: Off
*  Target level: 75.0 dB
* Note: ; Apple + Abigail Delay -0.0674 ms (-23 mm, -0.91 in) using estimated IR delay relative to Acoustic reference played from  L with no timing offset Clock adjustment: -0.2 ppm
* Measurement: Truthear Hola CP145 L
* Smoothing: 1/24 octave
* Frequency Step: 1/48 octave
* Start Frequency: 1.000 Hz
*
* Freq(Hz) SPL(dB) Phase(degrees)
1.000000 67.280 8.6606
1.015000 67.671 4.2689
1.030000 68.059 0.0420
1.044000 68.416 -3.7314
1.060000 68.817 -7.8131
1.075000 69.183 -11.3893
1.090000 69.537 -14.6966
1.106000 69.904 -17.9251
1.120000 70.232 -20.6307
1.138000 70.670 -23.9871
1.150000 70.970 -26.1479
1.172000 71.535 -29.9493
1.180000 71.744 -31.2800
1.206000 72.437 -35.4138
1.220000 72.815 -37.5181
1.241000 73.387 -40.5144
1.250000 73.633 -41.7393
1.265000 74.043 -43.7018
1.280000 74.451 -45.5650
1.315000 75.393 -49.5243
1.320000 75.525 -50.0453
1.340000 76.048 -52.0174
1.360000 76.556 -53.8096
1.380000 77.047 -55.4210
1.400000 77.518 -56.8506
1.430000 78.178 -58.6522
1.450000 78.584 -59.6234
1.475000 79.048 -60.5436
1.500000 79.473 -60.8675
1.525000 79.864 -60.6058
1.550000 80.225 -59.8459
1.575000 80.559 -58.6754
1.600000 80.869 -57.1819
1.625000 81.158 -55.4529
1.650000 81.429 -53.5760
1.675000 81.685 -51.6386
1.700000 81.930 -49.7284
1.725000 82.166 -47.9329
1.750000 82.397 -46.3396
1.775000 82.626 -45.0361
1.800000 82.855 -44.1100
1.825000 83.088 -43.6487
1.850000 83.323 -43.6651
1.875000 83.546 -44.0024
1.900000 83.759 -44.6136
1.925000 83.963 -45.4577
1.950000 84.157 -46.4940
1.975000 84.345 -47.6814
2.000000 84.526 -48.9793
2.030000 84.736 -50.6251
2.060000 84.939 -52.3004
2.090000 85.139 -53.9348
2.120000 85.336 -55.4577
2.140000 85.467 -56.3761
2.180000 85.730 -57.8865
2.200000 85.863 -58.4374
2.240000 86.126 -59.2577
2.270000 86.318 -59.7042
2.300000 86.508 -60.0335
2.330000 86.693 -60.2701
2.360000 86.876 -60.4388
2.400000 87.114 -60.6007
2.430000 87.289 -60.7068
2.470000 87.518 -60.8745
2.500000 87.687 -61.0521
2.540000 87.908 -61.4047
2.580000 88.125 -61.9292
2.620000 88.337 -62.5396
2.650000 88.493 -63.0332
2.690000 88.695 -63.7333
2.720000 88.844 -64.2857
2.760000 89.038 -65.0529
2.800000 89.228 -65.8484
2.850000 89.459 -66.8713
2.900000 89.684 -67.9126
2.950000 89.902 -68.9682
3.000000 90.113 -70.1092
3.040000 90.277 -71.0746
3.070000 90.397 -71.8163
3.110000 90.553 -72.8130
3.150000 90.706 -73.8005
3.200000 90.891 -74.9918
3.250000 91.072 -76.0994
3.300000 91.248 -77.0845
3.350000 91.418 -77.9161
3.400000 91.583 -78.6218
3.450000 91.742 -79.2474
3.500000 91.896 -79.8388
3.550000 92.045 -80.4417
3.600000 92.190 -81.1022
3.650000 92.332 -81.8659
3.700000 92.469 -82.7704
3.750000 92.602 -83.7959
3.820000 92.781 -85.3527
3.870000 92.903 -86.4925
3.950000 93.092 -88.2447
4.000000 93.205 -89.2278
4.060000 93.338 -90.2313
4.120000 93.464 -91.0713
4.180000 93.586 -91.8027
4.250000 93.721 -92.5885
4.310000 93.834 -93.2639
4.370000 93.944 -93.9959
4.440000 94.068 -94.9735
4.500000 94.171 -95.8861
4.550000 94.253 -96.6731
4.620000 94.366 -97.7779
4.680000 94.460 -98.6927
4.750000 94.568 -99.6773
4.820000 94.675 -100.5436
4.870000 94.750 -101.1071
4.940000 94.852 -101.8451
5.000000 94.939 -102.4534
5.080000 95.051 -103.2680
5.150000 95.149 -104.0176
5.220000 95.244 -104.7903
5.300000 95.352 -105.6803
5.380000 95.456 -106.5643
5.450000 95.546 -107.3215
5.520000 95.635 -108.0545
5.600000 95.734 -108.8663
5.700000 95.855 -109.8538
5.800000 95.973 -110.8224
5.900000 96.089 -111.7814
6.000000 96.202 -112.7200
6.080000 96.291 -113.4617
6.150000 96.366 -114.1105
6.220000 96.439 -114.7643
6.300000 96.521 -115.5228
6.400000 96.620 -116.4801
6.500000 96.715 -117.4322
6.600000 96.804 -118.3624
6.700000 96.887 -119.2682
6.800000 96.965 -120.1568
6.900000 97.038 -121.0303
7.000000 97.107 -121.8922
7.100000 97.170 -122.7485
7.200000 97.228 -123.5876
7.300000 97.283 -124.3946
7.400000 97.335 -125.1591
7.500000 97.383 -125.8878
7.620000 97.438 -126.7249
7.750000 97.496 -127.5969
7.880000 97.551 -128.4284
8.000000 97.600 -129.1621
8.120000 97.650 -129.8647
8.250000 97.704 -130.5859
8.380000 97.758 -131.2816
8.500000 97.810 -131.9116
8.620000 97.862 -132.5230
8.750000 97.919 -133.1781
8.850000 97.964 -133.6844
9.000000 98.032 -134.4393
9.120000 98.087 -135.0483
9.250000 98.146 -135.7201
9.380000 98.206 -136.4007
9.500000 98.257 -137.0396
9.620000 98.303 -137.6935
9.750000 98.349 -138.4163
9.880000 98.384 -139.1401
10.000000 98.404 -139.8084
10.150000 98.417 -140.6431
10.300000 98.418 -141.4488
10.440000 98.406 -142.1755
10.600000 98.385 -142.9706
10.750000 98.364 -143.6702
10.900000 98.341 -144.3325
11.060000 98.318 -145.0119
11.200000 98.300 -145.5815
11.380000 98.280 -146.2871
11.500000 98.267 -146.7397
11.720000 98.248 -147.5470
11.800000 98.243 -147.8378
12.060000 98.231 -148.7733
12.200000 98.227 -149.2855
12.410000 98.224 -150.0602
12.500000 98.221 -150.3919
12.650000 98.216 -150.9467
12.800000 98.210 -151.4961
13.150000 98.188 -152.7401
13.200000 98.184 -152.9118
13.400000 98.170 -153.5831
13.600000 98.157 -154.2275
13.800000 98.146 -154.8425
14.000000 98.136 -155.4392
14.300000 98.123 -156.3057
14.500000 98.115 -156.8719
14.750000 98.107 -157.5697
15.000000 98.100 -158.2582
15.250000 98.094 -158.9376
15.500000 98.089 -159.5973
15.750000 98.084 -160.2323
16.000000 98.078 -160.8377
16.250000 98.072 -161.4219
16.500000 98.067 -161.9898
16.750000 98.064 -162.5477
17.000000 98.062 -163.0980
17.250000 98.060 -163.6396
17.500000 98.057 -164.1699
17.750000 98.054 -164.6866
18.000000 98.049 -165.1910
18.250000 98.043 -165.6851
18.500000 98.039 -166.1711
18.750000 98.035 -166.6511
19.000000 98.031 -167.1273
19.250000 98.028 -167.6028
19.500000 98.023 -168.0733
19.750000 98.016 -168.5354
20.000000 98.008 -168.9802
20.299999 97.997 -169.4876
20.600000 97.986 -169.9675
20.900000 97.978 -170.4273
21.200001 97.971 -170.8804
21.400000 97.968 -171.1850
21.799999 97.960 -171.8043
22.000000 97.955 -172.1190
22.400000 97.942 -172.7521
22.700001 97.929 -173.2208
23.000000 97.914 -173.6759
23.299999 97.897 -174.1133
23.600000 97.880 -174.5314
24.000000 97.857 -175.0591
24.299999 97.842 -175.4369
24.700001 97.824 -175.9271
25.000000 97.813 -176.2940
25.400000 97.798 -176.7906
25.799999 97.781 -177.2923
26.200001 97.761 -177.7838
26.500000 97.745 -178.1358
26.900000 97.722 -178.5783
27.200001 97.707 -178.8945
27.600000 97.688 -179.3078
28.000000 97.670 -179.7268
28.500000 97.647 179.7326
29.000000 97.621 179.1877
29.500000 97.588 178.6713
30.000000 97.551 178.2207
30.400000 97.522 177.9133
30.700001 97.506 177.6993
31.100000 97.490 177.3981
31.500000 97.477 177.0500
32.000000 97.453 176.5671
32.500000 97.418 176.1274
33.000000 97.387 175.7812
33.500000 97.374 175.4194
34.000000 97.367 174.8845
34.500000 97.335 174.2188
35.000000 97.269 173.6617
35.500000 97.207 173.3705
36.000000 97.185 173.1718
36.500000 97.194 172.7498
37.000000 97.180 172.0289
37.500000 97.112 171.2970
38.200001 96.976 170.8494
38.700001 96.920 170.8913
39.500000 96.923 170.8000
40.000000 96.934 170.5028
40.599998 96.932 170.0602
41.200001 96.918 169.6226
41.799999 96.894 169.1864
42.500000 96.850 168.7304
43.099998 96.807 168.4214
43.700001 96.764 168.1459
44.400002 96.709 167.8545
45.000000 96.662 167.6601
45.500000 96.630 167.5055
46.200001 96.592 167.2082
46.799999 96.552 166.8855
47.500000 96.495 166.5568
48.200001 96.447 166.3077
48.700001 96.421 166.1215
49.400002 96.389 165.8144
50.000000 96.359 165.5600
50.799999 96.331 165.2436
51.500000 96.313 164.8606
52.200001 96.274 164.3669
53.000000 96.190 163.9253
53.799999 96.104 163.7986
54.500000 96.059 163.7960
55.200001 96.039 163.6873
56.000000 96.019 163.3803
57.000000 95.976 162.9095
58.000000 95.925 162.4839
59.000000 95.869 162.0697
60.000000 95.798 161.7327
60.799999 95.741 161.5719
61.500000 95.696 161.4830
62.200001 95.654 161.3978
63.000000 95.604 161.2765
64.000000 95.541 161.0839
65.000000 95.478 160.8511
66.000000 95.417 160.5900
67.000000 95.362 160.3109
68.000000 95.309 160.0399
69.000000 95.260 159.8077
70.000000 95.212 159.6017
71.000000 95.160 159.4284
72.000000 95.106 159.3048
73.000000 95.052 159.1952
74.000000 94.996 159.0690
75.000000 94.937 158.9210
76.199997 94.865 158.7358
77.500000 94.793 158.5544
78.800003 94.731 158.3782
80.000000 94.675 158.2182
81.199997 94.615 158.0751
82.500000 94.544 157.9567
83.800003 94.475 157.8577
85.000000 94.415 157.7490
86.199997 94.358 157.6169
87.500000 94.298 157.4890
88.500000 94.255 157.4090
90.000000 94.191 157.3109
91.199997 94.139 157.2690
92.500000 94.086 157.2166
93.800003 94.027 157.1432
95.000000 93.969 157.0850
96.199997 93.911 157.0336
97.500000 93.852 156.9716
98.800003 93.795 156.9188
100.000000 93.743 156.8820
101.500000 93.683 156.8412
103.000000 93.624 156.8023
104.400002 93.567 156.7573
106.000000 93.496 156.7182
107.500000 93.434 156.6936
109.000000 93.374 156.6815
110.599998 93.315 156.6915
112.000000 93.263 156.7273
113.800003 93.197 156.7977
115.000000 93.153 156.8358
117.199997 93.071 156.7856
118.000000 93.037 156.7531
120.599998 92.924 156.8290
122.000000 92.879 156.9531
124.099998 92.820 157.0854
125.000000 92.791 157.1136
126.500000 92.738 157.1440
128.000000 92.682 157.1737
131.500000 92.570 157.2525
132.000000 92.555 157.2669
134.000000 92.500 157.3359
136.000000 92.449 157.4294
138.000000 92.400 157.5223
140.000000 92.350 157.6063
143.000000 92.273 157.7721
145.000000 92.220 157.9117
147.500000 92.155 158.0731
150.000000 92.097 158.2223
152.500000 92.044 158.3422
155.000000 91.988 158.4482
157.500000 91.929 158.6092
160.000000 91.869 158.7794
162.500000 91.805 158.9778
165.000000 91.747 159.1664
167.500000 91.691 159.3340
170.000000 91.638 159.5214
172.500000 91.589 159.7046
175.000000 91.539 159.8730
177.500000 91.486 160.0585
180.000000 91.432 160.2663
182.500000 91.375 160.4895
185.000000 91.320 160.7052
187.500000 91.270 160.8820
190.000000 91.225 161.0506
192.500000 91.186 161.2367
195.000000 91.148 161.4360
197.500000 91.109 161.6394
200.000000 91.069 161.8354
203.000000 91.021 162.0692
206.000000 90.971 162.3065
209.000000 90.922 162.5260
212.000000 90.876 162.7471
214.000000 90.847 162.9161
218.000000 90.786 163.2686
220.000000 90.756 163.4548
224.000000 90.704 163.8188
227.000000 90.666 164.0518
230.000000 90.630 164.2707
233.000000 90.598 164.5011
236.000000 90.567 164.7410
240.000000 90.516 165.0787
243.000000 90.475 165.3609
247.000000 90.426 165.7464
250.000000 90.395 165.9931
254.000000 90.356 166.2820
258.000000 90.327 166.6071
262.000000 90.304 166.9264
265.000000 90.280 167.1586
269.000000 90.247 167.4724
272.000000 90.222 167.7082
276.000000 90.181 168.0628
280.000000 90.133 168.4554
285.000000 90.079 168.9090
290.000000 90.050 169.2748
295.000000 90.033 169.5855
300.000000 90.014 170.0205
304.000000 89.996 170.3947
307.000000 89.981 170.6078
311.000000 89.961 170.8442
315.000000 89.943 171.1361
320.000000 89.912 171.5663
325.000000 89.874 171.9490
330.000000 89.844 172.3076
335.000000 89.821 172.6716
340.000000 89.796 173.0382
345.000000 89.769 173.4247
350.000000 89.744 173.8245
355.000000 89.726 174.1906
360.000000 89.708 174.5323
365.000000 89.694 174.9119
370.000000 89.681 175.2976
375.000000 89.664 175.6290
382.000000 89.640 176.1088
387.000000 89.616 176.5023
395.000000 89.575 177.0638
400.000000 89.553 177.3835
406.000000 89.529 177.8403
412.000000 89.511 178.3208
418.000000 89.507 178.7159
425.000000 89.513 179.1301
431.000000 89.508 179.5315
437.000000 89.489 179.9517
444.000000 89.453 -179.5478
450.000000 89.423 -179.1091
455.000000 89.401 -178.7652
462.000000 89.383 -178.3019
468.000000 89.378 -177.9009
475.000000 89.378 -177.4760
482.000000 89.372 -177.0312
487.000000 89.366 -176.6591
494.000000 89.361 -176.1712
500.000000 89.365 -175.8305
508.000000 89.363 -175.3440
515.000000 89.348 -174.8421
522.000000 89.329 -174.3527
530.000000 89.316 -173.8270
538.000000 89.313 -173.3132
545.000000 89.314 -172.8739
552.000000 89.317 -172.4377
560.000000 89.318 -171.9178
570.000000 89.319 -171.2538
580.000000 89.337 -170.6192
590.000000 89.363 -170.0423
600.000000 89.368 -169.4098
608.000000 89.355 -168.8619
615.000000 89.348 -168.3925
622.000000 89.350 -167.9327
630.000000 89.360 -167.4157
640.000000 89.376 -166.8147
650.000000 89.385 -166.1782
660.000000 89.390 -165.5088
670.000000 89.397 -164.8896
680.000000 89.407 -164.2617
690.000000 89.418 -163.6246
700.000000 89.428 -162.9966
710.000000 89.442 -162.3556
720.000000 89.457 -161.7142
730.000000 89.474 -161.0926
740.000000 89.496 -160.4617
750.000000 89.523 -159.8281
762.000000 89.561 -159.0728
775.000000 89.608 -158.2671
788.000000 89.658 -157.4747
800.000000 89.700 -156.7463
812.000000 89.739 -156.0004
825.000000 89.788 -155.2173
838.000000 89.844 -154.4699
850.000000 89.897 -153.7685
862.000000 89.954 -153.0661
875.000000 90.028 -152.3563
885.000000 90.090 -151.8575
900.000000 90.174 -151.0951
912.000000 90.233 -150.4678
925.000000 90.298 -149.8420
938.000000 90.367 -149.2425
950.000000 90.436 -148.7157
962.000000 90.510 -148.2088
975.000000 90.591 -147.6618
988.000000 90.675 -147.1124
1000.000000 90.752 -146.6490
1015.000000 90.840 -146.1521
1030.000000 90.928 -145.6913
1044.000000 91.014 -145.2831
1060.000000 91.107 -144.8186
1075.000000 91.189 -144.3990
1090.000000 91.277 -144.0241
1106.000000 91.384 -143.6614
1120.000000 91.482 -143.3646
1138.000000 91.605 -143.0158
1150.000000 91.682 -142.7945
1172.000000 91.816 -142.3971
1180.000000 91.863 -142.2557
1206.000000 92.024 -141.8561
1220.000000 92.115 -141.6715
1241.000000 92.247 -141.3951
1250.000000 92.301 -141.2703
1265.000000 92.388 -141.0665
1280.000000 92.473 -140.8710
1315.000000 92.668 -140.4495
1320.000000 92.696 -140.3933
1340.000000 92.800 -140.1695
1360.000000 92.885 -139.9401
1380.000000 92.965 -139.7135
1400.000000 93.055 -139.5046
1430.000000 93.195 -139.2063
1450.000000 93.289 -139.0185
1475.000000 93.406 -138.7955
1500.000000 93.526 -138.5936
1525.000000 93.641 -138.4105
1550.000000 93.741 -138.2419
1575.000000 93.831 -138.0781
1600.000000 93.920 -137.9327
1625.000000 94.015 -137.8147
1650.000000 94.113 -137.6824
1675.000000 94.213 -137.5618
1700.000000 94.305 -137.4520
1725.000000 94.379 -137.3145
1750.000000 94.456 -137.1941
1775.000000 94.537 -137.0867
1800.000000 94.610 -136.9615
1825.000000 94.677 -136.8488
1850.000000 94.743 -136.7474
1875.000000 94.809 -136.6375
1900.000000 94.876 -136.5308
1925.000000 94.943 -136.4190
1950.000000 95.009 -136.2997
1975.000000 95.075 -136.1688
2000.000000 95.138 -136.0341
2030.000000 95.202 -135.8673
2060.000000 95.265 -135.6435
2090.000000 95.333 -135.3469
2120.000000 95.411 -135.0010
2140.000000 95.472 -134.7568
2180.000000 95.621 -134.2945
2200.000000 95.706 -134.1178
2240.000000 95.887 -133.9492
2270.000000 96.021 -134.0063
2300.000000 96.140 -134.1835
2330.000000 96.243 -134.4270
2360.000000 96.333 -134.6981
2400.000000 96.436 -135.0500
2430.000000 96.502 -135.2881
2470.000000 96.579 -135.5763
2500.000000 96.629 -135.7647
2540.000000 96.691 -135.9918
2580.000000 96.745 -136.1888
2620.000000 96.788 -136.3564
2650.000000 96.819 -136.4619
2690.000000 96.886 -136.6008
2720.000000 96.950 -136.7022
2760.000000 97.028 -136.8220
2800.000000 97.088 -136.9479
2850.000000 97.143 -137.1187
2900.000000 97.195 -137.3041
2950.000000 97.251 -137.4917
3000.000000 97.306 -137.6691
3040.000000 97.349 -137.8418
3070.000000 97.380 -137.9812
3110.000000 97.421 -138.1646
3150.000000 97.463 -138.3477
3200.000000 97.516 -138.5876
3250.000000 97.567 -138.8430
3300.000000 97.618 -139.1130
3350.000000 97.675 -139.4247
3400.000000 97.732 -139.7917
3450.000000 97.791 -140.2308
3500.000000 97.850 -140.7679
3550.000000 97.902 -141.4113
3600.000000 97.934 -142.1412
3650.000000 97.939 -142.9226
3700.000000 97.917 -143.7067
3750.000000 97.865 -144.3995
3820.000000 97.759 -145.0596
3870.000000 97.683 -145.2880
3950.000000 97.592 -145.3677
4000.000000 97.563 -145.3816
4060.000000 97.550 -145.4818
4120.000000 97.544 -145.7134
4180.000000 97.537 -146.0858
4250.000000 97.520 -146.6882
4310.000000 97.490 -147.3249
4370.000000 97.434 -148.0327
4440.000000 97.338 -148.9039
4500.000000 97.236 -149.6743
4550.000000 97.138 -150.3179
4620.000000 96.974 -151.1947
4680.000000 96.805 -151.8952
4750.000000 96.576 -152.5969
4820.000000 96.320 -153.1299
4870.000000 96.127 -153.3885
4940.000000 95.847 -153.5842
5000.000000 95.603 -153.5988
5080.000000 95.278 -153.4112
5150.000000 94.998 -153.0962
5220.000000 94.722 -152.6515
5300.000000 94.414 -151.9969
5380.000000 94.111 -151.2000
5450.000000 93.856 -150.3933
5520.000000 93.612 -149.4901
5600.000000 93.341 -148.3427
5700.000000 93.013 -146.7371
5800.000000 92.701 -144.9619
5900.000000 92.415 -143.0386
6000.000000 92.157 -140.9890
6080.000000 91.972 -139.2750
6150.000000 91.829 -137.7316
6220.000000 91.701 -136.1515
6300.000000 91.574 -134.3083
6400.000000 91.441 -131.9646
6500.000000 91.333 -129.5961
6600.000000 91.253 -127.2231
6700.000000 91.208 -124.8682
6800.000000 91.204 -122.5496
6900.000000 91.254 -120.2743
7000.000000 91.362 -118.0570
7100.000000 91.522 -115.9249
7200.000000 91.733 -113.9351
7300.000000 92.000 -112.2077
7400.000000 92.322 -110.8768
7500.000000 92.692 -110.0716
7620.000000 93.182 -109.9932
7750.000000 93.708 -111.2407
7880.000000 94.068 -113.9846
8000.000000 94.184 -117.6285
8120.000000 94.053 -121.8044
8250.000000 93.622 -126.1230
8380.000000 92.936 -129.4737
8500.000000 92.138 -131.3331
8620.000000 91.236 -131.8845
8750.000000 90.193 -131.0101
8850.000000 89.380 -129.3262
9000.000000 88.196 -125.1535
9120.000000 87.325 -120.3960
9250.000000 86.523 -113.8653
9380.000000 85.949 -106.0875
9500.000000 85.708 -98.2080
9620.000000 85.808 -90.3503
9750.000000 86.286 -82.8881
9880.000000 87.005 -77.4898
10000.000000 87.697 -74.6827
10150.000000 88.394 -73.5452
10300.000000 88.806 -73.6386
10440.000000 88.971 -73.6039
10600.000000 89.031 -72.6494
10750.000000 89.091 -70.8038
10900.000000 89.244 -68.3123
11060.000000 89.580 -65.3455
11200.000000 90.057 -62.8580
11380.000000 90.971 -60.4683
11500.000000 91.791 -59.9099
11720.000000 93.641 -63.1179
11800.000000 94.329 -66.3911
12060.000000 95.704 -86.9606
12200.000000 95.434 -101.7108
12410.000000 93.595 -119.4168
12500.000000 92.449 -123.9245
12650.000000 90.369 -127.5860
12800.000000 88.342 -127.7052
13150.000000 84.451 -120.7067
13200.000000 83.991 -119.2492
13400.000000 82.362 -112.8125
13600.000000 81.021 -105.7358
13800.000000 79.910 -98.3094
14000.000000 79.004 -90.7154
14300.000000 77.996 -79.2977
14500.000000 77.525 -71.8529
14750.000000 77.130 -62.8949
15000.000000 76.922 -54.3773
15250.000000 76.917 -46.3864
15500.000000 77.196 -39.1932
15750.000000 77.791 -33.2381
16000.000000 78.655 -29.1014
16250.000000 79.729 -27.8081
16500.000000 80.842 -30.9558
16750.000000 81.617 -39.8671
17000.000000 81.586 -53.4156
17250.000000 80.513 -67.1679
17500.000000 78.570 -76.7676
17750.000000 76.158 -81.1135
18000.000000 73.636 -81.4000
18250.000000 71.192 -79.0342
18500.000000 68.827 -74.7024
18750.000000 66.534 -68.8361
19000.000000 64.307 -61.8023
19250.000000 62.125 -53.9680
19500.000000 59.962 -48.3559
19750.000000 57.886 -63.2860
20000.000000 55.889 -142.6860
20300.000000 53.239 74.1176
20600.000000 50.234 25.4905
20900.000000 47.604 40.9789
21200.000000 46.404 67.8164
21400.000000 46.392 83.7950
21800.000000 47.066 96.7487
22000.000000 47.359 53.3160
22400.000000 47.005 83.9376
22700.000000 45.051 -160.8330
23000.000000 41.915 -128.5410
23300.000000 40.046 -27.0664
23600.000000 39.887 -134.4180
24000.000000 40.059 101.2422
