* Measurement data measured by REW V5.20.13
* Source: Headset (DS by VECLAN.COM), MICROPHONE (Master Volume), L, volume: 0.720. Timing signal peak level -15.7 dBFS, measurement signal peak level -15.0 dBFS
* Format: 4M Log Swept Sine, 1 sweep at -12.0 dBFS using an acoustic timing reference
* Dated: Dec 12, 2023 12:42:29 PM
* REW Settings:
*  C-weighting compensation: Off
*  Target level: 75.0 dB
* Note: ; Apple + Abigail Delay -0.0665 ms (-23 mm, -0.9 in) using estimated IR delay relative to Acoustic reference played from  L with no timing offset Clock adjustment: -0.1 ppm
* Measurement: Truthear Hola W1 L
* Smoothing: 1/24 octave
* Frequency Step: 1/48 octave
* Start Frequency: 1.000 Hz
*
* Freq(Hz) SPL(dB) Phase(degrees)
1.000000 70.995 -37.0240
1.015000 71.367 -38.8517
1.030000 71.732 -40.5442
1.044000 72.067 -41.9937
1.060000 72.439 -43.4864
1.075000 72.776 -44.7174
1.090000 73.102 -45.7757
1.106000 73.435 -46.6946
1.120000 73.726 -47.2688
1.138000 74.100 -47.7010
1.150000 74.350 -47.8130
1.172000 74.807 -47.6895
1.180000 74.972 -47.5486
1.206000 75.509 -46.7848
1.220000 75.796 -46.2053
1.241000 76.223 -45.1580
1.250000 76.405 -44.6551
1.265000 76.705 -43.7603
1.280000 77.001 -42.8114
1.315000 77.679 -40.4958
1.320000 77.774 -40.1639
1.340000 78.148 -38.8620
1.360000 78.513 -37.6358
1.380000 78.867 -36.5310
1.400000 79.210 -35.5935
1.430000 79.701 -34.6010
1.450000 80.012 -34.2819
1.475000 80.380 -34.3268
1.500000 80.724 -34.7087
1.525000 81.048 -35.3498
1.550000 81.352 -36.2126
1.575000 81.639 -37.2591
1.600000 81.910 -38.4517
1.625000 82.167 -39.7528
1.650000 82.412 -41.1245
1.675000 82.646 -42.5291
1.700000 82.873 -43.9291
1.725000 83.092 -45.2865
1.750000 83.306 -46.5638
1.775000 83.518 -47.7231
1.800000 83.728 -48.7268
1.825000 83.939 -49.5372
1.850000 84.148 -50.1507
1.875000 84.348 -50.6385
1.900000 84.540 -51.0197
1.925000 84.723 -51.3105
1.950000 84.900 -51.5272
1.975000 85.070 -51.6858
2.000000 85.235 -51.8025
2.030000 85.427 -51.9100
2.060000 85.615 -52.0084
2.090000 85.799 -52.1257
2.120000 85.981 -52.2898
2.140000 86.102 -52.4390
2.180000 86.346 -52.8701
2.200000 86.469 -53.1682
2.240000 86.714 -53.8725
2.270000 86.894 -54.4645
2.300000 87.072 -55.1023
2.330000 87.248 -55.7781
2.360000 87.420 -56.4842
2.400000 87.647 -57.4591
2.430000 87.813 -58.2052
2.470000 88.031 -59.2050
2.500000 88.191 -59.9486
2.540000 88.400 -60.9165
2.580000 88.605 -61.8480
2.620000 88.804 -62.7910
2.650000 88.950 -63.5097
2.690000 89.141 -64.4760
2.720000 89.280 -65.2019
2.760000 89.462 -66.1641
2.800000 89.640 -67.1117
2.850000 89.856 -68.2619
2.900000 90.066 -69.3579
2.950000 90.270 -70.3804
3.000000 90.466 -71.3124
3.040000 90.618 -72.0074
3.070000 90.729 -72.5085
3.110000 90.873 -73.1612
3.150000 91.014 -73.8096
3.200000 91.185 -74.6358
3.250000 91.351 -75.5055
3.300000 91.513 -76.4470
3.350000 91.669 -77.4819
3.400000 91.820 -78.5902
3.450000 91.965 -79.7392
3.500000 92.105 -80.8962
3.550000 92.241 -82.0285
3.600000 92.374 -83.1033
3.650000 92.503 -84.0882
3.700000 92.628 -84.9594
3.750000 92.749 -85.7362
3.820000 92.911 -86.7146
3.870000 93.023 -87.3703
3.950000 93.195 -88.4157
4.000000 93.299 -89.1068
4.060000 93.422 -90.0114
4.120000 93.539 -90.9808
4.180000 93.652 -91.9825
4.250000 93.779 -93.1510
4.310000 93.885 -94.1175
4.370000 93.990 -95.0191
4.440000 94.110 -95.9566
4.500000 94.209 -96.6773
4.550000 94.290 -97.2373
4.620000 94.401 -97.9857
4.680000 94.496 -98.6186
4.750000 94.605 -99.3790
4.820000 94.714 -100.1759
4.870000 94.791 -100.7515
4.940000 94.897 -101.5586
5.000000 94.988 -102.2452
5.080000 95.107 -103.1429
5.150000 95.209 -103.9020
5.220000 95.311 -104.6351
5.300000 95.426 -105.4505
5.380000 95.538 -106.2533
5.450000 95.634 -106.9544
5.520000 95.728 -107.6614
5.600000 95.833 -108.4698
5.700000 95.961 -109.4769
5.800000 96.085 -110.4804
5.900000 96.204 -111.4810
6.000000 96.320 -112.4818
6.080000 96.409 -113.2793
6.150000 96.484 -113.9720
6.220000 96.557 -114.6573
6.300000 96.636 -115.4311
6.400000 96.732 -116.3873
6.500000 96.822 -117.3325
6.600000 96.906 -118.2682
6.700000 96.984 -119.2030
6.800000 97.056 -120.1302
6.900000 97.123 -121.0328
7.000000 97.186 -121.8955
7.100000 97.245 -122.7222
7.200000 97.299 -123.5191
7.300000 97.351 -124.2907
7.400000 97.401 -125.0391
7.500000 97.449 -125.7616
7.620000 97.504 -126.5969
7.750000 97.564 -127.4647
7.880000 97.622 -128.2882
8.000000 97.675 -129.0235
8.120000 97.728 -129.7481
8.250000 97.786 -130.5138
8.380000 97.843 -131.2664
8.500000 97.895 -131.9554
8.620000 97.946 -132.6356
8.750000 98.001 -133.3669
8.850000 98.041 -133.9280
9.000000 98.101 -134.7648
9.120000 98.147 -135.4319
9.250000 98.196 -136.1547
9.380000 98.243 -136.8767
9.500000 98.282 -137.5394
9.620000 98.316 -138.1982
9.750000 98.349 -138.9081
9.880000 98.373 -139.6074
10.000000 98.385 -140.2440
10.150000 98.389 -141.0259
10.300000 98.384 -141.7735
10.440000 98.370 -142.4381
10.600000 98.349 -143.1647
10.750000 98.331 -143.8127
10.900000 98.313 -144.4321
11.060000 98.296 -145.0792
11.200000 98.285 -145.6321
11.380000 98.272 -146.3288
11.500000 98.264 -146.7848
11.720000 98.252 -147.6074
11.800000 98.248 -147.9036
12.060000 98.241 -148.8569
12.200000 98.238 -149.3726
12.410000 98.236 -150.1450
12.500000 98.234 -150.4722
12.650000 98.231 -151.0143
12.800000 98.226 -151.5480
13.150000 98.211 -152.7511
13.200000 98.209 -152.9178
13.400000 98.201 -153.5713
13.600000 98.194 -154.2038
13.800000 98.188 -154.8142
14.000000 98.183 -155.4106
14.300000 98.176 -156.2824
14.500000 98.171 -156.8521
14.750000 98.166 -157.5533
15.000000 98.161 -158.2437
15.250000 98.157 -158.9260
15.500000 98.153 -159.5909
15.750000 98.149 -160.2337
16.000000 98.142 -160.8483
16.250000 98.135 -161.4399
16.500000 98.129 -162.0122
16.750000 98.124 -162.5706
17.000000 98.121 -163.1208
17.250000 98.118 -163.6641
17.500000 98.115 -164.2014
17.750000 98.111 -164.7304
18.000000 98.105 -165.2495
18.250000 98.097 -165.7572
18.500000 98.090 -166.2498
18.750000 98.084 -166.7295
19.000000 98.079 -167.1989
19.250000 98.076 -167.6682
19.500000 98.074 -168.1384
19.750000 98.070 -168.6097
20.000000 98.063 -169.0740
20.299999 98.053 -169.6093
20.600000 98.041 -170.1118
20.900000 98.030 -170.5801
21.200001 98.022 -171.0269
21.400000 98.018 -171.3253
21.799999 98.011 -171.9399
22.000000 98.006 -172.2585
22.400000 97.990 -172.9041
22.700001 97.971 -173.3662
23.000000 97.950 -173.7836
23.299999 97.930 -174.1577
23.600000 97.917 -174.5104
24.000000 97.907 -174.9970
24.299999 97.903 -175.4059
24.700001 97.892 -176.0099
25.000000 97.876 -176.4756
25.400000 97.845 -177.0602
25.799999 97.811 -177.5727
26.200001 97.782 -178.0347
26.500000 97.762 -178.3737
26.900000 97.737 -178.8271
27.200001 97.717 -179.1540
27.600000 97.689 -179.5426
28.000000 97.669 -179.8708
28.500000 97.664 179.7324
29.000000 97.675 179.2325
29.500000 97.683 178.6038
30.000000 97.674 177.9307
30.400000 97.655 177.4146
30.700001 97.638 177.0435
31.100000 97.610 176.5564
31.500000 97.575 176.0795
32.000000 97.516 175.5479
32.500000 97.447 175.1617
33.000000 97.383 174.9252
33.500000 97.335 174.7545
34.000000 97.300 174.5556
34.500000 97.272 174.2997
35.000000 97.245 174.0027
35.500000 97.221 173.6725
36.000000 97.196 173.3032
36.500000 97.169 172.9005
37.000000 97.138 172.4837
37.500000 97.105 172.0715
38.200001 97.063 171.5135
38.700001 97.035 171.1191
39.500000 96.993 170.4922
40.000000 96.965 170.1287
40.599998 96.933 169.7423
41.200001 96.904 169.3949
41.799999 96.877 169.0627
42.500000 96.844 168.6967
43.099998 96.815 168.4095
43.700001 96.786 168.1278
44.400002 96.749 167.7844
45.000000 96.711 167.4933
45.500000 96.678 167.2668
46.200001 96.634 166.9564
46.799999 96.598 166.6691
47.500000 96.553 166.3212
48.200001 96.508 166.0007
48.700001 96.481 165.7821
49.400002 96.446 165.4442
50.000000 96.414 165.1185
50.799999 96.358 164.7146
51.500000 96.305 164.4540
52.200001 96.258 164.2514
53.000000 96.211 164.0189
53.799999 96.164 163.7716
54.500000 96.120 163.5482
55.200001 96.076 163.3074
56.000000 96.025 163.0227
57.000000 95.963 162.6942
58.000000 95.910 162.3384
59.000000 95.851 161.9326
60.000000 95.781 161.6356
60.799999 95.737 161.4741
61.500000 95.706 161.3298
62.200001 95.673 161.1783
63.000000 95.634 161.0095
64.000000 95.584 160.7761
65.000000 95.527 160.5235
66.000000 95.467 160.2962
67.000000 95.409 160.0656
68.000000 95.346 159.8467
69.000000 95.287 159.6986
70.000000 95.241 159.5331
71.000000 95.190 159.3081
72.000000 95.132 159.1213
73.000000 95.078 158.9689
74.000000 95.024 158.7996
75.000000 94.963 158.6176
76.199997 94.887 158.4539
77.500000 94.823 158.2819
78.800003 94.758 157.9752
80.000000 94.678 157.7585
81.199997 94.602 157.6939
82.500000 94.532 157.6598
83.800003 94.468 157.6110
85.000000 94.413 157.5267
86.199997 94.362 157.4131
87.500000 94.316 157.2125
88.500000 94.275 157.0190
90.000000 94.201 156.8583
91.199997 94.149 156.8589
92.500000 94.102 156.8800
93.800003 94.054 156.8623
95.000000 94.001 156.8036
96.199997 93.942 156.7203
97.500000 93.877 156.6338
98.800003 93.816 156.5818
100.000000 93.765 156.5690
101.500000 93.703 156.5717
103.000000 93.638 156.5949
104.400002 93.574 156.6077
106.000000 93.498 156.5601
107.500000 93.429 156.4964
109.000000 93.373 156.4432
110.599998 93.319 156.4100
112.000000 93.271 156.4473
113.800003 93.207 156.5276
115.000000 93.160 156.5741
117.199997 93.068 156.5905
118.000000 93.033 156.5869
120.599998 92.930 156.6655
122.000000 92.888 156.7274
124.099998 92.828 156.7535
125.000000 92.799 156.7525
126.500000 92.751 156.7528
128.000000 92.703 156.7692
131.500000 92.601 156.9422
132.000000 92.586 156.9687
134.000000 92.527 157.0743
136.000000 92.467 157.1835
138.000000 92.411 157.3028
140.000000 92.358 157.4161
143.000000 92.278 157.5883
145.000000 92.223 157.6848
147.500000 92.163 157.8111
150.000000 92.109 157.9651
152.500000 92.052 158.1694
155.000000 91.993 158.3494
157.500000 91.936 158.4924
160.000000 91.882 158.5970
162.500000 91.824 158.7336
165.000000 91.767 158.9182
167.500000 91.713 159.1198
170.000000 91.657 159.3275
172.500000 91.598 159.5120
175.000000 91.541 159.6747
177.500000 91.487 159.8658
180.000000 91.436 160.0801
182.500000 91.385 160.2899
185.000000 91.332 160.4757
187.500000 91.282 160.6493
190.000000 91.233 160.8343
192.500000 91.187 161.0336
195.000000 91.141 161.2431
197.500000 91.096 161.4611
200.000000 91.053 161.6776
203.000000 91.005 161.9196
206.000000 90.958 162.1550
209.000000 90.914 162.3912
212.000000 90.875 162.6372
214.000000 90.848 162.8134
218.000000 90.788 163.1490
220.000000 90.759 163.3076
224.000000 90.707 163.6307
227.000000 90.668 163.8707
230.000000 90.629 164.1073
233.000000 90.592 164.3522
236.000000 90.558 164.6087
240.000000 90.514 164.9440
243.000000 90.479 165.1960
247.000000 90.435 165.5356
250.000000 90.404 165.7794
254.000000 90.360 166.1180
258.000000 90.316 166.4604
262.000000 90.273 166.7892
265.000000 90.241 167.0284
269.000000 90.201 167.3593
272.000000 90.176 167.6080
276.000000 90.147 167.8988
280.000000 90.117 168.1837
285.000000 90.081 168.6376
290.000000 90.045 169.0590
295.000000 90.014 169.4535
300.000000 89.981 169.8689
304.000000 89.951 170.1936
307.000000 89.933 170.4198
311.000000 89.910 170.7250
315.000000 89.884 171.0391
320.000000 89.859 171.4290
325.000000 89.836 171.8011
330.000000 89.809 172.1501
335.000000 89.784 172.5153
340.000000 89.760 172.9125
345.000000 89.739 173.3110
350.000000 89.721 173.6655
355.000000 89.703 174.0193
360.000000 89.682 174.4039
365.000000 89.662 174.7779
370.000000 89.641 175.1417
375.000000 89.620 175.5070
382.000000 89.592 176.0324
387.000000 89.574 176.4055
395.000000 89.556 176.9617
400.000000 89.553 177.2607
406.000000 89.543 177.6679
412.000000 89.518 178.1343
418.000000 89.487 178.5832
425.000000 89.457 179.0719
431.000000 89.438 179.4911
437.000000 89.420 179.9076
444.000000 89.407 -179.5959
450.000000 89.405 -179.2045
455.000000 89.404 -178.9100
462.000000 89.396 -178.4473
468.000000 89.379 -177.9946
475.000000 89.353 -177.5183
482.000000 89.330 -177.0668
487.000000 89.319 -176.7213
494.000000 89.308 -176.2496
500.000000 89.306 -175.8676
508.000000 89.305 -175.3471
515.000000 89.299 -174.8811
522.000000 89.292 -174.4168
530.000000 89.285 -173.8857
538.000000 89.279 -173.3630
545.000000 89.274 -172.9100
552.000000 89.272 -172.4521
560.000000 89.273 -171.9261
570.000000 89.278 -171.2983
580.000000 89.287 -170.6677
590.000000 89.294 -170.0231
600.000000 89.298 -169.3918
608.000000 89.298 -168.8839
615.000000 89.300 -168.4263
622.000000 89.304 -167.9621
630.000000 89.309 -167.4386
640.000000 89.314 -166.8020
650.000000 89.321 -166.1637
660.000000 89.329 -165.5168
670.000000 89.337 -164.8805
680.000000 89.348 -164.2499
690.000000 89.361 -163.6100
700.000000 89.375 -162.9736
710.000000 89.396 -162.3431
720.000000 89.419 -161.7058
730.000000 89.440 -161.0724
740.000000 89.464 -160.4415
750.000000 89.491 -159.8072
762.000000 89.524 -159.0475
775.000000 89.561 -158.2227
788.000000 89.599 -157.4053
800.000000 89.639 -156.6700
812.000000 89.683 -155.9336
825.000000 89.736 -155.1439
838.000000 89.791 -154.3759
850.000000 89.843 -153.6725
862.000000 89.898 -152.9814
875.000000 89.960 -152.2611
885.000000 90.007 -151.7217
900.000000 90.083 -150.9407
912.000000 90.148 -150.3292
925.000000 90.220 -149.6947
938.000000 90.292 -149.0883
950.000000 90.363 -148.5535
962.000000 90.436 -148.0471
975.000000 90.513 -147.4975
988.000000 90.590 -146.9491
1000.000000 90.660 -146.4811
1015.000000 90.742 -145.9782
1030.000000 90.833 -145.5207
1044.000000 90.921 -145.1052
1060.000000 91.018 -144.6416
1075.000000 91.104 -144.2237
1090.000000 91.193 -143.8506
1106.000000 91.298 -143.4829
1120.000000 91.394 -143.1833
1138.000000 91.515 -142.8327
1150.000000 91.592 -142.6036
1172.000000 91.727 -142.2043
1180.000000 91.775 -142.0645
1206.000000 91.928 -141.6451
1220.000000 92.014 -141.4559
1241.000000 92.141 -141.1799
1250.000000 92.193 -141.0562
1265.000000 92.278 -140.8561
1280.000000 92.360 -140.6627
1315.000000 92.548 -140.2357
1320.000000 92.574 -140.1783
1340.000000 92.670 -139.9444
1360.000000 92.748 -139.7065
1380.000000 92.828 -139.4829
1400.000000 92.919 -139.2703
1430.000000 93.052 -138.9359
1450.000000 93.141 -138.7198
1475.000000 93.253 -138.4516
1500.000000 93.363 -138.1900
1525.000000 93.471 -137.9453
1550.000000 93.568 -137.7027
1575.000000 93.663 -137.4706
1600.000000 93.760 -137.2581
1625.000000 93.853 -137.0660
1650.000000 93.944 -136.8687
1675.000000 94.036 -136.6797
1700.000000 94.128 -136.5045
1725.000000 94.218 -136.3405
1750.000000 94.304 -136.1886
1775.000000 94.382 -136.0396
1800.000000 94.457 -135.8972
1825.000000 94.536 -135.7715
1850.000000 94.620 -135.6581
1875.000000 94.704 -135.5417
1900.000000 94.786 -135.4289
1925.000000 94.863 -135.3211
1950.000000 94.931 -135.2121
1975.000000 94.997 -135.1007
2000.000000 95.066 -135.0061
2030.000000 95.144 -134.9212
2060.000000 95.219 -134.8264
2090.000000 95.294 -134.7154
2120.000000 95.365 -134.5978
2140.000000 95.411 -134.5110
2180.000000 95.498 -134.2883
2200.000000 95.539 -134.1420
2240.000000 95.625 -133.7482
2270.000000 95.703 -133.3827
2300.000000 95.796 -132.9978
2330.000000 95.909 -132.6661
2360.000000 96.042 -132.4752
2400.000000 96.229 -132.4931
2430.000000 96.356 -132.6733
2470.000000 96.501 -133.0503
2500.000000 96.591 -133.3653
2540.000000 96.691 -133.7834
2580.000000 96.781 -134.1900
2620.000000 96.859 -134.5761
2650.000000 96.910 -134.8551
2690.000000 96.975 -135.2105
2720.000000 97.020 -135.4639
2760.000000 97.076 -135.7964
2800.000000 97.133 -136.1361
2850.000000 97.193 -136.5599
2900.000000 97.234 -136.9728
2950.000000 97.263 -137.3849
3000.000000 97.291 -137.8005
3040.000000 97.316 -138.1683
3070.000000 97.331 -138.4430
3110.000000 97.344 -138.7873
3150.000000 97.348 -139.1016
3200.000000 97.348 -139.4716
3250.000000 97.338 -139.8125
3300.000000 97.315 -140.0875
3350.000000 97.288 -140.2814
3400.000000 97.265 -140.3964
3450.000000 97.258 -140.4787
3500.000000 97.266 -140.5901
3550.000000 97.278 -140.7648
3600.000000 97.284 -140.9824
3650.000000 97.280 -141.2118
3700.000000 97.265 -141.4251
3750.000000 97.242 -141.5812
3820.000000 97.212 -141.6801
3870.000000 97.203 -141.7145
3950.000000 97.197 -141.8174
4000.000000 97.192 -141.9596
4060.000000 97.186 -142.2224
4120.000000 97.169 -142.5546
4180.000000 97.140 -142.9247
4250.000000 97.088 -143.3618
4310.000000 97.026 -143.7405
4370.000000 96.945 -144.1255
4440.000000 96.832 -144.5739
4500.000000 96.717 -144.9403
4550.000000 96.615 -145.2292
4620.000000 96.467 -145.5872
4680.000000 96.331 -145.8377
4750.000000 96.162 -146.0554
4820.000000 95.982 -146.1930
4870.000000 95.846 -146.2340
4940.000000 95.645 -146.2228
5000.000000 95.468 -146.1513
5080.000000 95.228 -145.9409
5150.000000 95.013 -145.6539
5220.000000 94.795 -145.2693
5300.000000 94.546 -144.7122
5380.000000 94.301 -144.0288
5450.000000 94.090 -143.3253
5520.000000 93.884 -142.5322
5600.000000 93.656 -141.5259
5700.000000 93.383 -140.1183
5800.000000 93.129 -138.5591
5900.000000 92.894 -136.8715
6000.000000 92.681 -135.0881
6080.000000 92.528 -133.6042
6150.000000 92.409 -132.2707
6220.000000 92.304 -130.9108
6300.000000 92.198 -129.3293
6400.000000 92.090 -127.3265
6500.000000 92.011 -125.3270
6600.000000 91.959 -123.3571
6700.000000 91.929 -121.4454
6800.000000 91.928 -119.6200
6900.000000 91.971 -117.8871
7000.000000 92.058 -116.2321
7100.000000 92.174 -114.6574
7200.000000 92.322 -113.1829
7300.000000 92.509 -111.8606
7400.000000 92.734 -110.7721
7500.000000 92.998 -110.0260
7620.000000 93.373 -109.7938
7750.000000 93.801 -110.6386
7880.000000 94.100 -112.7938
8000.000000 94.202 -115.8774
8120.000000 94.097 -119.6894
8250.000000 93.706 -124.0035
8380.000000 93.032 -127.7011
8500.000000 92.200 -129.9773
8620.000000 91.225 -130.8614
8750.000000 90.080 -130.1687
8850.000000 89.183 -128.4931
9000.000000 87.876 -124.1751
9120.000000 86.913 -119.2107
9250.000000 86.014 -112.4015
9380.000000 85.345 -104.3173
9500.000000 85.017 -96.1400
9620.000000 85.028 -87.9829
9750.000000 85.405 -80.1939
9880.000000 86.020 -74.4515
10000.000000 86.613 -71.3190
10150.000000 87.175 -69.7924
10300.000000 87.435 -69.5035
10440.000000 87.436 -69.0768
10600.000000 87.270 -67.5753
10750.000000 87.074 -65.0375
10900.000000 86.926 -61.6009
11060.000000 86.871 -57.2464
11200.000000 86.927 -53.0614
11380.000000 87.163 -47.4090
11500.000000 87.437 -43.5912
11720.000000 88.224 -36.7751
11800.000000 88.617 -34.4542
12060.000000 90.416 -28.2320
12200.000000 91.796 -26.5176
12410.000000 94.373 -28.9129
12500.000000 95.509 -33.1124
12650.000000 97.014 -46.1263
12800.000000 97.535 -65.5489
13150.000000 94.269 -101.8510
13200.000000 93.487 -103.9467
13400.000000 90.343 -106.5410
13600.000000 87.658 -103.7383
13800.000000 85.568 -98.5508
14000.000000 83.954 -92.2933
14300.000000 82.157 -82.1601
14500.000000 81.252 -75.3584
14750.000000 80.367 -67.0569
15000.000000 79.715 -59.0271
15250.000000 79.290 -51.3631
15500.000000 79.117 -44.3162
15750.000000 79.174 -38.1803
16000.000000 79.390 -33.2427
16250.000000 79.713 -29.8215
16500.000000 80.078 -28.3096
16750.000000 80.382 -28.9539
17000.000000 80.501 -31.7141
17250.000000 80.318 -36.1410
17500.000000 79.767 -41.3510
17750.000000 78.841 -46.3475
18000.000000 77.579 -50.3904
18250.000000 76.030 -53.0071
18500.000000 74.246 -54.0836
18750.000000 72.298 -53.5521
19000.000000 70.212 -51.3761
19250.000000 67.995 -47.5187
19500.000000 65.659 -42.8700
19750.000000 63.259 -45.6446
20000.000000 60.829 -89.5962
20300.000000 57.809 130.5128
20600.000000 54.663 37.0780
20900.000000 51.742 36.7363
21200.000000 50.029 62.0669
21400.000000 49.708 78.8811
21800.000000 50.014 98.3141
22000.000000 50.234 72.0258
22400.000000 49.851 -4.0739
22700.000000 47.685 37.7886
23000.000000 43.763 -44.6631
23300.000000 40.833 -163.0918
23600.000000 40.167 -164.6094
24000.000000 40.483 -86.7266
