* Measurement data measured by REW V5.20.13
* Source: Microphone (Realtek(R) Audio), MICROPHONE (Master Volume), L, volume: 0.670. Timing signal peak level -36.3 dBFS, measurement signal peak level -27.7 dBFS
* Format: 2M Log Swept Sine, 1 sweep at -12.0 dBFS using an acoustic timing reference
* Dated: Jul 10, 2023 8:41:32 AM
* REW Settings:
*  C-weighting compensation: Off
*  Target level: 75.0 dB
* Note: ; Delay -0.0481 ms (-16 mm, -0.65 in) using estimated IR delay relative to Acoustic reference played from HEADPHONE L with no timing offset Clock adjustment: 120.9 ppm
* Measurement: ZeroRed 50 L
* Smoothing: 1/24 octave
* Frequency Step: 1/48 octave
* Start Frequency: 1.000 Hz
*
* Freq(Hz) SPL(dB) Phase(degrees)
1.000000 67.813 -9.7265
1.015000 67.760 -8.4962
1.030000 67.743 -7.4097
1.044000 67.764 -6.5329
1.060000 67.835 -5.7023
1.075000 67.952 -5.0984
1.090000 68.122 -4.6725
1.106000 68.367 -4.4357
1.120000 68.638 -4.4793
1.138000 69.059 -4.8719
1.150000 69.380 -5.3273
1.172000 70.047 -6.5241
1.180000 70.312 -7.0647
1.206000 71.243 -9.1582
1.220000 71.783 -10.4703
1.241000 72.634 -12.6342
1.250000 73.011 -13.6209
1.265000 73.651 -15.3276
1.280000 74.303 -17.0935
1.315000 75.842 -21.3248
1.320000 76.061 -21.9304
1.340000 76.931 -24.3241
1.360000 77.779 -26.6340
1.380000 78.595 -28.8097
1.400000 79.368 -30.8008
1.430000 80.421 -33.3310
1.450000 81.037 -34.6400
1.475000 81.697 -35.7876
1.500000 82.287 -36.5676
1.525000 82.825 -37.0656
1.550000 83.317 -37.3218
1.575000 83.766 -37.3767
1.600000 84.177 -37.2705
1.625000 84.556 -37.0436
1.650000 84.905 -36.7365
1.675000 85.231 -36.3892
1.700000 85.538 -36.0424
1.725000 85.830 -35.7361
1.750000 86.111 -35.5109
1.775000 86.387 -35.4071
1.800000 86.663 -35.4649
1.825000 86.942 -35.7248
1.850000 87.219 -36.1898
1.875000 87.476 -36.7826
1.900000 87.714 -37.4830
1.925000 87.934 -38.2742
1.950000 88.139 -39.1395
1.975000 88.331 -40.0621
2.000000 88.511 -41.0251
2.030000 88.716 -42.2106
2.060000 88.910 -43.4011
2.090000 89.098 -44.5676
2.120000 89.284 -45.6812
2.140000 89.408 -46.3798
2.180000 89.661 -47.6334
2.200000 89.792 -48.1714
2.240000 90.051 -49.1277
2.270000 90.238 -49.7719
2.300000 90.419 -50.3633
2.330000 90.596 -50.9105
2.360000 90.768 -51.4221
2.400000 90.992 -52.0638
2.430000 91.157 -52.5261
2.470000 91.373 -53.1334
2.500000 91.534 -53.5934
2.540000 91.748 -54.2292
2.580000 91.962 -54.9020
2.620000 92.174 -55.5632
2.650000 92.331 -56.0466
2.690000 92.537 -56.6806
2.720000 92.690 -57.1521
2.760000 92.891 -57.7818
2.800000 93.088 -58.4192
2.850000 93.329 -59.2386
2.900000 93.563 -60.0966
2.950000 93.789 -61.0110
3.000000 94.008 -62.0088
3.040000 94.178 -62.8520
3.070000 94.303 -63.4996
3.110000 94.466 -64.3698
3.150000 94.625 -65.2323
3.200000 94.819 -66.2742
3.250000 95.009 -67.2452
3.300000 95.195 -68.1125
3.350000 95.377 -68.8553
3.400000 95.553 -69.4979
3.450000 95.724 -70.0743
3.500000 95.890 -70.6189
3.550000 96.052 -71.1660
3.600000 96.210 -71.7499
3.650000 96.365 -72.4047
3.700000 96.516 -73.1560
3.750000 96.663 -73.9847
3.820000 96.861 -75.2212
3.870000 96.998 -76.1206
3.950000 97.211 -77.5099
4.000000 97.340 -78.3035
4.060000 97.491 -79.1388
4.120000 97.637 -79.8652
4.180000 97.779 -80.5185
4.250000 97.938 -81.2342
4.310000 98.072 -81.8471
4.370000 98.202 -82.4955
4.440000 98.351 -83.3300
4.500000 98.474 -84.0901
4.550000 98.575 -84.7392
4.620000 98.712 -85.6495
4.680000 98.827 -86.4102
4.750000 98.958 -87.2478
4.820000 99.087 -88.0153
4.870000 99.177 -88.5313
4.940000 99.301 -89.2232
5.000000 99.404 -89.8002
5.080000 99.539 -90.5675
5.150000 99.655 -91.2552
5.220000 99.768 -91.9513
5.300000 99.895 -92.7462
5.380000 100.018 -93.5339
5.450000 100.124 -94.2118
5.520000 100.229 -94.8749
5.600000 100.345 -95.6167
5.700000 100.487 -96.5249
5.800000 100.625 -97.4166
5.900000 100.760 -98.2956
6.000000 100.892 -99.1557
6.080000 100.995 -99.8340
6.150000 101.083 -100.4246
6.220000 101.169 -101.0158
6.300000 101.266 -101.6950
6.400000 101.384 -102.5445
6.500000 101.498 -103.3860
6.600000 101.609 -104.2100
6.700000 101.717 -105.0121
6.800000 101.821 -105.7986
6.900000 101.923 -106.5767
7.000000 102.021 -107.3536
7.100000 102.117 -108.1301
7.200000 102.210 -108.8994
7.300000 102.300 -109.6542
7.400000 102.388 -110.3891
7.500000 102.473 -111.1076
7.620000 102.572 -111.9532
7.750000 102.676 -112.8550
7.880000 102.777 -113.7407
8.000000 102.867 -114.5422
8.120000 102.956 -115.3268
8.250000 103.050 -116.1567
8.380000 103.141 -116.9714
8.500000 103.224 -117.7138
8.620000 103.305 -118.4448
8.750000 103.391 -119.2266
8.850000 103.455 -119.8226
9.000000 103.549 -120.7069
9.120000 103.623 -121.4039
9.250000 103.701 -122.1468
9.380000 103.778 -122.8776
9.500000 103.846 -123.5437
9.620000 103.909 -124.2034
9.750000 103.975 -124.9096
9.880000 104.033 -125.6052
10.000000 104.079 -126.2388
10.150000 104.126 -127.0177
10.300000 104.166 -127.7728
10.440000 104.196 -128.4537
10.600000 104.226 -129.2115
10.750000 104.255 -129.9031
10.900000 104.283 -130.5795
11.060000 104.315 -131.3047
11.200000 104.344 -131.9418
11.380000 104.380 -132.7563
11.500000 104.403 -133.2956
11.720000 104.445 -134.2753
11.800000 104.460 -134.6275
12.060000 104.508 -135.7597
12.200000 104.534 -136.3647
12.410000 104.572 -137.2628
12.500000 104.587 -137.6402
12.650000 104.611 -138.2605
12.800000 104.633 -138.8678
13.150000 104.681 -140.2290
13.200000 104.688 -140.4178
13.400000 104.716 -141.1584
13.600000 104.745 -141.8784
13.800000 104.774 -142.5775
14.000000 104.805 -143.2654
14.300000 104.852 -144.2813
14.500000 104.882 -144.9522
14.750000 104.921 -145.7885
15.000000 104.959 -146.6245
15.250000 104.998 -147.4660
15.500000 105.033 -148.2992
15.750000 105.066 -149.1152
16.000000 105.093 -149.8998
16.250000 105.119 -150.6508
16.500000 105.145 -151.3700
16.750000 105.173 -152.0613
17.000000 105.205 -152.7437
17.250000 105.239 -153.4276
17.500000 105.276 -154.1265
17.750000 105.309 -154.8409
18.000000 105.338 -155.5621
18.250000 105.360 -156.2795
18.500000 105.379 -156.9688
18.750000 105.395 -157.6246
19.000000 105.412 -158.2426
19.250000 105.433 -158.8395
19.500000 105.457 -159.4337
19.750000 105.484 -160.0391
20.000000 105.509 -160.6703
20.299999 105.533 -161.4480
20.600000 105.548 -162.2221
20.900000 105.554 -162.9554
21.200001 105.556 -163.6182
21.400000 105.559 -164.0239
21.799999 105.574 -164.7936
22.000000 105.587 -165.1848
22.400000 105.616 -166.0324
22.700001 105.634 -166.7250
23.000000 105.642 -167.4288
23.299999 105.641 -168.0953
23.600000 105.638 -168.7025
24.000000 105.642 -169.4376
24.299999 105.655 -169.9910
24.700001 105.678 -170.8100
25.000000 105.688 -171.4927
25.400000 105.681 -172.4195
25.799999 105.653 -173.2236
26.200001 105.626 -173.8290
26.500000 105.622 -174.1976
26.900000 105.642 -174.7044
27.200001 105.668 -175.1828
27.600000 105.699 -175.9851
28.000000 105.704 -176.8844
28.500000 105.676 -177.9202
29.000000 105.637 -178.7277
29.500000 105.613 -179.3914
30.000000 105.604 179.9477
30.400000 105.600 179.3937
30.700001 105.597 178.9689
31.100000 105.595 178.3796
31.500000 105.593 177.7375
32.000000 105.580 176.8546
32.500000 105.542 175.9874
33.000000 105.492 175.2862
33.500000 105.457 174.7451
34.000000 105.452 174.1735
34.500000 105.453 173.4149
35.000000 105.432 172.5382
35.500000 105.382 171.7637
36.000000 105.331 171.2025
36.500000 105.306 170.7451
37.000000 105.303 170.1909
37.500000 105.298 169.4698
38.200001 105.250 168.3984
38.700001 105.196 167.7809
39.500000 105.130 167.0602
40.000000 105.112 166.6105
40.599998 105.100 165.9438
41.200001 105.076 165.1640
41.799999 105.034 164.3700
42.500000 104.971 163.5200
43.099998 104.913 162.8848
43.700001 104.860 162.3264
44.400002 104.812 161.6997
45.000000 104.777 161.1077
45.500000 104.743 160.5790
46.200001 104.685 159.8734
46.799999 104.636 159.3490
47.500000 104.591 158.7638
48.200001 104.553 158.1229
48.700001 104.521 157.6376
49.400002 104.468 156.9738
50.000000 104.418 156.4492
50.799999 104.353 155.8018
51.500000 104.299 155.2370
52.200001 104.242 154.6552
53.000000 104.171 154.0060
53.799999 104.101 153.3722
54.500000 104.037 152.8173
55.200001 103.973 152.3138
56.000000 103.918 151.7835
57.000000 103.868 150.9753
58.000000 103.805 150.1357
59.000000 103.752 149.3444
60.000000 103.676 148.4231
60.799999 103.580 147.8671
61.500000 103.503 147.5717
62.200001 103.440 147.2800
63.000000 103.368 146.8542
64.000000 103.261 146.2892
65.000000 103.152 145.7232
66.000000 103.046 145.1109
67.000000 102.940 144.4568
68.000000 102.836 143.8365
69.000000 102.742 143.2787
70.000000 102.656 142.7460
71.000000 102.570 142.2513
72.000000 102.481 141.7952
73.000000 102.388 141.3549
74.000000 102.289 140.9240
75.000000 102.188 140.4985
76.199997 102.069 139.9759
77.500000 101.942 139.3894
78.800003 101.818 138.8119
80.000000 101.702 138.3148
81.199997 101.585 137.8732
82.500000 101.459 137.4240
83.800003 101.331 136.9743
85.000000 101.212 136.5609
86.199997 101.096 136.1662
87.500000 100.976 135.7705
88.500000 100.889 135.4712
90.000000 100.754 135.0017
91.199997 100.634 134.6667
92.500000 100.502 134.3660
93.800003 100.372 134.0865
95.000000 100.254 133.8203
96.199997 100.136 133.5489
97.500000 100.009 133.2883
98.800003 99.884 133.0740
100.000000 99.772 132.9061
101.500000 99.632 132.7156
103.000000 99.492 132.5046
104.400002 99.357 132.2749
106.000000 99.198 132.0236
107.500000 99.053 131.8394
109.000000 98.915 131.6797
110.599998 98.764 131.5402
112.000000 98.630 131.4705
113.800003 98.459 131.4121
115.000000 98.350 131.3905
117.199997 98.172 131.3798
118.000000 98.115 131.3649
120.599998 97.899 131.2893
122.000000 97.764 131.4068
124.099998 97.575 131.5977
125.000000 97.498 131.6354
126.500000 97.372 131.6579
128.000000 97.250 131.6751
131.500000 96.982 132.0025
132.000000 96.945 132.0716
134.000000 96.795 132.3491
136.000000 96.642 132.6073
138.000000 96.496 132.8619
140.000000 96.358 133.0966
143.000000 96.148 133.5136
145.000000 96.014 133.8489
147.500000 95.856 134.2694
150.000000 95.700 134.7318
152.500000 95.553 135.2852
155.000000 95.416 135.8680
157.500000 95.288 136.4378
160.000000 95.154 136.9252
162.500000 95.015 137.4528
165.000000 94.895 138.0146
167.500000 94.784 138.6322
170.000000 94.671 139.3016
172.500000 94.558 139.8810
175.000000 94.464 140.3372
177.500000 94.404 140.7771
180.000000 94.334 141.2615
182.500000 94.215 142.0004
185.000000 94.102 142.7833
187.500000 94.017 143.4113
190.000000 93.951 143.9840
192.500000 93.886 144.5800
195.000000 93.816 145.1600
197.500000 93.751 145.7157
200.000000 93.700 146.2944
203.000000 93.645 147.0113
206.000000 93.581 147.6969
209.000000 93.517 148.3434
212.000000 93.468 148.9498
214.000000 93.441 149.3423
218.000000 93.389 150.1422
220.000000 93.362 150.5454
224.000000 93.312 151.2722
227.000000 93.278 151.7565
230.000000 93.251 152.2553
233.000000 93.228 152.7846
236.000000 93.194 153.3038
240.000000 93.131 153.9697
243.000000 93.105 154.4325
247.000000 93.096 154.9830
250.000000 93.088 155.4054
254.000000 93.067 155.9645
258.000000 93.038 156.4654
262.000000 93.013 156.9326
265.000000 92.998 157.2792
269.000000 92.982 157.7288
272.000000 92.972 158.0432
276.000000 92.965 158.4352
280.000000 92.958 158.8144
285.000000 92.938 159.3418
290.000000 92.918 159.8184
295.000000 92.885 160.1690
300.000000 92.854 160.5008
304.000000 92.853 160.8755
307.000000 92.853 161.1751
311.000000 92.843 161.5527
315.000000 92.826 161.8684
320.000000 92.806 162.2235
325.000000 92.786 162.5901
330.000000 92.769 162.9167
335.000000 92.755 163.2059
340.000000 92.738 163.5390
345.000000 92.712 163.9283
350.000000 92.684 164.2991
355.000000 92.659 164.6036
360.000000 92.636 164.8758
365.000000 92.610 165.1374
370.000000 92.581 165.4555
375.000000 92.557 165.7780
382.000000 92.521 166.1740
387.000000 92.491 166.4537
395.000000 92.448 166.9191
400.000000 92.420 167.1918
406.000000 92.387 167.5166
412.000000 92.359 167.8661
418.000000 92.338 168.2247
425.000000 92.292 168.6588
431.000000 92.249 169.0409
437.000000 92.212 169.3895
444.000000 92.171 169.7805
450.000000 92.138 170.1268
455.000000 92.111 170.4346
462.000000 92.071 170.8698
468.000000 92.041 171.2096
475.000000 92.015 171.6014
482.000000 91.988 172.0420
487.000000 91.966 172.3494
494.000000 91.935 172.7896
500.000000 91.913 173.1782
508.000000 91.885 173.6555
515.000000 91.856 174.0692
522.000000 91.824 174.4969
530.000000 91.793 174.9663
538.000000 91.764 175.4187
545.000000 91.736 175.8902
552.000000 91.712 176.3905
560.000000 91.683 176.9254
570.000000 91.649 177.5760
580.000000 91.620 178.2527
590.000000 91.586 178.8973
600.000000 91.554 179.5251
608.000000 91.529 -179.9576
615.000000 91.510 -179.4954
622.000000 91.493 -179.0402
630.000000 91.468 -178.5245
640.000000 91.438 -177.8957
650.000000 91.414 -177.2851
660.000000 91.392 -176.6502
670.000000 91.366 -175.9259
680.000000 91.341 -175.2121
690.000000 91.320 -174.4949
700.000000 91.305 -173.7661
710.000000 91.299 -173.0460
720.000000 91.294 -172.3457
730.000000 91.284 -171.6694
740.000000 91.279 -170.9914
750.000000 91.273 -170.2880
762.000000 91.267 -169.4248
775.000000 91.271 -168.4625
788.000000 91.279 -167.5542
800.000000 91.283 -166.7464
812.000000 91.290 -165.9118
825.000000 91.304 -165.0475
838.000000 91.314 -164.2025
850.000000 91.329 -163.3261
862.000000 91.347 -162.4508
875.000000 91.367 -161.5780
885.000000 91.386 -160.9508
900.000000 91.431 -160.0240
912.000000 91.482 -159.2001
925.000000 91.535 -158.3354
938.000000 91.592 -157.5366
950.000000 91.645 -156.8182
962.000000 91.696 -156.1090
975.000000 91.749 -155.3668
988.000000 91.802 -154.6529
1000.000000 91.851 -154.0082
1015.000000 91.916 -153.2444
1030.000000 91.993 -152.5531
1044.000000 92.070 -151.9626
1060.000000 92.146 -151.3165
1075.000000 92.204 -150.7077
1090.000000 92.262 -150.0790
1106.000000 92.352 -149.4802
1120.000000 92.445 -149.0242
1138.000000 92.557 -148.4545
1150.000000 92.627 -148.0683
1172.000000 92.765 -147.4270
1180.000000 92.812 -147.2379
1206.000000 92.950 -146.5179
1220.000000 93.018 -146.1083
1241.000000 93.117 -145.5567
1250.000000 93.159 -145.3003
1265.000000 93.225 -144.8631
1280.000000 93.296 -144.4458
1315.000000 93.467 -143.4619
1320.000000 93.492 -143.3112
1340.000000 93.589 -142.7213
1360.000000 93.672 -142.1862
1380.000000 93.757 -141.6705
1400.000000 93.863 -141.1253
1430.000000 94.046 -140.3286
1450.000000 94.176 -139.8910
1475.000000 94.338 -139.4086
1500.000000 94.492 -139.0155
1525.000000 94.631 -138.7234
1550.000000 94.745 -138.4705
1575.000000 94.838 -138.2034
1600.000000 94.936 -137.9705
1625.000000 95.048 -137.7988
1650.000000 95.155 -137.6261
1675.000000 95.243 -137.4198
1700.000000 95.327 -137.1990
1725.000000 95.413 -136.9595
1750.000000 95.497 -136.6902
1775.000000 95.568 -136.4108
1800.000000 95.630 -136.0918
1825.000000 95.690 -135.7702
1850.000000 95.755 -135.4557
1875.000000 95.824 -135.1282
1900.000000 95.898 -134.8119
1925.000000 95.971 -134.4945
1950.000000 96.035 -134.1706
1975.000000 96.096 -133.8453
2000.000000 96.160 -133.5139
2030.000000 96.259 -133.1708
2060.000000 96.369 -132.8526
2090.000000 96.474 -132.5007
2120.000000 96.586 -132.1895
2140.000000 96.666 -132.0110
2180.000000 96.826 -131.6792
2200.000000 96.896 -131.5278
2240.000000 97.012 -131.2268
2270.000000 97.093 -131.0067
2300.000000 97.186 -130.8501
2330.000000 97.289 -130.7310
2360.000000 97.396 -130.6279
2400.000000 97.535 -130.5304
2430.000000 97.631 -130.4744
2470.000000 97.755 -130.4452
2500.000000 97.847 -130.4599
2540.000000 97.972 -130.5192
2580.000000 98.091 -130.6156
2620.000000 98.198 -130.7408
2650.000000 98.273 -130.8549
2690.000000 98.369 -131.0414
2720.000000 98.439 -131.2109
2760.000000 98.529 -131.4784
2800.000000 98.611 -131.7947
2850.000000 98.690 -132.2205
2900.000000 98.756 -132.6976
2950.000000 98.823 -133.2476
3000.000000 98.861 -133.7937
3040.000000 98.878 -134.2415
3070.000000 98.892 -134.6109
3110.000000 98.909 -135.1106
3150.000000 98.914 -135.6335
3200.000000 98.895 -136.2999
3250.000000 98.837 -136.8480
3300.000000 98.767 -137.2614
3350.000000 98.701 -137.5739
3400.000000 98.636 -137.7773
3450.000000 98.584 -137.8935
3500.000000 98.549 -137.9720
3550.000000 98.528 -138.1183
3600.000000 98.509 -138.3736
3650.000000 98.481 -138.7315
3700.000000 98.440 -139.1386
3750.000000 98.380 -139.5237
3820.000000 98.268 -139.9898
3870.000000 98.171 -140.2610
3950.000000 97.996 -140.5928
4000.000000 97.875 -140.7326
4060.000000 97.724 -140.8430
4120.000000 97.579 -140.9149
4180.000000 97.435 -140.9287
4250.000000 97.253 -140.8686
4310.000000 97.080 -140.7765
4370.000000 96.891 -140.6318
4440.000000 96.672 -140.4007
4500.000000 96.486 -140.1512
4550.000000 96.330 -139.9050
4620.000000 96.107 -139.5158
4680.000000 95.912 -139.1613
4750.000000 95.678 -138.7146
4820.000000 95.437 -138.2258
4870.000000 95.262 -137.8101
4940.000000 95.008 -137.0476
5000.000000 94.787 -136.1843
5080.000000 94.513 -134.7883
5150.000000 94.316 -133.4705
5220.000000 94.152 -132.1267
5300.000000 93.987 -130.6187
5380.000000 93.834 -129.1585
5450.000000 93.709 -127.8919
5520.000000 93.595 -126.6293
5600.000000 93.485 -125.1934
5700.000000 93.372 -123.3816
5800.000000 93.273 -121.5520
5900.000000 93.186 -119.6906
6000.000000 93.134 -117.8096
6080.000000 93.113 -116.2903
6150.000000 93.107 -114.9602
6220.000000 93.119 -113.6471
6300.000000 93.156 -112.1672
6400.000000 93.231 -110.3452
6500.000000 93.340 -108.5693
6600.000000 93.485 -106.8808
6700.000000 93.664 -105.3188
6800.000000 93.883 -103.9258
6900.000000 94.153 -102.7398
7000.000000 94.474 -101.7709
7100.000000 94.828 -101.0573
7200.000000 95.201 -100.6329
7300.000000 95.596 -100.5573
7400.000000 96.011 -100.9207
7500.000000 96.440 -101.8057
7620.000000 96.975 -103.6656
7750.000000 97.533 -106.9023
7880.000000 97.901 -111.6402
8000.000000 97.997 -117.2938
8120.000000 97.787 -123.7179
8250.000000 97.150 -130.4701
8380.000000 96.114 -135.6720
8500.000000 94.920 -138.3250
8620.000000 93.632 -138.8158
8750.000000 92.254 -137.2592
8850.000000 91.259 -134.9294
9000.000000 89.915 -130.1585
9120.000000 88.970 -125.6110
9250.000000 88.067 -120.2395
9380.000000 87.273 -114.5649
9500.000000 86.623 -109.1656
9620.000000 86.041 -103.6731
9750.000000 85.486 -97.6799
9880.000000 85.009 -91.7068
10000.000000 84.632 -86.2262
10150.000000 84.233 -79.3996
10300.000000 83.904 -72.7026
10440.000000 83.658 -66.6911
10600.000000 83.447 -60.1408
10750.000000 83.312 -54.3678
10900.000000 83.237 -49.0877
11060.000000 83.202 -44.1138
11200.000000 83.174 -40.4055
11380.000000 83.078 -36.4523
11500.000000 82.955 -34.0788
11720.000000 82.601 -29.1780
11800.000000 82.461 -26.9388
12060.000000 82.279 -17.6039
12200.000000 82.526 -11.8493
12410.000000 83.505 -3.7438
12500.000000 84.148 -0.8598
12650.000000 85.497 2.6314
12800.000000 87.148 3.8850
13150.000000 91.192 -7.7258
13200.000000 91.617 -11.5114
13400.000000 92.476 -30.1740
13600.000000 91.921 -47.6950
13800.000000 90.459 -57.5919
14000.000000 88.843 -60.1514
14300.000000 86.979 -56.2746
14500.000000 86.167 -51.2301
14750.000000 85.517 -43.5859
15000.000000 85.162 -35.0134
15250.000000 85.070 -26.0176
15500.000000 85.283 -17.0826
15750.000000 85.817 -8.9511
16000.000000 86.641 -2.7511
16250.000000 87.642 -0.5115
16500.000000 88.410 -4.9900
16750.000000 88.257 -16.6131
17000.000000 86.639 -30.3667
17250.000000 83.579 -46.5800
17500.000000 79.514 -123.7493
17750.000000 75.038 -119.9301
18000.000000 71.447 -171.9070
18250.000000 69.478 168.9636
18500.000000 68.573 88.5503
18750.000000 69.641 172.2129
19000.000000 71.226 -15.3323
19250.000000 72.554 -101.9487
19500.000000 73.593 -112.9028
19750.000000 74.398 -103.0037
20000.000000 74.933 -90.0168
20300.000000 75.329 -73.3774
20600.000000 75.683 -56.1040
20900.000000 76.014 -38.3247
21200.000000 76.322 -20.0740
21400.000000 76.550 -7.6709
21800.000000 77.130 13.3345
22000.000000 77.457 3.3301
22400.000000 77.436 -173.5129
22700.000000 75.401 -93.0688
23000.000000 71.131 -131.6768
23300.000000 67.122 -98.5762
23600.000000 65.815 144.3438
24000.000000 65.843 -8.6445
