* Measurement data measured by REW V5.20.13
* Source: Trace Arithmetic result A * B
* Format: Trace Arithmetic result A * B
* Dated: Aug 6, 2023 12:00:37 PM
* REW Settings:
*  C-weighting compensation: Off
*  Target level: 75.0 dB
* Note: Trace Arithmetic A times B A = EQ Flat @ 0 B = Delta 10dB
* Measurement: A times B
* Smoothing: 1/24 octave
* Frequency Step: 1/48 octave
* Start Frequency: 20.000 Hz
*
* Freq(Hz)	SPL(dB)
20.000000	5.391
20.299999	5.386
20.600000	5.382
20.900000	5.378
21.200001	5.375
21.400000	5.373
21.799999	5.368
22.000000	5.366
22.400000	5.359
22.700001	5.353
23.000000	5.347
23.299999	5.340
23.600000	5.333
24.000000	5.322
24.299999	5.314
24.700001	5.302
25.000000	5.293
25.400000	5.280
25.799999	5.267
26.200001	5.254
26.500000	5.244
26.900000	5.230
27.200001	5.219
27.600000	5.204
28.000000	5.190
28.500000	5.171
29.000000	5.152
29.500000	5.133
30.000000	5.115
30.400000	5.099
30.700001	5.088
31.100000	5.072
31.500000	5.056
32.000000	5.037
32.500000	5.018
33.000000	4.999
33.500000	4.980
34.000000	4.961
34.500000	4.942
35.000000	4.924
35.500000	4.906
36.000000	4.888
36.500000	4.870
37.000000	4.853
37.500000	4.836
38.200001	4.814
38.700001	4.798
39.500000	4.773
40.000000	4.758
40.599998	4.741
41.200001	4.725
41.799999	4.709
42.500000	4.691
43.099998	4.676
43.700001	4.662
44.400002	4.645
45.000000	4.632
45.500000	4.622
46.200001	4.607
46.799999	4.595
47.500000	4.581
48.200001	4.568
48.700001	4.559
49.400002	4.546
50.000000	4.536
50.799999	4.522
51.500000	4.511
52.200001	4.499
53.000000	4.486
53.799999	4.474
54.500000	4.463
55.200001	4.452
56.000000	4.440
57.000000	4.425
58.000000	4.409
59.000000	4.394
60.000000	4.379
60.799999	4.367
61.500000	4.357
62.200001	4.346
63.000000	4.334
64.000000	4.319
65.000000	4.304
66.000000	4.289
67.000000	4.274
68.000000	4.258
69.000000	4.242
70.000000	4.227
71.000000	4.211
72.000000	4.195
73.000000	4.179
74.000000	4.163
75.000000	4.147
76.199997	4.128
77.500000	4.107
78.800003	4.086
80.000000	4.067
81.199997	4.048
82.500000	4.027
83.800003	4.007
85.000000	3.988
86.199997	3.968
87.500000	3.948
88.500000	3.932
90.000000	3.908
91.199997	3.889
92.500000	3.868
93.800003	3.847
95.000000	3.828
96.199997	3.808
97.500000	3.786
98.800003	3.764
100.000000	3.744
101.500000	3.719
103.000000	3.693
104.400002	3.669
106.000000	3.641
107.500000	3.615
109.000000	3.588
110.599998	3.560
112.000000	3.535
113.800003	3.504
115.000000	3.482
117.199997	3.442
118.000000	3.428
120.599998	3.382
122.000000	3.357
124.099998	3.320
125.000000	3.304
126.500000	3.278
128.000000	3.253
131.500000	3.193
132.000000	3.184
134.000000	3.151
136.000000	3.118
138.000000	3.086
140.000000	3.055
143.000000	3.009
145.000000	2.979
147.500000	2.942
150.000000	2.907
152.500000	2.872
155.000000	2.838
157.500000	2.806
160.000000	2.774
162.500000	2.743
165.000000	2.712
167.500000	2.682
170.000000	2.653
172.500000	2.624
175.000000	2.597
177.500000	2.569
180.000000	2.543
182.500000	2.517
185.000000	2.492
187.500000	2.468
190.000000	2.444
192.500000	2.421
195.000000	2.398
197.500000	2.377
200.000000	2.355
203.000000	2.331
206.000000	2.308
209.000000	2.286
212.000000	2.264
214.000000	2.250
218.000000	2.223
220.000000	2.211
224.000000	2.187
227.000000	2.171
230.000000	2.155
233.000000	2.140
236.000000	2.126
240.000000	2.108
243.000000	2.096
247.000000	2.080
250.000000	2.069
254.000000	2.055
258.000000	2.041
262.000000	2.027
265.000000	2.017
269.000000	2.004
272.000000	1.995
276.000000	1.983
280.000000	1.971
285.000000	1.956
290.000000	1.943
295.000000	1.929
300.000000	1.916
304.000000	1.906
307.000000	1.899
311.000000	1.889
315.000000	1.879
320.000000	1.868
325.000000	1.857
330.000000	1.846
335.000000	1.836
340.000000	1.825
345.000000	1.816
350.000000	1.806
355.000000	1.797
360.000000	1.788
365.000000	1.779
370.000000	1.769
375.000000	1.760
382.000000	1.747
387.000000	1.737
395.000000	1.721
400.000000	1.710
406.000000	1.696
412.000000	1.683
418.000000	1.668
425.000000	1.651
431.000000	1.636
437.000000	1.620
444.000000	1.601
450.000000	1.586
455.000000	1.572
462.000000	1.554
468.000000	1.538
475.000000	1.519
482.000000	1.500
487.000000	1.487
494.000000	1.468
500.000000	1.452
508.000000	1.430
515.000000	1.411
522.000000	1.392
530.000000	1.371
538.000000	1.350
545.000000	1.332
552.000000	1.315
560.000000	1.295
570.000000	1.272
580.000000	1.250
590.000000	1.229
600.000000	1.209
608.000000	1.192
615.000000	1.178
622.000000	1.164
630.000000	1.148
640.000000	1.128
650.000000	1.107
660.000000	1.086
670.000000	1.064
680.000000	1.042
690.000000	1.019
700.000000	0.995
710.000000	0.972
720.000000	0.949
730.000000	0.926
740.000000	0.905
750.000000	0.884
762.000000	0.862
775.000000	0.839
788.000000	0.820
800.000000	0.805
812.000000	0.792
825.000000	0.781
838.000000	0.774
850.000000	0.769
862.000000	0.766
875.000000	0.765
885.000000	0.765
900.000000	0.768
912.000000	0.771
925.000000	0.777
938.000000	0.785
950.000000	0.795
962.000000	0.807
975.000000	0.824
988.000000	0.845
1000.000000	0.869
1015.000000	0.904
1030.000000	0.946
1044.000000	0.989
1060.000000	1.044
1075.000000	1.097
1090.000000	1.151
1106.000000	1.207
1120.000000	1.253
1138.000000	1.310
1150.000000	1.346
1172.000000	1.406
1180.000000	1.427
1206.000000	1.495
1220.000000	1.532
1241.000000	1.589
1250.000000	1.614
1265.000000	1.658
1280.000000	1.704
1315.000000	1.816
1320.000000	1.833
1340.000000	1.900
1360.000000	1.970
1380.000000	2.041
1400.000000	2.112
1430.000000	2.219
1450.000000	2.292
1475.000000	2.383
1500.000000	2.476
1525.000000	2.571
1550.000000	2.668
1575.000000	2.767
1600.000000	2.867
1625.000000	2.968
1650.000000	3.071
1675.000000	3.176
1700.000000	3.283
1725.000000	3.393
1750.000000	3.506
1775.000000	3.623
1800.000000	3.745
1825.000000	3.871
1850.000000	4.001
1875.000000	4.136
1900.000000	4.275
1925.000000	4.419
1950.000000	4.568
1975.000000	4.722
2000.000000	4.882
2030.000000	5.081
2060.000000	5.288
2090.000000	5.504
2120.000000	5.725
2140.000000	5.875
2180.000000	6.176
2200.000000	6.324
2240.000000	6.608
2270.000000	6.806
2300.000000	6.990
2330.000000	7.160
2360.000000	7.318
2400.000000	7.515
2430.000000	7.655
2470.000000	7.833
2500.000000	7.962
2540.000000	8.129
2580.000000	8.290
2620.000000	8.445
2650.000000	8.557
2690.000000	8.701
2720.000000	8.802
2760.000000	8.927
2800.000000	9.040
2850.000000	9.162
2900.000000	9.262
2950.000000	9.340
3000.000000	9.397
3040.000000	9.428
3070.000000	9.443
3110.000000	9.453
3150.000000	9.451
3200.000000	9.433
3250.000000	9.399
3300.000000	9.350
3350.000000	9.286
3400.000000	9.211
3450.000000	9.126
3500.000000	9.033
3550.000000	8.935
3600.000000	8.833
3650.000000	8.728
3700.000000	8.621
3750.000000	8.514
3820.000000	8.365
3870.000000	8.263
3950.000000	8.106
4000.000000	8.012
4060.000000	7.906
4120.000000	7.803
4180.000000	7.701
4250.000000	7.582
4310.000000	7.475
4370.000000	7.363
4440.000000	7.227
4500.000000	7.110
4550.000000	7.013
4620.000000	6.881
4680.000000	6.773
4750.000000	6.652
4820.000000	6.536
4870.000000	6.456
4940.000000	6.349
5000.000000	6.262
5080.000000	6.156
5150.000000	6.072
5220.000000	5.998
5300.000000	5.921
5380.000000	5.848
5450.000000	5.785
5520.000000	5.722
5600.000000	5.647
5700.000000	5.551
5800.000000	5.455
5900.000000	5.361
6000.000000	5.274
6080.000000	5.210
6150.000000	5.160
6220.000000	5.117
6300.000000	5.075
6400.000000	5.037
6500.000000	5.012
6600.000000	5.002
6700.000000	5.004
6800.000000	5.018
6900.000000	5.040
7000.000000	5.067
7100.000000	5.094
7200.000000	5.119
7300.000000	5.138
7400.000000	5.145
7500.000000	5.137
7620.000000	5.103
7750.000000	5.030
7880.000000	4.913
8000.000000	4.763
8120.000000	4.570
8250.000000	4.313
8380.000000	4.010
8500.000000	3.694
8620.000000	3.352
8750.000000	2.963
8850.000000	2.664
9000.000000	2.235
9120.000000	1.929
9250.000000	1.652
9380.000000	1.443
9500.000000	1.313
9620.000000	1.244
9750.000000	1.234
9880.000000	1.288
10000.000000	1.397
10150.000000	1.613
10300.000000	1.910
10440.000000	2.238
10600.000000	2.604
10750.000000	2.854
10900.000000	2.947
11060.000000	2.859
11200.000000	2.650
11380.000000	2.250
11500.000000	1.930
11720.000000	1.263
11800.000000	1.008
12060.000000	0.196
12200.000000	-0.186
12410.000000	-0.633
12500.000000	-0.781
12650.000000	-0.977
12800.000000	-1.121
13150.000000	-1.329
13200.000000	-1.351
13400.000000	-1.435
13600.000000	-1.529
13800.000000	-1.650
14000.000000	-1.804
14300.000000	-2.094
14500.000000	-2.313
14750.000000	-2.595
15000.000000	-2.854
15250.000000	-3.058
15500.000000	-3.186
15750.000000	-3.233
16000.000000	-3.207
16250.000000	-3.127
16500.000000	-3.015
16750.000000	-2.892
17000.000000	-2.778
17250.000000	-2.688
17500.000000	-2.639
17750.000000	-2.651
18000.000000	-2.745
18250.000000	-2.943
18500.000000	-3.264
18750.000000	-3.722
19000.000000	-4.319
19250.000000	-5.047
19500.000000	-5.909
19750.000000	-7.125
20000.000000	-9.875
