* Measurement data measured by REW V5.30.9
* Source: Headset (Odo By VECLAN.COM), MICROPHONE (Master Volume), L, volume: 0.250
* Format: 128k Log Swept Sine, 1 sweep at -12.0 dBFS with no timing reference
* Dated: 10 9, 24 9:52:16 PM
* REW Settings:
*  C-weighting compensation: Off
*  Target level: 75.0 dB
* Note: 
* Measurement: 0.11 xeno L
* Smoothing: None
* Frequency Step: 1/48 octave
* Start Frequency: 1.000 Hz
*
* Freq(Hz)	SPL(dB)	Phase(degrees)
1.000000	50.853	83.7058
1.015000	50.850	83.6271
1.030000	50.847	83.5843
1.044000	50.843	83.5774
1.060000	50.839	83.6095
1.075000	50.835	83.6788
1.090000	50.833	83.7870
1.106000	50.830	83.9472
1.120000	50.822	84.1322
1.138000	50.803	84.4313
1.150000	50.785	84.6672
1.172000	50.744	85.1718
1.180000	50.726	85.3774
1.206000	50.663	86.1220
1.220000	50.626	86.5687
1.241000	50.567	87.2943
1.250000	50.542	87.6245
1.265000	50.500	88.1986
1.280000	50.458	88.8010
1.315000	50.368	90.3047
1.320000	50.357	90.5296
1.340000	50.315	91.4515
1.360000	50.282	92.4053
1.380000	50.259	93.3863
1.400000	50.248	94.3895
1.430000	50.259	95.9256
1.450000	50.287	96.9634
1.475000	50.348	98.2818
1.500000	50.430	99.7347
1.525000	50.531	101.3271
1.550000	50.649	103.0331
1.575000	50.783	104.8265
1.600000	50.931	106.6812
1.625000	51.091	108.5711
1.650000	51.263	110.4702
1.675000	51.446	112.3523
1.700000	51.636	114.1913
1.725000	51.834	115.9612
1.750000	52.038	117.6359
1.775000	52.246	119.1892
1.800000	52.456	120.5951
1.825000	52.669	121.8275
1.850000	52.886	122.8909
1.875000	53.120	123.8488
1.900000	53.368	124.7098
1.925000	53.628	125.4798
1.950000	53.897	126.1646
1.975000	54.174	126.7702
2.000000	54.455	127.3025
2.030000	54.794	127.8525
2.060000	55.132	128.3155
2.090000	55.464	128.7015
2.120000	55.787	129.0208
2.140000	55.995	129.2015
2.180000	56.386	129.4994
2.200000	56.568	129.6223
2.240000	56.916	129.7371
2.270000	57.169	129.6964
2.300000	57.415	129.5620
2.330000	57.653	129.3470
2.360000	57.884	129.0651
2.400000	58.179	128.6080
2.430000	58.390	128.2217
2.470000	58.658	127.6740
2.500000	58.848	127.2561
2.540000	59.086	126.7150
2.580000	59.307	126.2084
2.620000	59.511	125.6511
2.650000	59.652	125.1938
2.690000	59.825	124.5450
2.720000	59.945	124.0385
2.760000	60.091	123.3503
2.800000	60.224	122.6629
2.850000	60.370	121.8307
2.900000	60.496	121.0595
2.950000	60.603	120.3700
3.000000	60.686	119.6808
3.040000	60.735	119.1299
3.070000	60.762	118.7269
3.110000	60.788	118.2150
3.150000	60.802	117.7460
3.200000	60.805	117.2427
3.250000	60.794	116.8589
3.300000	60.773	116.6234
3.350000	60.731	116.4891
3.400000	60.665	116.4258
3.450000	60.582	116.4580
3.500000	60.489	116.6100
3.550000	60.391	116.9062
3.600000	60.294	117.3710
3.650000	60.206	118.0287
3.700000	60.122	118.9028
3.750000	60.023	119.9880
3.820000	59.877	121.8085
3.870000	59.780	123.2855
3.950000	59.663	125.8761
4.000000	59.630	127.5930
4.060000	59.640	129.7526
4.120000	59.690	132.1955
4.180000	59.775	134.8376
4.250000	59.916	138.0052
4.310000	60.072	140.6506
4.370000	60.257	143.0997
4.440000	60.518	145.6360
4.500000	60.793	147.6940
4.550000	61.048	149.3246
4.620000	61.433	151.4520
4.680000	61.772	153.1070
4.750000	62.161	154.8097
4.820000	62.542	156.2295
4.870000	62.821	157.0739
4.940000	63.219	158.0607
5.000000	63.559	158.7630
5.080000	64.004	159.5564
5.150000	64.378	160.1677
5.220000	64.740	160.6415
5.300000	65.145	161.0144
5.380000	65.541	161.2513
5.450000	65.881	161.3834
5.520000	66.215	161.4729
5.600000	66.587	161.4930
5.700000	67.042	161.3838
5.800000	67.486	161.1335
5.900000	67.923	160.7502
6.000000	68.352	160.2360
6.080000	68.689	159.7243
6.150000	68.977	159.1991
6.220000	69.258	158.5981
6.300000	69.573	157.8151
6.400000	69.957	156.6973
6.500000	70.325	155.4347
6.600000	70.671	154.0375
6.700000	70.998	152.4895
6.800000	71.305	150.7992
6.900000	71.586	149.0013
7.000000	71.838	147.1214
7.100000	72.063	145.1228
7.200000	72.261	143.0396
7.300000	72.425	140.9244
7.400000	72.555	138.7877
7.500000	72.654	136.5912
7.620000	72.726	133.9724
7.750000	72.745	131.2554
7.880000	72.701	128.5795
8.000000	72.608	126.2970
8.120000	72.462	124.3214
8.250000	72.239	122.4047
8.380000	71.972	120.9830
8.500000	71.694	120.3009
8.620000	71.368	120.1146
8.750000	71.036	120.6349
8.850000	70.830	121.6999
9.000000	70.551	124.4008
9.120000	70.442	127.0121
9.250000	70.524	130.0884
9.380000	70.773	133.5970
9.500000	71.116	136.4010
9.620000	71.572	138.3503
9.750000	72.199	139.8300
9.880000	72.838	140.5164
10.000000	73.400	140.2994
10.150000	74.098	139.0562
10.300000	74.714	137.1823
10.440000	75.212	134.7913
10.600000	75.691	131.6074
10.750000	76.041	128.4173
10.900000	76.301	124.9985
11.060000	76.483	121.4440
11.200000	76.559	118.3516
11.380000	76.566	114.7076
11.500000	76.510	112.5197
11.720000	76.327	109.1588
11.800000	76.244	108.2270
12.060000	75.931	106.1589
12.200000	75.794	105.7145
12.410000	75.643	105.7719
12.500000	75.629	105.8803
12.650000	75.670	106.2988
12.800000	75.771	106.6525
13.150000	76.205	106.3871
13.200000	76.271	106.2058
13.400000	76.544	105.0414
13.600000	76.773	103.4662
13.800000	76.931	101.5236
14.000000	77.014	99.6167
14.300000	77.003	97.0637
14.500000	76.936	95.9053
14.750000	76.856	95.1160
15.000000	76.818	95.0216
15.250000	76.887	95.2416
15.500000	77.043	95.3160
15.750000	77.265	95.0198
16.000000	77.491	94.1665
16.250000	77.680	92.9943
16.500000	77.817	91.6803
16.750000	77.896	90.5198
17.000000	77.960	89.6958
17.250000	78.036	89.1766
17.500000	78.160	88.8866
17.750000	78.342	88.4713
18.000000	78.560	87.7745
18.250000	78.789	86.6254
18.500000	78.976	85.0761
18.750000	79.103	83.3080
19.000000	79.151	81.4947
19.250000	79.129	79.9655
19.500000	79.066	78.8622
19.750000	78.989	78.2829
20.000000	78.951	78.1893
20.299999	78.989	78.3648
20.600000	79.121	78.4640
20.900000	79.312	78.1171
21.200001	79.498	77.1860
21.400000	79.588	76.3430
21.799999	79.663	74.4942
22.000000	79.648	73.7002
22.400000	79.551	72.7669
22.700001	79.477	72.7514
23.000000	79.462	73.2016
23.299999	79.526	73.7926
23.600000	79.662	74.2336
24.000000	79.905	74.2808
24.299999	80.087	73.8820
24.700001	80.290	72.9501
25.000000	80.403	72.1233
25.400000	80.507	71.0263
25.799999	80.574	70.0443
26.200001	80.619	69.2328
26.500000	80.649	68.7498
26.900000	80.699	68.2487
27.200001	80.753	67.9120
27.600000	80.846	67.3827
28.000000	80.943	66.6486
28.500000	81.027	65.5269
29.000000	81.058	64.5649
29.500000	81.087	64.0131
30.000000	81.174	63.6301
30.400000	81.274	63.1575
30.700001	81.347	62.6683
31.100000	81.423	61.9737
31.500000	81.482	61.4010
32.000000	81.579	60.8955
32.500000	81.725	60.2992
33.000000	81.873	59.3178
33.500000	81.966	58.1200
34.000000	82.007	57.1010
34.500000	82.044	56.3788
35.000000	82.105	55.7404
35.500000	82.170	55.0040
36.000000	82.220	54.2446
36.500000	82.262	53.5904
37.000000	82.320	53.0148
37.500000	82.396	52.3980
38.200001	82.514	51.3570
38.700001	82.594	50.4896
39.500000	82.678	49.0350
40.000000	82.701	48.3302
40.599998	82.740	47.8789
41.200001	82.840	47.6006
41.799999	82.980	47.0593
42.500000	83.098	46.0348
43.099998	83.124	45.2594
43.700001	83.124	44.9361
44.400002	83.180	44.9255
45.000000	83.288	44.6299
45.500000	83.363	43.9777
46.200001	83.388	42.8348
46.799999	83.362	42.0727
47.500000	83.350	41.4070
48.200001	83.375	40.7201
48.700001	83.412	40.1513
49.400002	83.474	39.1570
50.000000	83.504	38.2561
50.799999	83.541	37.5054
51.500000	83.645	36.9964
52.200001	83.746	36.1321
53.000000	83.772	35.3632
53.799999	83.806	35.2100
54.500000	83.860	35.0957
55.200001	83.914	35.0487
56.000000	84.032	34.7581
57.000000	84.092	33.1636
58.000000	83.947	32.1331
59.000000	83.936	31.7588
60.000000	83.940	30.5908
60.799999	83.924	30.0236
61.500000	83.972	29.4189
62.200001	83.960	28.5927
63.000000	83.928	28.6969
64.000000	84.185	28.3361
65.000000	84.108	26.3869
66.000000	84.055	27.7093
67.000000	84.359	26.5689
68.000000	84.215	25.3161
69.000000	84.306	25.2659
70.000000	84.281	23.9976
71.000000	84.331	24.0394
72.000000	84.399	22.5587
73.000000	84.317	22.1429
74.000000	84.354	21.5197
75.000000	84.278	21.3452
76.199997	84.424	20.8013
77.500000	84.309	19.6619
78.800003	84.398	19.4404
80.000000	84.403	18.5070
81.199997	84.450	18.1423
82.500000	84.441	17.1650
83.800003	84.377	17.0977
85.000000	84.400	16.6035
86.199997	84.355	15.7192
87.500000	84.294	15.3026
88.500000	84.412	14.9093
90.000000	84.486	13.3262
91.199997	84.552	12.5684
92.500000	84.485	12.3106
93.800003	84.544	12.5671
95.000000	84.466	12.5545
96.199997	84.504	12.7032
97.500000	84.425	11.6007
98.800003	84.413	11.4692
100.000000	84.457	9.8858
101.500000	84.371	9.5868
103.000000	84.457	8.6495
104.400002	84.400	9.0965
106.000000	84.504	8.1222
107.500000	84.373	7.8284
109.000000	84.370	6.8863
110.599998	84.352	6.5927
112.000000	84.373	5.7059
113.800003	84.426	5.7716
115.000000	84.415	5.0697
117.199997	84.357	5.1360
118.000000	84.376	4.6455
120.599998	84.307	3.8460
122.000000	84.260	2.9700
124.099998	84.290	2.6636
125.000000	84.273	2.3804
126.500000	84.243	1.9416
128.000000	84.238	1.7335
131.500000	84.251	0.5150
132.000000	84.236	0.3402
134.000000	84.228	-0.0020
136.000000	84.187	-0.3372
138.000000	84.155	-0.6251
140.000000	84.098	-1.1566
143.000000	84.076	-2.0050
145.000000	84.077	-2.3713
147.500000	84.041	-2.7310
150.000000	83.998	-3.3975
152.500000	83.978	-3.8181
155.000000	83.955	-4.3831
157.500000	83.924	-4.5785
160.000000	83.871	-5.1111
162.500000	83.836	-5.5162
165.000000	83.774	-5.9443
167.500000	83.701	-6.4455
170.000000	83.656	-6.7173
172.500000	83.606	-7.2202
175.000000	83.564	-7.6543
177.500000	83.500	-7.8851
180.000000	83.468	-8.2020
182.500000	83.410	-8.4730
185.000000	83.353	-8.9233
187.500000	83.314	-9.1275
190.000000	83.229	-9.4841
192.500000	83.178	-9.7766
195.000000	83.141	-10.4281
197.500000	83.105	-10.2285
200.000000	83.058	-10.5095
203.000000	83.002	-10.7839
206.000000	82.942	-11.2147
209.000000	82.899	-11.4197
212.000000	82.865	-11.7869
214.000000	82.820	-11.8632
218.000000	82.729	-12.2755
220.000000	82.720	-12.7395
224.000000	82.680	-12.8419
227.000000	82.631	-12.9538
230.000000	82.542	-12.8785
233.000000	82.511	-13.4062
236.000000	82.468	-13.2019
240.000000	82.376	-13.9441
243.000000	82.313	-13.8504
247.000000	82.236	-14.1489
250.000000	82.200	-14.2107
254.000000	82.091	-14.4956
258.000000	82.025	-14.6879
262.000000	81.994	-14.1732
265.000000	81.930	-14.6795
269.000000	81.835	-14.9888
272.000000	81.779	-14.6532
276.000000	81.753	-15.0367
280.000000	81.716	-14.9101
285.000000	81.637	-14.6494
290.000000	81.581	-15.1170
295.000000	81.488	-15.2612
300.000000	81.414	-15.4441
304.000000	81.374	-15.5507
307.000000	81.309	-15.5986
311.000000	81.278	-15.7617
315.000000	81.187	-15.9636
320.000000	81.082	-15.4929
325.000000	81.074	-15.7478
330.000000	80.987	-15.6710
335.000000	80.880	-15.5776
340.000000	80.842	-15.9517
345.000000	80.732	-15.3145
350.000000	80.715	-15.6999
355.000000	80.656	-15.2992
360.000000	80.501	-15.4073
365.000000	80.453	-15.5169
370.000000	80.376	-15.3715
375.000000	80.334	-15.1710
382.000000	80.254	-14.7325
387.000000	80.172	-14.9529
395.000000	80.061	-14.5068
400.000000	80.074	-14.7035
406.000000	79.966	-14.2484
412.000000	79.912	-14.2554
418.000000	79.817	-14.1798
425.000000	79.754	-14.0287
431.000000	79.688	-13.9083
437.000000	79.616	-13.8001
444.000000	79.517	-13.5600
450.000000	79.462	-13.2658
455.000000	79.408	-13.0781
462.000000	79.327	-12.7578
468.000000	79.263	-12.6293
475.000000	79.197	-12.1547
482.000000	79.110	-11.9972
487.000000	79.055	-11.8249
494.000000	78.947	-11.4191
500.000000	78.907	-11.2129
508.000000	78.840	-10.7915
515.000000	78.783	-10.3086
522.000000	78.699	-9.8996
530.000000	78.655	-9.5280
538.000000	78.589	-8.8802
545.000000	78.503	-8.5936
552.000000	78.460	-8.4343
560.000000	78.424	-7.8743
570.000000	78.359	-7.5465
580.000000	78.211	-6.8023
590.000000	78.161	-6.4333
600.000000	78.095	-5.6318
608.000000	78.048	-5.1253
615.000000	78.002	-4.7580
622.000000	77.943	-4.0912
630.000000	77.924	-3.8265
640.000000	77.841	-3.2506
650.000000	77.782	-2.6697
660.000000	77.700	-1.9998
670.000000	77.666	-1.0730
680.000000	77.618	-0.4376
690.000000	77.577	0.0355
700.000000	77.521	0.8873
710.000000	77.498	1.3971
720.000000	77.430	2.3186
730.000000	77.406	2.9357
740.000000	77.366	3.7050
750.000000	77.305	4.4809
762.000000	77.297	5.3436
775.000000	77.263	6.1705
788.000000	77.226	7.3700
800.000000	77.196	8.1991
812.000000	77.162	8.9124
825.000000	77.150	10.0587
838.000000	77.154	11.0462
850.000000	77.148	11.9535
862.000000	77.151	12.7819
875.000000	77.128	14.1488
885.000000	77.145	14.6814
900.000000	77.160	15.7699
912.000000	77.164	16.5425
925.000000	77.154	17.4427
938.000000	77.206	18.4098
950.000000	77.197	19.3164
962.000000	77.206	20.1853
975.000000	77.214	21.2748
988.000000	77.254	22.5342
1000.000000	77.373	23.7428
1015.000000	77.520	24.0538
1030.000000	77.498	24.7564
1044.000000	77.565	25.4862
1060.000000	77.578	26.5484
1075.000000	77.574	27.7357
1090.000000	77.700	29.4394
1106.000000	77.929	30.4970
1120.000000	78.077	30.7322
1138.000000	78.156	31.1656
1150.000000	78.223	31.4355
1172.000000	78.365	32.2224
1180.000000	78.375	32.3443
1206.000000	78.499	33.1490
1220.000000	78.599	33.8473
1241.000000	78.662	34.4624
1250.000000	78.687	34.7455
1265.000000	78.750	35.3790
1280.000000	78.791	35.9601
1315.000000	79.041	37.0913
1320.000000	79.054	37.3721
1340.000000	79.192	37.8263
1360.000000	79.273	38.4433
1380.000000	79.368	39.1474
1400.000000	79.437	39.7120
1430.000000	79.622	40.3775
1450.000000	79.677	41.1832
1475.000000	79.819	41.7747
1500.000000	79.930	42.4837
1525.000000	80.062	43.0986
1550.000000	80.195	43.7416
1575.000000	80.331	44.4296
1600.000000	80.450	45.0226
1625.000000	80.599	45.6614
1650.000000	80.744	46.4511
1675.000000	80.904	47.0915
1700.000000	81.012	47.3375
1725.000000	81.183	48.1892
1750.000000	81.295	48.5285
1775.000000	81.486	49.3426
1800.000000	81.654	49.6313
1825.000000	81.796	49.8905
1850.000000	81.969	50.4006
1875.000000	82.146	50.7835
1900.000000	82.305	51.1931
1925.000000	82.500	51.7835
1950.000000	82.712	51.7808
1975.000000	82.871	51.8077
2000.000000	83.065	52.1124
2030.000000	83.245	52.5454
2060.000000	83.495	52.6273
2090.000000	83.731	52.7413
2120.000000	83.982	53.0834
2140.000000	84.173	53.0996
2180.000000	84.530	53.1949
2200.000000	84.697	53.3204
2240.000000	85.164	53.1660
2270.000000	85.540	53.1885
2300.000000	85.887	52.6245
2330.000000	86.439	51.7428
2360.000000	86.888	50.7607
2400.000000	87.574	46.7761
2430.000000	88.020	42.8924
2470.000000	88.307	36.9168
2500.000000	88.282	32.1569
2540.000000	88.044	27.2791
2580.000000	87.692	23.5888
2620.000000	87.292	21.1425
2650.000000	87.009	19.8710
2690.000000	86.715	18.7928
2720.000000	86.519	18.0505
2760.000000	86.264	17.2908
2800.000000	86.087	16.4853
2850.000000	85.845	15.7600
2900.000000	85.613	15.2630
2950.000000	85.410	14.9722
3000.000000	85.210	14.7866
3040.000000	85.090	14.8313
3070.000000	85.015	14.9828
3110.000000	84.931	15.0724
3150.000000	84.884	15.1516
3200.000000	84.849	15.2145
3250.000000	84.800	14.9104
3300.000000	84.721	14.5713
3350.000000	84.636	14.2156
3400.000000	84.542	14.0193
3450.000000	84.456	14.0353
3500.000000	84.379	14.1745
3550.000000	84.344	14.4798
3600.000000	84.347	14.8320
3650.000000	84.406	15.2508
3700.000000	84.506	15.5060
3750.000000	84.672	15.6011
3820.000000	84.958	15.1106
3870.000000	85.209	14.3553
3950.000000	85.625	11.9053
4000.000000	85.858	9.7676
4060.000000	86.131	6.4573
4120.000000	86.294	2.4639
4180.000000	86.356	-2.0323
4250.000000	86.245	-7.5505
4310.000000	85.999	-12.3385
4370.000000	85.617	-16.7476
4440.000000	85.052	-21.2836
4500.000000	84.473	-24.5296
4550.000000	83.950	-26.6904
4620.000000	83.200	-29.0231
4680.000000	82.546	-30.4110
4750.000000	81.793	-31.3494
4820.000000	81.065	-31.6353
4870.000000	80.563	-31.4663
4940.000000	79.904	-30.9390
5000.000000	79.365	-30.2374
5080.000000	78.640	-28.8112
5150.000000	78.039	-27.1434
5220.000000	77.517	-24.5908
5300.000000	77.040	-22.7380
5380.000000	76.555	-20.4496
5450.000000	76.156	-18.2396
5520.000000	75.784	-15.8673
5600.000000	75.419	-12.9430
5700.000000	75.005	-9.1740
5800.000000	74.677	-5.3723
5900.000000	74.418	-1.2456
6000.000000	74.208	2.9017
6080.000000	74.103	6.0500
6150.000000	74.040	9.3578
6220.000000	74.001	12.3950
6300.000000	73.988	15.6778
6400.000000	74.079	20.0404
6500.000000	74.249	24.3629
6600.000000	74.469	28.7052
6700.000000	74.774	32.8884
6800.000000	75.141	37.0902
6900.000000	75.600	41.1436
7000.000000	76.109	44.9268
7100.000000	76.769	48.5463
7200.000000	77.508	51.6352
7300.000000	78.339	54.4220
7400.000000	79.337	56.4196
7500.000000	80.460	57.3396
7620.000000	82.014	56.1572
7750.000000	83.871	50.6241
7880.000000	85.501	38.3158
8000.000000	86.021	21.2185
8120.000000	85.071	4.8223
8250.000000	83.148	-6.4288
8380.000000	81.104	-11.5186
8500.000000	79.395	-12.7586
8620.000000	77.881	-12.0870
8750.000000	76.439	-10.1516
8850.000000	75.449	-8.1501
9000.000000	74.099	-4.6783
9120.000000	73.055	-2.1591
9250.000000	71.990	1.1419
9380.000000	71.011	3.8120
9500.000000	69.989	6.0526
9620.000000	68.828	7.8823
9750.000000	67.436	10.7293
9880.000000	65.948	14.0501
10000.000000	64.351	16.8140
10150.000000	62.092	24.3100
10300.000000	60.146	33.8674
10440.000000	58.092	46.7055
10600.000000	56.187	65.5732
10750.000000	54.817	84.8240
10900.000000	54.154	104.6203
11060.000000	54.083	122.5238
11200.000000	53.642	139.9964
11380.000000	53.986	164.7653
11500.000000	55.125	178.5582
11720.000000	56.557	-164.9336
11800.000000	57.088	-159.4282
12060.000000	57.809	-142.8577
12200.000000	57.982	-130.4424
12410.000000	58.953	-114.0626
12500.000000	59.335	-106.7381
12650.000000	60.029	-96.4168
12800.000000	60.780	-85.9175
13150.000000	62.619	-59.6719
13200.000000	62.935	-55.6410
13400.000000	64.200	-39.0876
13600.000000	66.069	-20.3553
13800.000000	69.143	0.9088
14000.000000	74.475	18.3969
14300.000000	85.764	-3.9529
14500.000000	88.086	-60.6147
14750.000000	82.527	-102.2141
15000.000000	77.631	-106.9550
15250.000000	74.425	-99.5684
15500.000000	72.396	-88.8963
15750.000000	71.031	-76.6263
16000.000000	70.500	-65.7463
16250.000000	70.280	-56.3469
16500.000000	73.633	-48.6766
16750.000000	69.349	-63.1978
17000.000000	66.286	-53.8570
17250.000000	64.055	-32.8820
17500.000000	63.453	-9.4507
17750.000000	63.701	9.4758
18000.000000	64.201	25.9995
18250.000000	65.071	41.8672
18500.000000	66.239	56.1046
18750.000000	67.878	60.3757
19000.000000	66.907	75.0496
19250.000000	71.484	79.7889
19500.000000	75.116	79.9869
19750.000000	77.482	58.0813
20000.000000	72.837	52.3589
