* Measurement data measured by REW V5.30.9
* Source: Headset (Odo By VECLAN.COM), MICROPHONE (Master Volume), L, volume: 0.270
* Format: 512k Log Swept Sine, 1 sweep at -12.0 dBFS with no timing reference
* Dated: 09 30, 24 1:52:37 PM
* REW Settings:
*  C-weighting compensation: Off
*  Target level: 75.0 dB
* Note: ; 
* Measurement: ace 2 ambient L
* Smoothing: None
* Frequency Step: 1/48 octave
* Start Frequency: 1.000 Hz
*
* Freq(Hz)	SPL(dB)	Phase(degrees)
1.000000	32.401	81.8986
1.015000	32.202	78.6693
1.030000	32.034	75.4261
1.044000	31.908	72.3913
1.060000	31.804	68.9196
1.075000	31.748	65.6671
1.090000	31.737	62.4226
1.106000	31.777	58.9563
1.120000	31.854	55.8119
1.138000	32.006	51.6033
1.150000	32.139	48.7060
1.172000	32.441	43.2332
1.180000	32.568	41.1992
1.206000	33.039	34.4638
1.220000	33.326	30.7785
1.241000	33.791	25.2078
1.250000	34.002	22.8136
1.265000	34.367	18.8265
1.280000	34.746	14.8567
1.315000	35.667	5.7477
1.320000	35.802	4.4723
1.340000	36.342	-0.5418
1.360000	36.880	-5.3886
1.380000	37.411	-10.0319
1.400000	37.927	-14.4352
1.430000	38.657	-20.5108
1.450000	39.105	-24.1553
1.475000	39.616	-28.2016
1.500000	40.117	-31.7561
1.525000	40.621	-34.8820
1.550000	41.124	-37.6253
1.575000	41.627	-40.0317
1.600000	42.126	-42.1472
1.625000	42.622	-44.0174
1.650000	43.112	-45.6883
1.675000	43.595	-47.2057
1.700000	44.070	-48.6154
1.725000	44.534	-49.9633
1.750000	44.987	-51.2952
1.775000	45.427	-52.6568
1.800000	45.853	-54.0941
1.825000	46.263	-55.6529
1.850000	46.657	-57.3030
1.875000	47.035	-58.8889
1.900000	47.400	-60.4097
1.925000	47.752	-61.8715
1.950000	48.092	-63.2809
1.975000	48.422	-64.6441
2.000000	48.742	-65.9675
2.030000	49.115	-67.5118
2.060000	49.478	-69.0190
2.090000	49.832	-70.4998
2.120000	50.179	-71.9653
2.140000	50.407	-72.9391
2.180000	50.859	-74.8940
2.200000	51.084	-75.8813
2.240000	51.524	-77.8347
2.270000	51.842	-79.2688
2.300000	52.151	-80.6786
2.330000	52.452	-82.0664
2.360000	52.746	-83.4341
2.400000	53.127	-85.2303
2.430000	53.406	-86.5596
2.470000	53.770	-88.3121
2.500000	54.038	-89.6143
2.540000	54.390	-91.3384
2.580000	54.736	-93.0516
2.620000	55.074	-94.7433
2.650000	55.320	-95.9966
2.690000	55.640	-97.6480
2.720000	55.875	-98.8724
2.760000	56.181	-100.4868
2.800000	56.479	-102.0815
2.850000	56.844	-104.0489
2.900000	57.200	-105.9894
2.950000	57.549	-107.9045
3.000000	57.888	-109.7918
3.040000	58.151	-111.2809
3.070000	58.344	-112.3857
3.110000	58.596	-113.8427
3.150000	58.843	-115.2812
3.200000	59.145	-117.0536
3.250000	59.440	-118.7971
3.300000	59.729	-120.5119
3.350000	60.011	-122.1984
3.400000	60.284	-123.8566
3.450000	60.550	-125.4862
3.500000	60.809	-127.0868
3.550000	61.063	-128.6580
3.600000	61.311	-130.1994
3.650000	61.554	-131.7107
3.700000	61.793	-133.1916
3.750000	62.025	-134.6424
3.820000	62.341	-136.6235
3.870000	62.560	-138.0031
3.950000	62.903	-140.1493
4.000000	63.113	-141.4528
4.060000	63.362	-142.9782
4.120000	63.604	-144.4585
4.180000	63.840	-145.8954
4.250000	64.109	-147.5202
4.310000	64.336	-148.8714
4.370000	64.561	-150.1869
4.440000	64.821	-151.6756
4.500000	65.039	-152.9057
4.550000	65.218	-153.9012
4.620000	65.467	-155.2549
4.680000	65.677	-156.3831
4.750000	65.922	-157.6681
4.820000	66.165	-158.9167
4.870000	66.337	-159.7802
4.940000	66.577	-160.9557
5.000000	66.780	-161.9381
5.080000	67.051	-163.2218
5.150000	67.286	-164.3282
5.220000	67.521	-165.4077
5.300000	67.788	-166.6100
5.380000	68.053	-167.7885
5.450000	68.283	-168.8082
5.520000	68.512	-169.8230
5.600000	68.771	-170.9676
5.700000	69.093	-172.3770
5.800000	69.410	-173.7709
5.900000	69.721	-175.1573
6.000000	70.027	-176.5339
6.080000	70.268	-177.6263
6.150000	70.475	-178.5749
6.220000	70.679	-179.5163
6.300000	70.907	179.4149
6.400000	71.186	178.0891
6.500000	71.459	176.7809
6.600000	71.724	175.4971
6.700000	71.981	174.2353
6.800000	72.231	172.9950
6.900000	72.475	171.7824
7.000000	72.713	170.6028
7.100000	72.944	169.4534
7.200000	73.169	168.3342
7.300000	73.390	167.2467
7.400000	73.607	166.1929
7.500000	73.819	165.1727
7.620000	74.069	163.9869
7.750000	74.337	162.7438
7.880000	74.599	161.5499
8.000000	74.839	160.4797
8.120000	75.076	159.4299
8.250000	75.331	158.3232
8.380000	75.584	157.2353
8.500000	75.814	156.2374
8.620000	76.043	155.2513
8.750000	76.287	154.1887
8.850000	76.473	153.3707
9.000000	76.747	152.1462
9.120000	76.962	151.1690
9.250000	77.190	150.1114
9.380000	77.413	149.0551
9.500000	77.615	148.0861
9.620000	77.813	147.1244
9.750000	78.023	146.0893
9.880000	78.223	145.0674
10.000000	78.396	144.1381
10.150000	78.598	142.9933
10.300000	78.793	141.8708
10.440000	78.968	140.8447
10.600000	79.163	139.6924
10.750000	79.345	138.6306
10.900000	79.525	137.5851
11.060000	79.716	136.4761
11.200000	79.883	135.5133
11.380000	80.095	134.2730
11.500000	80.236	133.4424
11.720000	80.491	131.9103
11.800000	80.582	131.3478
12.060000	80.874	129.5049
12.200000	81.026	128.5053
12.410000	81.248	126.9997
12.500000	81.346	126.3568
12.650000	81.512	125.2860
12.800000	81.678	124.2219
13.150000	82.053	121.7794
13.200000	82.105	121.4348
13.400000	82.314	120.0693
13.600000	82.521	118.7126
13.800000	82.727	117.3627
14.000000	82.931	116.0033
14.300000	83.235	113.9377
14.500000	83.433	112.5317
14.750000	83.672	110.7458
15.000000	83.902	108.9330
15.250000	84.119	107.1121
15.500000	84.323	105.3031
15.750000	84.518	103.5172
16.000000	84.704	101.7670
16.250000	84.887	100.0478
16.500000	85.066	98.3529
16.750000	85.242	96.6696
17.000000	85.413	94.9829
17.250000	85.579	93.2885
17.500000	85.737	91.5823
17.750000	85.885	89.8724
18.000000	86.025	88.1667
18.250000	86.154	86.4742
18.500000	86.274	84.8047
18.750000	86.387	83.1589
19.000000	86.493	81.5374
19.250000	86.594	79.9352
19.500000	86.688	78.3487
19.750000	86.776	76.7757
20.000000	86.857	75.2165
20.299999	86.946	73.3698
20.600000	87.025	71.5570
20.900000	87.095	69.7856
21.200001	87.157	68.0593
21.400000	87.196	66.9321
21.799999	87.266	64.7282
22.000000	87.298	63.6478
22.400000	87.356	61.5240
22.700001	87.394	59.9623
23.000000	87.426	58.4286
23.299999	87.453	56.9247
23.600000	87.476	55.4517
24.000000	87.499	53.5372
24.299999	87.511	52.1407
24.700001	87.520	50.3359
25.000000	87.522	49.0293
25.400000	87.522	47.3524
25.799999	87.519	45.7450
26.200001	87.515	44.1941
26.500000	87.511	43.0593
26.900000	87.504	41.5788
27.200001	87.496	40.4937
27.600000	87.482	39.0867
28.000000	87.465	37.7307
28.500000	87.442	36.1027
29.000000	87.419	34.5284
29.500000	87.392	32.9956
30.000000	87.359	31.5198
30.400000	87.330	30.3977
30.700001	87.309	29.5919
31.100000	87.285	28.5495
31.500000	87.265	27.5178
32.000000	87.241	26.2126
32.500000	87.211	24.9020
33.000000	87.173	23.6355
33.500000	87.133	22.4380
34.000000	87.096	21.2813
34.500000	87.060	20.1309
35.000000	87.018	19.0006
35.500000	86.974	17.9337
36.000000	86.933	16.9299
36.500000	86.900	15.9348
37.000000	86.867	14.9077
37.500000	86.826	13.8776
38.200001	86.762	12.5210
38.700001	86.720	11.5909
39.500000	86.650	10.0475
40.000000	86.593	9.0985
40.599998	86.518	8.0664
41.200001	86.454	7.1069
41.799999	86.395	6.1158
42.500000	86.318	4.9264
43.099998	86.245	3.9544
43.700001	86.172	3.0193
44.400002	86.082	1.9534
45.000000	86.000	1.0988
45.500000	85.934	0.4342
46.200001	85.843	-0.4653
46.799999	85.764	-1.2087
47.500000	85.672	-2.0200
48.200001	85.583	-2.8157
48.700001	85.516	-3.3795
49.400002	85.417	-4.1138
50.000000	85.337	-4.7156
50.799999	85.226	-5.5580
51.500000	85.113	-6.2168
52.200001	85.006	-6.7147
53.000000	84.905	-7.2632
53.799999	84.805	-7.8369
54.500000	84.719	-8.2761
55.200001	84.640	-8.7228
56.000000	84.541	-9.2300
57.000000	84.417	-9.7356
58.000000	84.290	-10.2425
59.000000	84.153	-10.5749
60.000000	84.043	-10.8868
60.799999	83.945	-11.1741
61.500000	83.861	-11.2744
62.200001	83.809	-11.3137
63.000000	83.777	-11.5919
64.000000	83.687	-12.1479
65.000000	83.583	-12.2236
66.000000	83.532	-12.3739
67.000000	83.436	-12.4366
68.000000	83.426	-12.2318
69.000000	83.407	-12.9003
70.000000	83.275	-13.2449
71.000000	83.211	-13.2765
72.000000	83.143	-13.6405
73.000000	83.060	-13.8208
74.000000	83.006	-13.9423
75.000000	82.965	-14.1352
76.199997	82.903	-14.3561
77.500000	82.851	-14.5013
78.800003	82.790	-14.7013
80.000000	82.737	-14.8362
81.199997	82.691	-15.0792
82.500000	82.622	-15.3281
83.800003	82.570	-15.5209
85.000000	82.523	-15.6475
86.199997	82.494	-15.8724
87.500000	82.421	-16.1099
88.500000	82.371	-16.1148
90.000000	82.311	-16.2288
91.199997	82.262	-16.2600
92.500000	82.225	-16.5323
93.800003	82.160	-16.6028
95.000000	82.135	-16.8098
96.199997	82.066	-16.8864
97.500000	82.031	-16.8198
98.800003	82.005	-16.8187
100.000000	81.975	-17.0181
101.500000	81.908	-17.0777
103.000000	81.876	-17.2019
104.400002	81.831	-17.3151
106.000000	81.785	-17.5387
107.500000	81.733	-17.5092
109.000000	81.700	-17.4913
110.599998	81.675	-17.6113
112.000000	81.623	-17.7281
113.800003	81.572	-17.4753
115.000000	81.582	-17.5646
117.199997	81.541	-17.7802
118.000000	81.511	-17.8818
120.599998	81.483	-17.9915
122.000000	81.439	-17.9121
124.099998	81.372	-17.7807
125.000000	81.386	-17.7520
126.500000	81.333	-17.7308
128.000000	81.357	-17.8010
131.500000	81.282	-18.0330
132.000000	81.264	-17.9877
134.000000	81.270	-17.8593
136.000000	81.181	-17.9202
138.000000	81.229	-17.8892
140.000000	81.194	-17.8876
143.000000	81.168	-18.0107
145.000000	81.165	-18.1871
147.500000	81.150	-18.0411
150.000000	81.124	-18.0153
152.500000	81.110	-18.1183
155.000000	81.129	-18.2863
157.500000	81.109	-18.4053
160.000000	81.115	-18.3542
162.500000	81.094	-18.4918
165.000000	81.039	-18.3867
167.500000	81.019	-18.7214
170.000000	81.004	-18.7999
172.500000	80.967	-18.9442
175.000000	80.980	-19.0106
177.500000	80.948	-19.0166
180.000000	80.889	-19.1445
182.500000	80.869	-19.5253
185.000000	80.841	-19.5046
187.500000	80.846	-19.6758
190.000000	80.806	-19.8983
192.500000	80.764	-19.9700
195.000000	80.732	-20.1439
197.500000	80.721	-20.3768
200.000000	80.664	-20.5125
203.000000	80.648	-20.7119
206.000000	80.661	-20.7463
209.000000	80.595	-20.9395
212.000000	80.573	-20.8990
214.000000	80.538	-21.2521
218.000000	80.515	-21.4371
220.000000	80.519	-21.6220
224.000000	80.463	-21.8771
227.000000	80.411	-22.1647
230.000000	80.386	-21.9637
233.000000	80.348	-22.3295
236.000000	80.329	-22.3857
240.000000	80.257	-22.8092
243.000000	80.289	-22.8340
247.000000	80.247	-22.9625
250.000000	80.177	-22.8818
254.000000	80.138	-23.1402
258.000000	80.035	-23.3938
262.000000	80.053	-23.3317
265.000000	79.954	-23.3763
269.000000	79.996	-23.5736
272.000000	79.919	-23.6249
276.000000	79.863	-23.3578
280.000000	79.816	-23.4615
285.000000	79.734	-23.7148
290.000000	79.714	-23.6129
295.000000	79.672	-23.6782
300.000000	79.625	-23.9579
304.000000	79.619	-23.8365
307.000000	79.550	-23.4213
311.000000	79.522	-24.0033
315.000000	79.474	-23.4279
320.000000	79.441	-24.0004
325.000000	79.408	-23.9070
330.000000	79.379	-24.3499
335.000000	79.353	-23.4331
340.000000	79.251	-23.8492
345.000000	79.286	-24.2089
350.000000	79.182	-23.8123
355.000000	79.234	-23.9669
360.000000	79.185	-23.7760
365.000000	79.113	-23.8313
370.000000	79.159	-23.6095
375.000000	79.003	-23.4438
382.000000	78.970	-24.3895
387.000000	79.011	-23.5988
395.000000	78.892	-24.1038
400.000000	78.873	-23.6635
406.000000	78.808	-23.9293
412.000000	78.819	-23.6683
418.000000	78.682	-23.8388
425.000000	78.744	-23.6551
431.000000	78.640	-23.8613
437.000000	78.624	-23.7025
444.000000	78.605	-23.2598
450.000000	78.569	-23.2267
455.000000	78.553	-23.5065
462.000000	78.507	-23.1819
468.000000	78.433	-23.4514
475.000000	78.430	-23.4295
482.000000	78.389	-22.6853
487.000000	78.416	-22.9713
494.000000	78.334	-23.1598
500.000000	78.393	-22.9744
508.000000	78.298	-22.8238
515.000000	78.280	-22.8743
522.000000	78.190	-22.8748
530.000000	78.193	-22.4664
538.000000	78.105	-23.0117
545.000000	77.967	-22.1262
552.000000	78.015	-22.2660
560.000000	77.921	-22.1134
570.000000	78.039	-21.4938
580.000000	77.920	-22.0162
590.000000	77.890	-21.8379
600.000000	77.904	-21.5363
608.000000	77.758	-20.7903
615.000000	77.848	-21.2023
622.000000	77.715	-20.9099
630.000000	77.672	-20.6372
640.000000	77.747	-20.4443
650.000000	77.685	-20.6882
660.000000	77.627	-20.2284
670.000000	77.634	-19.9559
680.000000	77.588	-19.5973
690.000000	77.541	-19.2393
700.000000	77.491	-19.1698
710.000000	77.481	-18.8823
720.000000	77.450	-18.6086
730.000000	77.461	-18.3958
740.000000	77.438	-17.6622
750.000000	77.409	-17.4897
762.000000	77.377	-17.3407
775.000000	77.342	-16.8066
788.000000	77.310	-16.2224
800.000000	77.280	-16.3757
812.000000	77.277	-15.1347
825.000000	77.249	-15.6606
838.000000	77.280	-14.7877
850.000000	77.366	-13.5955
862.000000	77.253	-13.1386
875.000000	77.227	-12.8384
885.000000	77.132	-12.9784
900.000000	77.257	-12.2986
912.000000	77.258	-10.9572
925.000000	77.246	-10.2822
938.000000	77.223	-10.7216
950.000000	77.373	-9.8301
962.000000	77.352	-9.5214
975.000000	77.417	-9.1462
988.000000	77.436	-9.0980
1000.000000	77.500	-8.3782
1015.000000	77.466	-7.7126
1030.000000	77.665	-6.7581
1044.000000	77.608	-7.1981
1060.000000	77.750	-5.9158
1075.000000	77.670	-5.1208
1090.000000	77.830	-5.5908
1106.000000	78.031	-5.4282
1120.000000	77.989	-4.9314
1138.000000	77.984	-4.3624
1150.000000	78.059	-4.9875
1172.000000	78.046	-4.5439
1180.000000	78.303	-3.5363
1206.000000	78.330	-4.0787
1220.000000	78.338	-3.7784
1241.000000	78.441	-3.6086
1250.000000	78.432	-4.1558
1265.000000	78.490	-3.2805
1280.000000	78.554	-3.1348
1315.000000	78.672	-2.8318
1320.000000	78.593	-3.0746
1340.000000	78.876	-2.8513
1360.000000	78.675	-2.8401
1380.000000	78.921	-3.1034
1400.000000	78.857	-3.1099
1430.000000	78.867	-2.4176
1450.000000	78.890	-2.0930
1475.000000	78.969	-2.2695
1500.000000	79.126	-2.4929
1525.000000	79.110	-1.2797
1550.000000	79.181	-1.5746
1575.000000	79.315	-2.3413
1600.000000	79.392	-1.4161
1625.000000	79.328	-1.1649
1650.000000	79.344	0.4996
1675.000000	79.568	-0.3750
1700.000000	79.730	0.7937
1725.000000	79.619	1.1476
1750.000000	79.700	-1.6117
1775.000000	79.763	1.3732
1800.000000	80.080	1.4932
1825.000000	80.075	1.6251
1850.000000	80.254	2.9785
1875.000000	80.193	3.4742
1900.000000	80.310	5.5052
1925.000000	80.431	3.7437
1950.000000	80.718	4.7106
1975.000000	80.563	5.0640
2000.000000	80.719	4.9995
2030.000000	81.161	6.1669
2060.000000	81.089	6.1552
2090.000000	81.451	5.2891
2120.000000	81.658	6.2522
2140.000000	81.809	5.9057
2180.000000	82.036	6.3611
2200.000000	82.265	5.8529
2240.000000	82.554	4.5712
2270.000000	82.729	3.8009
2300.000000	82.811	4.1323
2330.000000	83.018	3.5770
2360.000000	83.389	1.8022
2400.000000	83.571	0.3635
2430.000000	83.414	-1.6816
2470.000000	83.630	-2.5630
2500.000000	83.694	-3.5542
2540.000000	83.710	-5.2767
2580.000000	83.763	-5.9390
2620.000000	83.840	-7.4507
2650.000000	83.814	-9.1758
2690.000000	83.566	-10.2206
2720.000000	83.534	-11.2087
2760.000000	83.405	-12.1045
2800.000000	83.377	-12.8160
2850.000000	83.063	-12.7159
2900.000000	82.942	-14.5364
2950.000000	82.582	-13.1536
3000.000000	82.515	-12.7399
3040.000000	82.242	-12.0701
3070.000000	82.269	-10.3472
3110.000000	82.251	-10.0104
3150.000000	81.948	-8.9495
3200.000000	81.958	-5.6769
3250.000000	82.133	-4.8473
3300.000000	82.096	-2.8854
3350.000000	82.500	-0.8052
3400.000000	82.618	-0.2213
3450.000000	83.222	1.7378
3500.000000	83.440	-0.6047
3550.000000	83.629	-1.1715
3600.000000	83.900	-1.7260
3650.000000	83.976	-2.3933
3700.000000	83.886	-3.7448
3750.000000	83.935	-4.4553
3820.000000	83.880	-5.6177
3870.000000	83.812	-5.7557
3950.000000	83.780	-6.4158
4000.000000	83.743	-6.9703
4060.000000	83.637	-6.8354
4120.000000	83.662	-7.3146
4180.000000	83.565	-7.5945
4250.000000	83.398	-7.2775
4310.000000	83.264	-7.1027
4370.000000	83.205	-6.1957
4440.000000	83.163	-5.2732
4500.000000	83.129	-4.5682
4550.000000	83.134	-4.0801
4620.000000	83.036	-3.1991
4680.000000	83.080	-0.4528
4750.000000	83.603	-0.2841
4820.000000	83.816	-1.9804
4870.000000	83.810	-3.1323
4940.000000	83.743	-4.4336
5000.000000	83.547	-5.0913
5080.000000	83.174	-4.8495
5150.000000	83.102	-3.3329
5220.000000	83.000	-3.7292
5300.000000	82.699	-3.8580
5380.000000	82.416	-3.6168
5450.000000	82.175	-2.1757
5520.000000	81.989	-1.0804
5600.000000	81.785	-0.2116
5700.000000	81.509	1.6862
5800.000000	81.250	3.6254
5900.000000	80.956	5.6858
6000.000000	80.792	8.1177
6080.000000	80.478	10.4477
6150.000000	80.418	11.9033
6220.000000	80.221	14.3357
6300.000000	80.125	17.3201
6400.000000	80.086	21.2228
6500.000000	80.011	24.9773
6600.000000	80.162	29.1099
6700.000000	80.317	33.3050
6800.000000	80.524	38.2455
6900.000000	80.978	42.1694
7000.000000	81.422	46.1431
7100.000000	82.032	49.4910
7200.000000	82.809	51.9757
7300.000000	83.756	54.0254
7400.000000	84.599	55.0934
7500.000000	85.638	55.1459
7620.000000	86.862	52.7704
7750.000000	88.281	46.7631
7880.000000	89.440	36.4404
8000.000000	90.006	22.0354
8120.000000	89.391	7.1746
8250.000000	87.760	-6.0708
8380.000000	85.589	-14.0827
8500.000000	83.546	-16.7672
8620.000000	81.660	-17.1075
8750.000000	79.732	-14.5577
8850.000000	78.407	-11.3357
9000.000000	76.616	-5.8187
9120.000000	75.439	-0.0505
9250.000000	74.195	6.6398
9380.000000	73.040	13.2097
9500.000000	72.294	18.9666
9620.000000	71.469	25.6024
9750.000000	70.715	33.8040
9880.000000	70.010	40.0823
10000.000000	69.455	45.8455
10150.000000	68.835	54.5503
10300.000000	68.440	61.5517
10440.000000	67.868	68.5005
10600.000000	67.520	74.7259
10750.000000	66.970	84.1127
10900.000000	66.419	88.7924
11060.000000	65.816	97.5868
11200.000000	65.376	103.4737
11380.000000	64.686	113.4745
11500.000000	64.226	120.5722
11720.000000	63.725	133.9931
11800.000000	63.446	139.0983
12060.000000	62.682	155.3748
12200.000000	62.492	163.9781
12410.000000	62.487	177.9922
12500.000000	62.272	-176.0056
12650.000000	62.217	-167.1421
12800.000000	62.039	-156.3084
13150.000000	61.989	-132.8440
13200.000000	61.771	-129.3667
13400.000000	62.050	-116.1895
13600.000000	61.679	-98.3332
13800.000000	62.068	-79.3821
14000.000000	63.945	-58.7086
14300.000000	66.423	-47.0846
14500.000000	67.357	-37.5722
14750.000000	69.011	-24.5191
15000.000000	71.552	-13.7737
15250.000000	74.642	-5.1851
15500.000000	78.865	-16.4708
15750.000000	78.826	-53.6222
16000.000000	74.543	-64.4528
16250.000000	72.396	-57.8077
16500.000000	69.405	-51.1788
16750.000000	66.741	-41.4442
17000.000000	65.282	-23.0748
17250.000000	63.955	-9.3898
17500.000000	61.877	7.1164
17750.000000	61.343	29.4213
18000.000000	61.740	48.6403
18250.000000	58.548	60.8339
18500.000000	60.143	94.5777
18750.000000	60.144	119.3395
19000.000000	61.938	144.3817
19250.000000	62.925	154.5769
19500.000000	63.415	170.5637
19750.000000	63.470	-161.2338
