* Measurement data measured by REW V5.30.9
* Source: Headset (Odo By VECLAN.COM), MICROPHONE (Master Volume), L, volume: 0.500
* Format: 512k Log Swept Sine, 1 sweep at -12.0 dBFS with no timing reference
* Dated: 08 20, 24 11:34:16 AM
* REW Settings:
*  C-weighting compensation: Off
*  Target level: 75.0 dB
* Note: ; 
* Measurement: as24pro UUDD R
* Smoothing: None
* Frequency Step: 1/48 octave
* Start Frequency: 1.000 Hz
*
* Freq(Hz)	SPL(dB)	Phase(degrees)
1.000000	77.499	-122.2764
1.015000	77.760	-123.1063
1.030000	78.016	-123.9241
1.044000	78.249	-124.6814
1.060000	78.507	-125.5460
1.075000	78.741	-126.3614
1.090000	78.967	-127.1872
1.106000	79.198	-128.0783
1.120000	79.398	-128.8271
1.138000	79.654	-129.7377
1.150000	79.822	-130.3139
1.172000	80.128	-131.3102
1.180000	80.238	-131.6543
1.206000	80.589	-132.7108
1.220000	80.774	-133.2434
1.241000	81.045	-133.9993
1.250000	81.158	-134.3087
1.265000	81.344	-134.8067
1.280000	81.525	-135.2845
1.315000	81.927	-136.3326
1.320000	81.982	-136.4759
1.340000	82.195	-137.0359
1.360000	82.396	-137.5789
1.380000	82.585	-138.1099
1.400000	82.760	-138.6340
1.430000	82.997	-139.4182
1.450000	83.137	-139.9471
1.475000	83.230	-140.6187
1.500000	83.236	-141.2628
1.525000	83.246	-141.8717
1.550000	83.261	-142.4480
1.575000	83.280	-142.9947
1.600000	83.301	-143.5144
1.625000	83.324	-144.0102
1.650000	83.347	-144.4847
1.675000	83.371	-144.9408
1.700000	83.393	-145.3813
1.725000	83.414	-145.8092
1.750000	83.432	-146.2271
1.775000	83.446	-146.6378
1.800000	83.456	-147.0443
1.825000	83.461	-147.4494
1.850000	83.471	-147.8504
1.875000	83.483	-148.2366
1.900000	83.494	-148.6084
1.925000	83.505	-148.9665
1.950000	83.516	-149.3118
1.975000	83.526	-149.6454
2.000000	83.536	-149.9679
2.030000	83.548	-150.3418
2.060000	83.559	-150.7027
2.090000	83.569	-151.0521
2.120000	83.579	-151.3916
2.140000	83.586	-151.6133
2.180000	83.599	-152.0471
2.200000	83.606	-152.2602
2.240000	83.618	-152.6710
2.270000	83.627	-152.9637
2.300000	83.635	-153.2442
2.330000	83.642	-153.5135
2.360000	83.650	-153.7725
2.400000	83.659	-154.1033
2.430000	83.666	-154.3416
2.470000	83.676	-154.6481
2.500000	83.683	-154.8707
2.540000	83.692	-155.1595
2.580000	83.702	-155.4403
2.620000	83.711	-155.7077
2.650000	83.718	-155.8991
2.690000	83.727	-156.1426
2.720000	83.734	-156.3172
2.760000	83.743	-156.5398
2.800000	83.753	-156.7517
2.850000	83.764	-157.0030
2.900000	83.776	-157.2409
2.950000	83.788	-157.4664
3.000000	83.801	-157.6732
3.040000	83.810	-157.8256
3.070000	83.817	-157.9332
3.110000	83.827	-158.0691
3.150000	83.837	-158.1975
3.200000	83.850	-158.3499
3.250000	83.865	-158.4957
3.300000	83.880	-158.6379
3.350000	83.897	-158.7705
3.400000	83.915	-158.8905
3.450000	83.934	-159.0012
3.500000	83.954	-159.1062
3.550000	83.974	-159.2089
3.600000	83.996	-159.3128
3.650000	84.018	-159.4212
3.700000	84.041	-159.5338
3.750000	84.065	-159.6440
3.820000	84.101	-159.7971
3.870000	84.128	-159.9085
3.950000	84.171	-160.0955
4.000000	84.197	-160.2210
4.060000	84.229	-160.3826
4.120000	84.262	-160.5524
4.180000	84.295	-160.7299
4.250000	84.333	-160.9466
4.310000	84.365	-161.1408
4.370000	84.395	-161.3427
4.440000	84.428	-161.5895
4.500000	84.456	-161.8130
4.550000	84.478	-162.0058
4.620000	84.507	-162.2827
4.680000	84.531	-162.5234
4.750000	84.555	-162.8043
4.820000	84.577	-163.0873
4.870000	84.591	-163.2946
4.940000	84.609	-163.5877
5.000000	84.622	-163.8378
5.080000	84.637	-164.1628
5.150000	84.647	-164.4341
5.220000	84.654	-164.6990
5.300000	84.660	-164.9943
5.380000	84.663	-165.2776
5.450000	84.664	-165.5123
5.520000	84.664	-165.7321
5.600000	84.662	-165.9672
5.700000	84.657	-166.2386
5.800000	84.651	-166.4863
5.900000	84.645	-166.7102
6.000000	84.639	-166.9060
6.080000	84.635	-167.0464
6.150000	84.631	-167.1613
6.220000	84.628	-167.2718
6.300000	84.626	-167.3905
6.400000	84.624	-167.5241
6.500000	84.623	-167.6494
6.600000	84.624	-167.7756
6.700000	84.626	-167.9017
6.800000	84.629	-168.0256
6.900000	84.632	-168.1505
7.000000	84.636	-168.2797
7.100000	84.639	-168.4135
7.200000	84.643	-168.5489
7.300000	84.647	-168.6827
7.400000	84.649	-168.8139
7.500000	84.651	-168.9445
7.620000	84.653	-169.0967
7.750000	84.655	-169.2514
7.880000	84.657	-169.3961
8.000000	84.660	-169.5231
8.120000	84.664	-169.6438
8.250000	84.669	-169.7635
8.380000	84.677	-169.8860
8.500000	84.686	-170.0110
8.620000	84.699	-170.1420
8.750000	84.713	-170.2991
8.850000	84.722	-170.4367
9.000000	84.737	-170.6675
9.120000	84.747	-170.8669
9.250000	84.755	-171.0973
9.380000	84.761	-171.3446
9.500000	84.762	-171.5696
9.620000	84.760	-171.7851
9.750000	84.754	-172.0137
9.880000	84.740	-172.2182
10.000000	84.717	-172.3816
10.150000	84.679	-172.5537
10.300000	84.641	-172.6639
10.440000	84.603	-172.7036
10.600000	84.563	-172.6992
10.750000	84.536	-172.6442
10.900000	84.516	-172.5572
11.060000	84.508	-172.5242
11.200000	84.512	-172.5405
11.380000	84.523	-172.6156
11.500000	84.532	-172.7005
11.720000	84.548	-172.9272
11.800000	84.551	-173.0349
12.060000	84.551	-173.4617
12.200000	84.541	-173.7251
12.410000	84.515	-174.1382
12.500000	84.504	-174.2821
12.650000	84.484	-174.4882
12.800000	84.464	-174.6463
13.150000	84.414	-174.8022
13.200000	84.409	-174.8058
13.400000	84.393	-174.7666
13.600000	84.388	-174.6841
13.800000	84.395	-174.5627
14.000000	84.412	-174.4883
14.300000	84.454	-174.4888
14.500000	84.483	-174.5633
14.750000	84.513	-174.7038
15.000000	84.535	-174.8832
15.250000	84.549	-175.1067
15.500000	84.558	-175.3089
15.750000	84.563	-175.4742
16.000000	84.571	-175.6247
16.250000	84.582	-175.8030
16.500000	84.595	-176.0155
16.750000	84.602	-176.2535
17.000000	84.598	-176.5123
17.250000	84.585	-176.7629
17.500000	84.559	-176.9626
17.750000	84.529	-177.0488
18.000000	84.501	-177.0313
18.250000	84.485	-176.9250
18.500000	84.488	-176.7672
18.750000	84.511	-176.6167
19.000000	84.552	-176.5290
19.250000	84.603	-176.5875
19.500000	84.653	-176.7752
19.750000	84.694	-177.0787
20.000000	84.717	-177.4481
20.299999	84.720	-177.8924
20.600000	84.701	-178.2462
20.900000	84.672	-178.4388
21.200001	84.648	-178.4817
21.400000	84.640	-178.4559
21.799999	84.648	-178.3544
22.000000	84.663	-178.3255
22.400000	84.700	-178.3917
22.700001	84.726	-178.5275
23.000000	84.741	-178.7055
23.299999	84.747	-178.8983
23.600000	84.743	-179.0648
24.000000	84.729	-179.2138
24.299999	84.718	-179.2719
24.700001	84.708	-179.2859
25.000000	84.709	-179.2784
25.400000	84.722	-179.3038
25.799999	84.741	-179.4395
26.200001	84.754	-179.7162
26.500000	84.750	-179.9792
26.900000	84.726	179.7003
27.200001	84.700	179.5371
27.600000	84.669	179.4439
28.000000	84.659	179.4216
28.500000	84.674	179.2951
29.000000	84.690	178.9893
29.500000	84.683	178.6494
30.000000	84.668	178.4944
30.400000	84.677	178.4880
30.700001	84.702	178.4828
31.100000	84.751	178.3552
31.500000	84.799	178.0370
32.000000	84.827	177.4740
32.500000	84.807	176.9649
33.000000	84.759	176.7364
33.500000	84.721	176.7849
34.000000	84.711	176.9312
34.500000	84.722	176.9782
35.000000	84.730	176.9044
35.500000	84.727	176.7778
36.000000	84.719	176.6434
36.500000	84.711	176.4639
37.000000	84.700	176.2218
37.500000	84.681	175.9451
38.200001	84.651	175.5544
38.700001	84.630	175.2641
39.500000	84.599	174.9146
40.000000	84.604	174.7954
40.599998	84.647	174.5349
41.200001	84.682	174.0381
41.799999	84.681	173.6288
42.500000	84.693	173.5255
43.099998	84.740	173.3857
43.700001	84.761	173.1090
44.400002	84.753	173.0941
45.000000	84.786	173.2465
45.500000	84.823	173.1346
46.200001	84.818	172.8481
46.799999	84.800	172.8833
47.500000	84.822	172.8111
48.200001	84.812	172.4532
48.700001	84.793	172.3693
49.400002	84.832	172.1647
50.000000	84.840	171.4358
50.799999	84.722	171.0267
51.500000	84.755	171.4971
52.200001	84.882	170.7994
53.000000	84.772	169.6920
53.799999	84.697	170.4724
54.500000	84.832	170.5116
55.200001	84.841	169.6895
56.000000	84.774	169.5939
57.000000	84.766	169.2555
58.000000	84.727	169.4396
59.000000	84.798	168.2519
60.000000	84.472	168.2914
60.799999	84.673	169.9382
61.500000	84.936	168.1531
62.200001	84.709	166.0480
63.000000	84.428	167.5219
64.000000	84.797	168.0672
65.000000	84.691	165.4792
66.000000	84.419	166.6584
67.000000	84.666	167.4263
68.000000	84.734	165.5695
69.000000	84.512	165.0403
70.000000	84.478	165.8877
71.000000	84.577	165.9302
72.000000	84.664	165.3144
73.000000	84.647	164.1641
74.000000	84.509	163.6178
75.000000	84.415	163.7639
76.199997	84.410	164.1813
77.500000	84.486	163.8250
78.800003	84.489	163.3014
80.000000	84.466	162.7197
81.199997	84.429	162.5475
82.500000	84.412	162.0858
83.800003	84.377	161.8824
85.000000	84.374	161.5555
86.199997	84.363	161.1893
87.500000	84.323	160.9026
88.500000	84.321	160.8194
90.000000	84.277	160.3284
91.199997	84.231	160.1443
92.500000	84.177	159.7996
93.800003	84.154	159.3976
95.000000	84.100	158.9058
96.199997	84.089	158.6030
97.500000	84.056	158.1599
98.800003	84.047	157.9559
100.000000	84.026	157.6673
101.500000	83.992	157.3554
103.000000	83.946	157.1133
104.400002	83.911	156.7913
106.000000	83.881	156.3912
107.500000	83.835	155.9885
109.000000	83.790	155.6096
110.599998	83.753	155.4578
112.000000	83.736	155.0092
113.800003	83.679	154.4815
115.000000	83.642	154.2397
117.199997	83.590	153.8401
118.000000	83.575	153.6706
120.599998	83.498	153.1104
122.000000	83.438	152.8533
124.099998	83.366	152.4793
125.000000	83.353	152.3092
126.500000	83.300	151.9758
128.000000	83.286	151.8075
131.500000	83.188	151.0624
132.000000	83.160	150.9950
134.000000	83.118	150.7480
136.000000	83.062	150.3124
138.000000	83.006	149.9491
140.000000	82.942	149.7289
143.000000	82.852	149.2974
145.000000	82.784	148.9033
147.500000	82.703	148.4802
150.000000	82.636	148.1621
152.500000	82.556	147.8338
155.000000	82.472	147.5856
157.500000	82.377	147.1824
160.000000	82.288	146.8369
162.500000	82.196	146.5865
165.000000	82.108	146.4491
167.500000	82.003	146.2537
170.000000	81.892	145.8970
172.500000	81.817	145.6141
175.000000	81.719	145.3777
177.500000	81.613	145.3836
180.000000	81.480	145.0596
182.500000	81.370	144.8365
185.000000	81.254	144.4840
187.500000	81.198	144.1771
190.000000	81.115	144.4421
192.500000	80.961	144.2377
195.000000	80.874	143.9637
197.500000	80.765	143.8862
200.000000	80.664	143.5413
203.000000	80.541	143.6168
206.000000	80.429	143.3436
209.000000	80.326	143.3346
212.000000	80.237	143.4541
214.000000	80.129	143.3585
218.000000	79.985	143.4282
220.000000	79.919	143.4276
224.000000	79.756	143.5324
227.000000	79.665	143.5827
230.000000	79.547	143.4947
233.000000	79.422	143.7001
236.000000	79.311	143.9226
240.000000	79.180	144.0552
243.000000	79.081	144.2080
247.000000	78.949	144.5375
250.000000	78.835	144.7455
254.000000	78.671	145.1641
258.000000	78.529	145.3588
262.000000	78.412	145.7839
265.000000	78.309	146.1289
269.000000	78.183	146.4769
272.000000	78.096	146.7933
276.000000	77.974	147.2913
280.000000	77.845	147.8202
285.000000	77.706	148.4365
290.000000	77.579	149.1508
295.000000	77.449	149.8380
300.000000	77.335	150.5237
304.000000	77.231	151.1465
307.000000	77.183	151.5048
311.000000	77.091	152.2153
315.000000	77.005	152.7563
320.000000	76.919	153.5129
325.000000	76.830	154.3643
330.000000	76.779	155.0869
335.000000	76.698	155.9111
340.000000	76.634	156.6811
345.000000	76.558	157.4754
350.000000	76.525	158.3729
355.000000	76.489	158.9335
360.000000	76.452	159.5868
365.000000	76.415	160.3206
370.000000	76.384	160.9881
375.000000	76.359	161.6416
382.000000	76.316	162.5377
387.000000	76.300	163.1576
395.000000	76.275	164.1627
400.000000	76.262	164.7237
406.000000	76.249	165.4039
412.000000	76.243	165.9597
418.000000	76.230	166.6701
425.000000	76.225	167.3544
431.000000	76.215	167.9544
437.000000	76.208	168.5066
444.000000	76.211	169.0923
450.000000	76.211	169.6104
455.000000	76.210	170.0187
462.000000	76.217	170.5634
468.000000	76.221	171.0119
475.000000	76.229	171.5150
482.000000	76.232	171.9862
487.000000	76.231	172.3219
494.000000	76.233	172.7841
500.000000	76.238	173.1999
508.000000	76.236	173.6509
515.000000	76.241	174.0633
522.000000	76.243	174.4572
530.000000	76.243	174.9214
538.000000	76.249	175.3464
545.000000	76.241	175.6742
552.000000	76.246	176.0305
560.000000	76.247	176.4172
570.000000	76.241	176.9112
580.000000	76.239	177.3909
590.000000	76.238	177.8519
600.000000	76.234	178.2898
608.000000	76.224	178.6758
615.000000	76.220	178.9320
622.000000	76.216	179.2544
630.000000	76.209	179.5790
640.000000	76.198	-179.9576
650.000000	76.187	-179.5482
660.000000	76.182	-179.1020
670.000000	76.168	-178.6509
680.000000	76.157	-178.2065
690.000000	76.146	-177.7334
700.000000	76.133	-177.2972
710.000000	76.122	-176.8261
720.000000	76.105	-176.3175
730.000000	76.103	-175.9241
740.000000	76.092	-175.3914
750.000000	76.085	-174.9149
762.000000	76.079	-174.3428
775.000000	76.062	-173.6924
788.000000	76.059	-173.0328
800.000000	76.050	-172.4173
812.000000	76.052	-171.8230
825.000000	76.048	-171.0967
838.000000	76.046	-170.4390
850.000000	76.046	-169.7848
862.000000	76.053	-169.1009
875.000000	76.057	-168.4343
885.000000	76.067	-167.9180
900.000000	76.084	-167.0924
912.000000	76.097	-166.4251
925.000000	76.125	-165.7173
938.000000	76.158	-165.0181
950.000000	76.187	-164.4344
962.000000	76.214	-163.8035
975.000000	76.250	-163.1699
988.000000	76.287	-162.5325
1000.000000	76.327	-161.9639
1015.000000	76.376	-161.2979
1030.000000	76.431	-160.6503
1044.000000	76.482	-160.0454
1060.000000	76.544	-159.3785
1075.000000	76.602	-158.8136
1090.000000	76.664	-158.2378
1106.000000	76.723	-157.6639
1120.000000	76.780	-157.1928
1138.000000	76.851	-156.5921
1150.000000	76.893	-156.2187
1172.000000	76.982	-155.5733
1180.000000	77.006	-155.3283
1206.000000	77.102	-154.5970
1220.000000	77.151	-154.1904
1241.000000	77.219	-153.6052
1250.000000	77.245	-153.3671
1265.000000	77.299	-152.9720
1280.000000	77.349	-152.5240
1315.000000	77.468	-151.5724
1320.000000	77.486	-151.4231
1340.000000	77.551	-150.8601
1360.000000	77.618	-150.2753
1380.000000	77.685	-149.6753
1400.000000	77.756	-149.0745
1430.000000	77.865	-148.1450
1450.000000	77.941	-147.5191
1475.000000	78.045	-146.7619
1500.000000	78.147	-145.9984
1525.000000	78.253	-145.2575
1550.000000	78.369	-144.4689
1575.000000	78.490	-143.7382
1600.000000	78.622	-143.0109
1625.000000	78.746	-142.2996
1650.000000	78.878	-141.5807
1675.000000	79.013	-140.9126
1700.000000	79.156	-140.2365
1725.000000	79.294	-139.5577
1750.000000	79.448	-138.9844
1775.000000	79.600	-138.3658
1800.000000	79.760	-137.7547
1825.000000	79.930	-137.2296
1850.000000	80.099	-136.6950
1875.000000	80.269	-136.1700
1900.000000	80.446	-135.7034
1925.000000	80.629	-135.2812
1950.000000	80.814	-134.9019
1975.000000	81.001	-134.5508
2000.000000	81.193	-134.2817
2030.000000	81.439	-133.9490
2060.000000	81.682	-133.6227
2090.000000	81.928	-133.3611
2120.000000	82.192	-133.1848
2140.000000	82.364	-133.1546
2180.000000	82.725	-133.1031
2200.000000	82.898	-133.1054
2240.000000	83.267	-133.2328
2270.000000	83.549	-133.3253
2300.000000	83.844	-133.4175
2330.000000	84.180	-133.6514
2360.000000	84.529	-134.1438
2400.000000	84.999	-135.4664
2430.000000	85.313	-136.7729
2470.000000	85.676	-138.6827
2500.000000	85.916	-140.1566
2540.000000	86.212	-142.1279
2580.000000	86.474	-144.0674
2620.000000	86.718	-145.9474
2650.000000	86.907	-147.3311
2690.000000	87.176	-149.2935
2720.000000	87.381	-150.9910
2760.000000	87.630	-153.5563
2800.000000	87.824	-156.3645
2850.000000	87.979	-159.9842
2900.000000	88.065	-163.5795
2950.000000	88.078	-167.0791
3000.000000	88.031	-170.4027
3040.000000	87.954	-172.8636
3070.000000	87.885	-174.6431
3110.000000	87.786	-176.9138
3150.000000	87.664	-179.0567
3200.000000	87.470	178.4664
3250.000000	87.266	176.2026
3300.000000	87.048	174.1928
3350.000000	86.833	172.3595
3400.000000	86.623	170.5551
3450.000000	86.401	168.8832
3500.000000	86.167	167.3301
3550.000000	85.917	165.9544
3600.000000	85.646	164.8177
3650.000000	85.378	163.9787
3700.000000	85.147	163.4269
3750.000000	84.964	162.9398
3820.000000	84.764	162.1122
3870.000000	84.637	161.3041
3950.000000	84.397	159.7901
4000.000000	84.220	158.8078
4060.000000	84.001	157.7475
4120.000000	83.770	156.8066
4180.000000	83.535	156.0770
4250.000000	83.253	155.4374
4310.000000	83.015	155.0502
4370.000000	82.790	154.8278
4440.000000	82.526	154.7338
4500.000000	82.304	154.8207
4550.000000	82.117	155.0534
4620.000000	81.876	155.7699
4680.000000	81.720	156.7513
4750.000000	81.638	158.0596
4820.000000	81.659	159.1572
4870.000000	81.720	159.6309
4940.000000	81.831	159.8583
5000.000000	81.927	159.6467
5080.000000	81.990	158.9734
5150.000000	82.016	158.0691
5220.000000	82.000	157.0178
5300.000000	81.945	155.7350
5380.000000	81.835	154.5381
5450.000000	81.714	153.5570
5520.000000	81.576	152.8040
5600.000000	81.417	152.0810
5700.000000	81.235	151.5270
5800.000000	81.084	151.1328
5900.000000	80.980	150.8083
6000.000000	80.917	150.2454
6080.000000	80.885	149.6385
6150.000000	80.864	148.8229
6220.000000	80.827	147.7419
6300.000000	80.691	146.0023
6400.000000	80.405	144.6978
6500.000000	80.137	144.1713
6600.000000	79.857	144.0824
6700.000000	79.597	144.6884
6800.000000	79.382	145.8596
6900.000000	79.272	147.5902
7000.000000	79.267	149.6566
7100.000000	79.401	151.7554
7200.000000	79.666	153.5992
7300.000000	80.046	155.0995
7400.000000	80.538	156.0012
7500.000000	81.124	156.2116
7620.000000	81.949	155.2205
7750.000000	82.974	151.8543
7880.000000	83.939	145.0808
8000.000000	84.485	135.9206
8120.000000	84.408	125.6677
8250.000000	83.765	115.6702
8380.000000	82.797	107.8297
8500.000000	81.763	102.4539
8620.000000	80.676	98.6021
8750.000000	79.487	95.8890
8850.000000	78.578	94.7157
9000.000000	77.255	94.1722
9120.000000	76.248	94.7000
9250.000000	75.180	96.0718
9380.000000	74.248	98.5068
9500.000000	73.436	100.9346
9620.000000	72.660	104.1244
9750.000000	71.984	107.9713
9880.000000	71.399	112.1378
10000.000000	70.928	115.9758
10150.000000	70.523	120.8113
10300.000000	70.201	125.1303
10440.000000	69.948	129.1810
10600.000000	69.684	133.5139
10750.000000	69.440	137.3249
10900.000000	69.204	140.9230
11060.000000	68.888	144.8383
11200.000000	68.590	148.7298
11380.000000	68.273	154.4295
11500.000000	68.126	157.9173
11720.000000	67.834	164.1645
11800.000000	67.705	166.3932
12060.000000	67.148	174.9099
12200.000000	66.899	-178.9994
12410.000000	66.708	-169.1664
12500.000000	66.694	-164.5799
12650.000000	66.846	-157.0383
12800.000000	67.164	-149.7859
13150.000000	68.410	-134.6178
13200.000000	68.636	-132.6007
13400.000000	69.666	-125.7002
13600.000000	70.921	-119.9765
13800.000000	72.377	-115.8760
14000.000000	74.092	-114.1509
14300.000000	76.983	-119.5611
14500.000000	78.588	-131.0172
14750.000000	78.906	-151.6147
15000.000000	77.286	-166.1944
15250.000000	75.331	-170.7710
15500.000000	73.948	-169.7975
15750.000000	73.147	-168.8327
16000.000000	72.255	-170.3660
16250.000000	71.025	-170.6919
16500.000000	69.568	-164.2481
16750.000000	69.888	-158.4328
17000.000000	68.968	-158.6843
17250.000000	67.850	-153.9689
17500.000000	66.900	-147.0198
17750.000000	66.282	-138.2384
18000.000000	65.866	-130.0832
18250.000000	65.369	-121.6696
18500.000000	64.952	-108.1967
18750.000000	66.458	-87.6433
19000.000000	69.811	-90.0673
19250.000000	70.887	-100.0126
19500.000000	71.277	-106.6036
19750.000000	71.824	-113.5219
