* Measurement data measured by REW V5.30.9
* Source: Headset (Odo By VECLAN.COM), MICROPHONE (Master Volume), L, volume: 0.250
* Format: 512k Log Swept Sine, 1 sweep at -12.0 dBFS with no timing reference
* Dated: 09 30, 24 12:50:52 PM
* REW Settings:
*  C-weighting compensation: Off
*  Target level: 75.0 dB
* Note: ; 
* Measurement: carol stock R
* Smoothing: None
* Frequency Step: 1/48 octave
* Start Frequency: 1.000 Hz
*
* Freq(Hz)	SPL(dB)	Phase(degrees)
1.000000	35.698	43.7260
1.015000	35.669	40.9777
1.030000	35.651	38.2147
1.044000	35.644	35.6238
1.060000	35.651	32.6496
1.075000	35.671	29.8499
1.090000	35.707	27.0404
1.106000	35.762	24.0252
1.120000	35.822	21.3231
1.138000	35.915	17.7573
1.150000	35.985	15.3291
1.172000	36.132	10.7872
1.180000	36.191	9.1106
1.206000	36.400	3.5900
1.220000	36.524	0.5825
1.241000	36.723	-3.9563
1.250000	36.812	-5.9069
1.265000	36.968	-9.1586
1.280000	37.129	-12.4041
1.315000	37.530	-19.9073
1.320000	37.589	-20.9668
1.340000	37.832	-25.1619
1.360000	38.082	-29.2738
1.380000	38.338	-33.2831
1.400000	38.599	-37.1708
1.430000	38.995	-42.7318
1.450000	39.261	-46.2309
1.475000	39.597	-50.3472
1.500000	39.953	-54.2541
1.525000	40.331	-57.9840
1.550000	40.728	-61.5492
1.575000	41.141	-64.9620
1.600000	41.566	-68.2347
1.625000	42.000	-71.3797
1.650000	42.440	-74.4093
1.675000	42.882	-77.3358
1.700000	43.324	-80.1715
1.725000	43.761	-82.9287
1.750000	44.190	-85.6199
1.775000	44.608	-88.2572
1.800000	45.012	-90.8531
1.825000	45.399	-93.4198
1.850000	45.769	-95.9394
1.875000	46.134	-98.3503
1.900000	46.492	-100.6586
1.925000	46.845	-102.8735
1.950000	47.192	-105.0041
1.975000	47.534	-107.0594
2.000000	47.870	-109.0488
2.030000	48.266	-111.3618
2.060000	48.655	-113.6087
2.090000	49.037	-115.8054
2.120000	49.411	-117.9675
2.140000	49.656	-119.3976
2.180000	50.138	-122.2516
2.200000	50.374	-123.6845
2.240000	50.835	-126.4961
2.270000	51.170	-128.5392
2.300000	51.497	-130.5317
2.330000	51.817	-132.4787
2.360000	52.129	-134.3852
2.400000	52.535	-136.8729
2.430000	52.833	-138.7046
2.470000	53.221	-141.1110
2.500000	53.506	-142.8954
2.540000	53.879	-145.2570
2.580000	54.245	-147.6053
2.620000	54.601	-149.9120
2.650000	54.860	-151.6118
2.690000	55.197	-153.8414
2.720000	55.443	-155.4883
2.760000	55.764	-157.6540
2.800000	56.076	-159.7891
2.850000	56.457	-162.4216
2.900000	56.827	-165.0213
2.950000	57.188	-167.5945
3.000000	57.536	-170.1265
3.040000	57.806	-172.1212
3.070000	58.003	-173.6000
3.110000	58.261	-175.5503
3.150000	58.511	-177.4773
3.200000	58.816	-179.8557
3.250000	59.112	177.7969
3.300000	59.401	175.4775
3.350000	59.681	173.1889
3.400000	59.951	170.9337
3.450000	60.212	168.7112
3.500000	60.464	166.5209
3.550000	60.709	164.3621
3.600000	60.946	162.2340
3.650000	61.178	160.1360
3.700000	61.404	158.0680
3.750000	61.622	156.0309
3.820000	61.914	153.2309
3.870000	62.115	151.2680
3.950000	62.426	148.1915
4.000000	62.614	146.3088
4.060000	62.835	144.0906
4.120000	63.047	141.9185
4.180000	63.252	139.7915
4.250000	63.482	137.3652
4.310000	63.675	135.3314
4.370000	63.864	133.3385
4.440000	64.081	131.0665
4.500000	64.261	129.1699
4.550000	64.407	127.6223
4.620000	64.608	125.5011
4.680000	64.779	123.7201
4.750000	64.977	121.6796
4.820000	65.173	119.6838
4.870000	65.312	118.2923
4.940000	65.505	116.3834
5.000000	65.669	114.7755
5.080000	65.887	112.6594
5.150000	66.079	110.8235
5.220000	66.272	109.0194
5.300000	66.492	106.9926
5.380000	66.712	104.9869
5.450000	66.904	103.2357
5.520000	67.095	101.4781
5.600000	67.315	99.4779
5.700000	67.589	96.9871
5.800000	67.860	94.4908
5.900000	68.125	91.9730
6.000000	68.386	89.4373
6.080000	68.591	87.4005
6.150000	68.767	85.6146
6.220000	68.936	83.8271
6.300000	69.124	81.7767
6.400000	69.352	79.2004
6.500000	69.569	76.6301
6.600000	69.773	74.0874
6.700000	69.965	71.5606
6.800000	70.145	69.0511
6.900000	70.315	66.5865
7.000000	70.473	64.1891
7.100000	70.619	61.8400
7.200000	70.755	59.5496
7.300000	70.885	57.3378
7.400000	71.010	55.2164
7.500000	71.126	53.1749
7.620000	71.262	50.8291
7.750000	71.414	48.4195
7.880000	71.564	46.1604
8.000000	71.708	44.1673
8.120000	71.864	42.2318
8.250000	72.042	40.2312
8.380000	72.232	38.2617
8.500000	72.418	36.4221
8.620000	72.615	34.5911
8.750000	72.835	32.5688
8.850000	73.005	30.9561
9.000000	73.268	28.4679
9.120000	73.476	26.4142
9.250000	73.692	24.1136
9.380000	73.903	21.7379
9.500000	74.088	19.5092
9.620000	74.260	17.2528
9.750000	74.435	14.7692
9.880000	74.589	12.2961
10.000000	74.709	10.0341
10.150000	74.834	7.2272
10.300000	74.941	4.5032
10.440000	75.022	2.0342
10.600000	75.104	-0.6915
10.750000	75.176	-3.1331
10.900000	75.244	-5.4775
11.060000	75.321	-7.8927
11.200000	75.390	-9.9247
11.380000	75.486	-12.4871
11.500000	75.556	-14.1685
11.720000	75.692	-17.2306
11.800000	75.744	-18.3535
12.060000	75.918	-22.0242
12.200000	76.008	-24.0330
12.410000	76.143	-27.0787
12.500000	76.201	-28.3879
12.650000	76.302	-30.5823
12.800000	76.399	-32.7692
13.150000	76.603	-37.7922
13.200000	76.631	-38.4956
13.400000	76.735	-41.2704
13.600000	76.838	-43.9845
13.800000	76.940	-46.6335
14.000000	77.045	-49.2434
14.300000	77.207	-53.1021
14.500000	77.318	-55.6660
14.750000	77.458	-58.8768
15.000000	77.596	-62.1003
15.250000	77.728	-65.3307
15.500000	77.854	-68.5523
15.750000	77.972	-71.7562
16.000000	78.086	-74.9314
16.250000	78.198	-78.0798
16.500000	78.307	-81.2035
16.750000	78.411	-84.3076
17.000000	78.508	-87.3887
17.250000	78.600	-90.4386
17.500000	78.684	-93.4453
17.750000	78.765	-96.3890
18.000000	78.844	-99.2681
18.250000	78.926	-102.0806
18.500000	79.014	-104.8536
18.750000	79.111	-107.6180
19.000000	79.215	-110.4029
19.250000	79.322	-113.2473
19.500000	79.425	-116.1512
19.750000	79.521	-119.1121
20.000000	79.603	-122.0950
20.299999	79.683	-125.6415
20.600000	79.746	-129.0927
20.900000	79.801	-132.4039
21.200001	79.860	-135.5715
21.400000	79.907	-137.6320
21.799999	80.022	-141.7133
22.000000	80.088	-143.7761
22.400000	80.227	-148.0099
22.700001	80.326	-151.2768
23.000000	80.412	-154.5823
23.299999	80.484	-157.8732
23.600000	80.545	-161.1108
24.000000	80.618	-165.3120
24.299999	80.674	-168.3829
24.700001	80.757	-172.4126
25.000000	80.825	-175.4250
25.400000	80.922	-179.4722
25.799999	81.017	176.4206
26.200001	81.101	172.2651
26.500000	81.153	169.1498
26.900000	81.207	165.0563
27.200001	81.241	162.0694
27.600000	81.288	158.2141
28.000000	81.349	154.4517
28.500000	81.450	149.7159
29.000000	81.553	144.8124
29.500000	81.628	139.8169
30.000000	81.671	134.9562
30.400000	81.702	131.2540
30.700001	81.735	128.5629
31.100000	81.797	124.9926
31.500000	81.872	121.3549
32.000000	81.965	116.6741
32.500000	82.039	111.9304
33.000000	82.096	107.2333
33.500000	82.143	102.6094
34.000000	82.183	98.0484
34.500000	82.216	93.5713
35.000000	82.249	89.2065
35.500000	82.292	84.9210
36.000000	82.348	80.6260
36.500000	82.405	76.2643
37.000000	82.452	71.8646
37.500000	82.487	67.5035
38.200001	82.534	61.5392
38.700001	82.579	57.3352
39.500000	82.665	50.5203
40.000000	82.711	46.1916
40.599998	82.749	41.0320
41.200001	82.781	36.0036
41.799999	82.822	31.0529
42.500000	82.873	25.2469
43.099998	82.906	20.2878
43.700001	82.937	15.4258
44.400002	82.987	9.7677
45.000000	83.026	4.8160
45.500000	83.041	0.6957
46.200001	83.052	-4.8844
46.799999	83.083	-9.5557
47.500000	83.139	-15.1533
48.200001	83.170	-20.8793
48.700001	83.174	-24.8829
49.400002	83.186	-30.2896
50.000000	83.217	-34.8868
50.799999	83.263	-41.1414
51.500000	83.287	-46.6428
52.200001	83.303	-52.0602
53.000000	83.326	-58.1913
53.799999	83.351	-64.3161
54.500000	83.372	-69.6472
55.200001	83.392	-74.9724
56.000000	83.398	-81.0080
57.000000	83.402	-88.1614
58.000000	83.476	-95.2629
59.000000	83.525	-102.8256
60.000000	83.514	-110.1334
60.799999	83.527	-115.8946
61.500000	83.528	-121.0095
62.200001	83.524	-125.9636
63.000000	83.565	-131.5825
64.000000	83.617	-139.0801
65.000000	83.594	-146.2961
66.000000	83.629	-153.0851
67.000000	83.685	-160.1234
68.000000	83.724	-167.1462
69.000000	83.751	-174.2648
70.000000	83.748	178.7822
71.000000	83.781	171.9312
72.000000	83.808	164.8683
73.000000	83.822	157.9545
74.000000	83.852	151.0718
75.000000	83.873	144.2286
76.199997	83.905	136.1086
77.500000	83.936	127.3522
78.800003	83.981	118.5767
80.000000	84.007	110.3468
81.199997	84.023	102.2493
82.500000	84.053	93.4425
83.800003	84.071	84.8025
85.000000	84.122	76.6926
86.199997	84.119	68.5648
87.500000	84.145	59.9341
88.500000	84.142	53.1919
90.000000	84.155	43.3207
91.199997	84.151	35.2283
92.500000	84.140	26.6602
93.800003	84.123	17.9438
95.000000	84.086	10.1051
96.199997	84.080	2.2722
97.500000	84.049	-6.3597
98.800003	83.994	-14.7874
100.000000	83.958	-22.4276
101.500000	83.920	-32.0828
103.000000	83.844	-41.6218
104.400002	83.787	-50.3158
106.000000	83.732	-60.3407
107.500000	83.640	-69.7375
109.000000	83.569	-78.8650
110.599998	83.491	-88.6617
112.000000	83.447	-97.0863
113.800003	83.341	-107.9802
115.000000	83.296	-115.1486
117.199997	83.171	-128.1719
118.000000	83.146	-133.0846
120.599998	82.992	-148.2505
122.000000	82.935	-156.3466
124.099998	82.826	-168.4218
125.000000	82.778	-173.5936
126.500000	82.701	177.7341
128.000000	82.635	169.1648
131.500000	82.488	149.3561
132.000000	82.462	146.5472
134.000000	82.363	135.3861
136.000000	82.242	124.0122
138.000000	82.187	112.9807
140.000000	82.105	101.9846
143.000000	81.957	85.4026
145.000000	81.840	74.4321
147.500000	81.710	60.8129
150.000000	81.591	47.2405
152.500000	81.442	33.7566
155.000000	81.302	20.3170
157.500000	81.144	6.9479
160.000000	80.961	-6.1996
162.500000	80.777	-19.3645
165.000000	80.585	-32.4476
167.500000	80.388	-45.4479
170.000000	80.146	-58.2344
172.500000	79.900	-71.0057
175.000000	79.662	-83.6149
177.500000	79.414	-96.1648
180.000000	79.124	-108.4021
182.500000	78.845	-120.5994
185.000000	78.555	-132.5822
187.500000	78.257	-144.3761
190.000000	77.938	-155.8296
192.500000	77.640	-167.0692
195.000000	77.338	-177.8567
197.500000	77.025	171.6136
200.000000	76.715	161.0398
203.000000	76.437	148.3894
206.000000	76.276	136.6013
209.000000	76.067	125.1759
212.000000	75.964	113.4358
214.000000	75.909	105.7117
218.000000	75.871	90.3837
220.000000	75.881	82.4786
224.000000	75.912	66.3142
227.000000	75.992	54.3120
230.000000	76.039	42.0806
233.000000	76.152	29.6282
236.000000	76.177	16.9269
240.000000	76.192	-0.0195
243.000000	76.264	-12.7810
247.000000	76.311	-29.7178
250.000000	76.319	-42.3000
254.000000	76.240	-59.2162
258.000000	76.235	-75.7869
262.000000	76.145	-92.7109
265.000000	76.056	-105.0571
269.000000	75.999	-121.3362
272.000000	75.813	-133.2515
276.000000	75.771	-149.3601
280.000000	75.684	-165.2053
285.000000	75.588	174.8784
290.000000	75.401	155.6797
295.000000	75.276	136.5078
300.000000	75.140	117.4084
304.000000	75.050	102.5342
307.000000	74.999	91.3096
311.000000	74.945	77.0642
315.000000	74.912	62.1133
320.000000	74.778	44.2334
325.000000	74.777	26.2219
330.000000	74.756	8.2190
335.000000	74.749	-9.4150
340.000000	74.694	-27.1760
345.000000	74.737	-44.7849
350.000000	74.788	-62.3398
355.000000	74.838	-79.7793
360.000000	74.859	-97.2512
365.000000	74.916	-114.6514
370.000000	74.950	-132.0293
375.000000	74.997	-149.2979
382.000000	75.016	-173.5195
387.000000	75.018	169.5984
395.000000	75.206	142.1621
400.000000	75.230	125.6328
406.000000	75.227	104.5117
412.000000	75.277	84.3101
418.000000	75.342	64.3120
425.000000	75.353	40.6597
431.000000	75.366	20.5674
437.000000	75.408	0.9031
444.000000	75.399	-22.1145
450.000000	75.399	-41.7632
455.000000	75.420	-57.6763
462.000000	75.442	-80.4019
468.000000	75.419	-99.5234
475.000000	75.390	-121.7263
482.000000	75.397	-143.8088
487.000000	75.372	-159.3225
494.000000	75.355	178.9990
500.000000	75.358	160.4805
508.000000	75.338	135.9424
515.000000	75.325	114.6465
522.000000	75.299	93.6592
530.000000	75.273	69.5935
538.000000	75.248	46.0891
545.000000	75.235	25.5193
552.000000	75.217	5.1592
560.000000	75.147	-17.9319
570.000000	75.112	-46.6030
580.000000	75.079	-74.8501
590.000000	74.999	-102.9290
600.000000	74.953	-130.9414
608.000000	74.921	-152.5781
615.000000	74.906	-171.8655
622.000000	74.839	169.3652
630.000000	74.818	147.9458
640.000000	74.768	121.4209
650.000000	74.721	94.9976
660.000000	74.658	68.9419
670.000000	74.604	43.2461
680.000000	74.573	17.8110
690.000000	74.533	-7.4590
700.000000	74.473	-32.4014
710.000000	74.439	-57.1609
720.000000	74.420	-81.6543
730.000000	74.368	-105.9917
740.000000	74.339	-129.8506
750.000000	74.327	-153.8171
762.000000	74.230	177.8003
775.000000	74.232	147.5720
788.000000	74.180	117.7219
800.000000	74.108	89.9321
812.000000	73.989	63.4370
825.000000	74.052	35.5559
838.000000	74.093	6.8611
850.000000	74.115	-19.3005
862.000000	74.105	-45.1475
875.000000	74.116	-72.6875
885.000000	74.107	-93.7622
900.000000	74.116	-124.8799
912.000000	74.136	-149.6472
925.000000	74.153	-176.0652
938.000000	74.174	157.9092
950.000000	74.203	134.0391
962.000000	74.242	110.5349
975.000000	74.262	85.2285
988.000000	74.311	60.1477
1000.000000	74.364	37.1401
1015.000000	74.411	8.8794
1030.000000	74.461	-19.1162
1044.000000	74.521	-45.1006
1060.000000	74.588	-74.1284
1075.000000	74.672	-101.3833
1090.000000	74.741	-128.0249
1106.000000	74.812	-156.2676
1120.000000	74.900	179.3496
1138.000000	74.981	148.2085
1150.000000	75.057	127.9502
1172.000000	75.135	90.9409
1180.000000	75.177	77.5669
1206.000000	75.291	34.9839
1220.000000	75.355	12.3184
1241.000000	75.448	-21.1196
1250.000000	75.490	-35.2949
1265.000000	75.556	-58.5732
1280.000000	75.623	-81.6885
1315.000000	75.767	-134.5059
1320.000000	75.793	-142.0156
1340.000000	75.867	-171.5024
1360.000000	75.934	159.5703
1380.000000	76.009	131.0703
1400.000000	76.080	103.1025
1430.000000	76.194	62.2129
1450.000000	76.241	35.4541
1475.000000	76.328	2.6694
1500.000000	76.385	-29.7227
1525.000000	76.451	-61.1875
1550.000000	76.504	-91.8457
1575.000000	76.580	-121.6147
1600.000000	76.697	-150.6904
1625.000000	76.854	-179.0342
1650.000000	77.053	152.8403
1675.000000	77.243	124.7588
1700.000000	77.390	97.4043
1725.000000	77.491	70.6465
1750.000000	77.602	44.4404
1775.000000	77.680	18.8809
1800.000000	77.765	-6.1338
1825.000000	77.855	-30.2319
1850.000000	77.960	-53.8442
1875.000000	78.057	-76.9707
1900.000000	78.151	-99.5151
1925.000000	78.295	-121.4375
1950.000000	78.412	-142.9395
1975.000000	78.576	-163.8872
2000.000000	78.747	175.4775
2030.000000	78.922	151.2007
2060.000000	79.095	127.6133
2090.000000	79.260	104.7319
2120.000000	79.421	82.6992
2140.000000	79.540	68.3696
2180.000000	79.752	40.3936
2200.000000	79.870	26.9824
2240.000000	80.092	0.7627
2270.000000	80.257	-18.2383
2300.000000	80.444	-36.4580
2330.000000	80.639	-54.0420
2360.000000	80.839	-71.1836
2400.000000	81.130	-93.2476
2430.000000	81.310	-109.2285
2470.000000	81.540	-129.4897
2500.000000	81.741	-144.0288
2540.000000	82.017	-162.5815
2580.000000	82.282	179.6685
2620.000000	82.550	162.6299
2650.000000	82.738	150.3105
2690.000000	82.950	134.5361
2720.000000	83.083	123.3672
2760.000000	83.239	109.2202
2800.000000	83.351	96.1768
2850.000000	83.477	81.1953
2900.000000	83.574	67.7412
2950.000000	83.666	55.7598
3000.000000	83.747	45.0454
3040.000000	83.818	37.4956
3070.000000	83.872	32.3467
3110.000000	83.903	26.1675
3150.000000	83.941	20.8765
3200.000000	83.894	15.2168
3250.000000	83.812	10.8193
3300.000000	83.690	7.6509
3350.000000	83.502	5.6802
3400.000000	83.316	5.6152
3450.000000	83.120	6.9941
3500.000000	82.904	9.7905
3550.000000	82.708	14.0977
3600.000000	82.520	19.5820
3650.000000	82.338	26.3843
3700.000000	82.168	34.4194
3750.000000	82.011	43.6562
3820.000000	81.783	58.2407
3870.000000	81.633	70.2954
3950.000000	81.379	91.6865
4000.000000	81.221	106.4897
4060.000000	81.043	125.2959
4120.000000	80.908	145.7661
4180.000000	80.773	168.0898
4250.000000	80.632	-164.0610
4310.000000	80.531	-138.5957
4370.000000	80.432	-111.8008
4440.000000	80.350	-78.6479
4500.000000	80.289	-48.6235
4550.000000	80.250	-22.8574
4620.000000	80.214	14.7739
4680.000000	80.170	48.4580
4750.000000	80.161	89.4048
4820.000000	80.161	131.9160
4870.000000	80.174	163.2227
4940.000000	80.208	-151.5703
5000.000000	80.224	-111.7393
5080.000000	80.254	-56.6753
5150.000000	80.268	-6.8672
5220.000000	80.318	44.4751
5300.000000	80.346	104.5913
5380.000000	80.421	166.8887
5450.000000	80.472	-137.0908
5520.000000	80.510	-79.6030
5600.000000	80.617	-11.6235
5700.000000	80.667	74.7881
5800.000000	80.719	164.0244
5900.000000	80.725	-104.8560
6000.000000	80.743	-10.4897
6080.000000	80.700	67.0464
6150.000000	80.635	136.3936
6220.000000	80.574	-152.5308
6300.000000	80.486	-69.6108
6400.000000	80.469	36.6719
6500.000000	80.530	145.7920
6600.000000	80.705	-102.4805
6700.000000	80.911	10.8564
6800.000000	81.128	126.0046
6900.000000	81.326	-117.0356
7000.000000	81.435	1.7998
7100.000000	81.486	123.2742
7200.000000	81.489	-112.8948
7300.000000	81.465	13.3687
7400.000000	81.440	142.2034
7500.000000	81.385	-86.7324
7620.000000	81.338	73.6821
7750.000000	81.311	-108.4282
7880.000000	81.323	72.8726
8000.000000	81.348	-116.9116
8120.000000	81.355	56.1365
8250.000000	81.377	-113.1163
8380.000000	81.463	80.4635
8500.000000	81.502	-98.6224
8620.000000	81.541	85.1460
8750.000000	81.574	-73.2137
8850.000000	81.191	83.9759
9000.000000	83.383	-64.7175
9120.000000	80.895	-66.1962
9250.000000	80.898	-66.2260
9380.000000	80.465	-66.9111
9500.000000	80.131	-66.8405
9620.000000	79.806	-66.5604
9750.000000	79.477	-65.9662
9880.000000	79.200	-65.6473
10000.000000	78.898	-66.3784
10150.000000	78.327	-67.6564
10300.000000	77.442	-67.4891
10440.000000	76.534	-64.9225
10600.000000	75.678	-60.0218
10750.000000	75.040	-54.5475
10900.000000	74.596	-48.7891
11060.000000	74.277	-42.4073
11200.000000	74.135	-36.4349
11380.000000	74.093	-29.4811
11500.000000	74.188	-25.3446
11720.000000	74.524	-18.6932
11800.000000	74.703	-16.7580
12060.000000	75.610	-13.3814
12200.000000	76.547	-20.6693
12410.000000	68.943	-23.9214
12500.000000	69.810	1.6287
12650.000000	71.749	14.5817
12800.000000	72.848	21.6608
13150.000000	75.069	34.5960
13200.000000	75.479	36.4253
13400.000000	77.133	39.7941
13600.000000	78.141	39.9242
13800.000000	80.511	36.5323
14000.000000	81.701	21.1130
14300.000000	80.178	-0.1324
14500.000000	78.251	-4.5668
14750.000000	76.094	-2.1307
15000.000000	74.479	4.3459
15250.000000	73.372	12.5631
15500.000000	72.796	21.5082
15750.000000	72.709	29.7845
16000.000000	73.138	36.7737
16250.000000	74.410	40.0995
16500.000000	76.032	34.4952
16750.000000	76.368	15.6530
17000.000000	73.793	-1.4705
17250.000000	70.262	-3.8779
17500.000000	67.114	1.3899
17750.000000	64.388	10.2160
18000.000000	62.181	21.8944
18250.000000	60.288	34.6252
18500.000000	58.767	47.5513
18750.000000	57.392	61.1014
19000.000000	56.033	75.3735
19250.000000	54.927	88.8938
19500.000000	53.956	104.2173
19750.000000	52.854	119.3251
