* Measurement data measured by REW V5.30.9
* Source: Microphone (Realtek USB2.0 Audio), MICROPHONE (Master Volume), L, volume: 0.500
* Format: 512k Log Swept Sine, 1 sweep at -12.0 dBFS with no timing reference
* Dated: 02 23, 24 5:55:20 PM
* REW Settings:
*  C-weighting compensation: Off
*  Target level: 75.0 dB
* Note: ; 
* Measurement: castor DDDD L
* Smoothing: None
* Frequency Step: 1/48 octave
* Start Frequency: 1.000 Hz
*
* Freq(Hz)	SPL(dB)	Phase(degrees)
1.000000	48.987	-76.8677
1.015000	48.856	-77.7620
1.030000	48.725	-78.6492
1.044000	48.602	-79.4698
1.060000	48.461	-80.3986
1.075000	48.328	-81.2603
1.090000	48.194	-82.1130
1.106000	48.048	-83.0124
1.120000	47.918	-83.7905
1.138000	47.748	-84.7786
1.150000	47.631	-85.4293
1.172000	47.411	-86.6054
1.180000	47.328	-87.0275
1.206000	47.050	-88.3784
1.220000	46.893	-89.0922
1.241000	46.647	-90.1444
1.250000	46.538	-90.5884
1.265000	46.350	-91.3191
1.280000	46.154	-92.0379
1.315000	45.664	-93.6673
1.320000	45.590	-93.8945
1.340000	45.284	-94.7889
1.360000	44.961	-95.7583
1.380000	44.627	-97.0436
1.400000	44.281	-98.5901
1.430000	43.741	-101.2418
1.450000	43.367	-103.1255
1.475000	42.882	-105.4836
1.500000	42.378	-107.7138
1.525000	41.855	-109.6751
1.550000	41.313	-111.2263
1.575000	40.752	-112.2265
1.600000	40.172	-112.5345
1.625000	39.571	-112.0092
1.650000	38.951	-110.5096
1.675000	38.310	-107.8947
1.700000	37.614	-103.9166
1.725000	36.781	-98.3282
1.750000	35.837	-91.3623
1.775000	34.816	-83.2757
1.800000	33.749	-74.3248
1.825000	32.670	-64.7664
1.850000	31.612	-54.8571
1.875000	30.607	-44.8535
1.900000	29.689	-35.0123
1.925000	28.889	-25.5900
1.950000	28.242	-16.8432
1.975000	27.779	-9.0287
2.000000	27.533	-2.4031
2.030000	27.574	3.7044
2.060000	28.010	8.4663
2.090000	28.787	12.2181
2.120000	29.840	15.0907
2.140000	30.661	16.5821
2.180000	32.502	18.7224
2.200000	33.482	19.4489
2.240000	35.463	20.4089
2.270000	36.889	20.8502
2.300000	38.190	21.1981
2.330000	39.299	21.5837
2.360000	40.152	22.1284
2.400000	41.033	22.5157
2.430000	41.581	22.3845
2.470000	42.186	21.7688
2.500000	42.563	21.0590
2.540000	42.990	19.9035
2.580000	43.357	18.6476
2.620000	43.697	17.4426
2.650000	43.954	16.6632
2.690000	44.322	15.9112
2.720000	44.607	15.5180
2.760000	44.951	15.0046
2.800000	45.259	14.5200
2.850000	45.606	13.9828
2.900000	45.922	13.5554
2.950000	46.220	13.2739
3.000000	46.514	13.1742
3.040000	46.754	13.2461
3.070000	46.928	13.3632
3.110000	47.148	13.5927
3.150000	47.356	13.9151
3.200000	47.607	14.4645
3.250000	47.851	15.1949
3.300000	48.096	16.1261
3.350000	48.346	17.2781
3.400000	48.604	18.6672
3.450000	48.859	20.2852
3.500000	49.114	22.1144
3.550000	49.370	24.1373
3.600000	49.629	26.3362
3.650000	49.894	28.6934
3.700000	50.167	31.1914
3.750000	50.448	33.9144
3.820000	50.852	38.1650
3.870000	51.146	41.3955
3.950000	51.626	46.6591
4.000000	51.931	49.8719
4.060000	52.300	53.5375
4.120000	52.677	57.2239
4.180000	53.061	60.9154
4.250000	53.513	65.0840
4.310000	53.902	68.4149
4.370000	54.288	71.4076
4.440000	54.739	74.4601
4.500000	55.126	76.7906
4.550000	55.449	78.5430
4.620000	55.899	80.7247
4.680000	56.282	82.3595
4.750000	56.723	83.9876
4.820000	57.160	85.2428
4.870000	57.471	85.9474
4.940000	57.902	86.7313
5.000000	58.269	87.2731
5.080000	58.751	87.8804
5.150000	59.169	88.2095
5.220000	59.582	88.3660
5.300000	60.049	88.4006
5.380000	60.510	88.3567
5.450000	60.910	88.2493
5.520000	61.305	88.0375
5.600000	61.751	87.7123
5.700000	62.302	87.2575
5.800000	62.845	86.7854
5.900000	63.380	86.2485
6.000000	63.906	85.6913
6.080000	64.322	85.2612
6.150000	64.681	84.8903
6.220000	65.036	84.5194
6.300000	65.437	84.0970
6.400000	65.930	83.5741
6.500000	66.414	83.0620
6.600000	66.890	82.5552
6.700000	67.357	82.0418
6.800000	67.816	81.5132
6.900000	68.267	80.9737
7.000000	68.711	80.4287
7.100000	69.148	79.8828
7.200000	69.578	79.3355
7.300000	70.002	78.7850
7.400000	70.421	78.2304
7.500000	70.835	77.6671
7.620000	71.324	76.9847
7.750000	71.848	76.2589
7.880000	72.364	75.5531
8.000000	72.834	74.9148
8.120000	73.297	74.2903
8.250000	73.791	73.6299
8.380000	74.275	72.9836
8.500000	74.712	72.3972
8.620000	75.140	71.8211
8.750000	75.592	71.2122
8.850000	75.931	70.7560
9.000000	76.427	70.0893
9.120000	76.811	69.5684
9.250000	77.216	69.0134
9.380000	77.609	68.4771
9.500000	77.964	68.0072
9.620000	78.310	67.5593
9.750000	78.677	67.0939
9.880000	79.037	66.6501
10.000000	79.364	66.2574
10.150000	79.766	65.7759
10.300000	80.161	65.3060
10.440000	80.523	64.8742
10.600000	80.931	64.3883
10.750000	81.305	63.9354
10.900000	81.671	63.4770
11.060000	82.051	62.9884
11.200000	82.374	62.5658
11.380000	82.776	62.0317
11.500000	83.037	61.6992
11.720000	83.499	61.1354
11.800000	83.664	60.9499
12.060000	84.187	60.4210
12.200000	84.465	60.1720
12.410000	84.880	59.8408
12.500000	85.058	59.7055
12.650000	85.356	59.4969
12.800000	85.654	59.2679
13.150000	86.330	58.5922
13.200000	86.393	58.4696
13.400000	86.576	57.9242
13.600000	86.696	57.3327
13.800000	86.771	56.7056
14.000000	86.838	56.0589
14.300000	86.916	55.1321
14.500000	86.955	54.6045
14.750000	86.986	54.1346
15.000000	87.023	53.8305
15.250000	87.082	53.6297
15.500000	87.165	53.4784
15.750000	87.264	53.3384
16.000000	87.383	53.0894
16.250000	87.516	52.6971
16.500000	87.652	52.1588
16.750000	87.769	51.5388
17.000000	87.873	50.8574
17.250000	87.964	50.1497
17.500000	88.043	49.4557
17.750000	88.102	48.8386
18.000000	88.155	48.2883
18.250000	88.206	47.8071
18.500000	88.260	47.3986
18.750000	88.311	47.0792
19.000000	88.373	46.8032
19.250000	88.446	46.5405
19.500000	88.531	46.2631
19.750000	88.618	45.9510
20.000000	88.708	45.5648
20.299999	88.813	45.0008
20.600000	88.905	44.3707
20.900000	88.975	43.7495
21.200001	89.033	43.1766
21.400000	89.069	42.8473
21.799999	89.140	42.3205
22.000000	89.182	42.0793
22.400000	89.278	41.5584
22.700001	89.349	41.1160
23.000000	89.409	40.6410
23.299999	89.461	40.1725
23.600000	89.504	39.7922
24.000000	89.567	39.4789
24.299999	89.639	39.2981
24.700001	89.766	38.9748
25.000000	89.872	38.5556
25.400000	90.002	37.7031
25.799999	90.080	36.7155
26.200001	90.112	35.8273
26.500000	90.119	35.3415
26.900000	90.129	34.9557
27.200001	90.155	34.7640
27.600000	90.212	34.5119
28.000000	90.278	34.1887
28.500000	90.363	33.6684
29.000000	90.441	33.1396
29.500000	90.532	32.5133
30.000000	90.611	31.6739
30.400000	90.648	30.8293
30.700001	90.647	30.2057
31.100000	90.612	29.5402
31.500000	90.568	29.1890
32.000000	90.553	29.1824
32.500000	90.631	29.2220
33.000000	90.764	28.8671
33.500000	90.891	27.9990
34.000000	90.965	26.9815
34.500000	91.014	26.0762
35.000000	91.064	25.2898
35.500000	91.117	24.4239
36.000000	91.137	23.5869
36.500000	91.138	23.0114
37.000000	91.166	22.7743
37.500000	91.253	22.4774
38.200001	91.369	21.5121
38.700001	91.384	20.8238
39.500000	91.420	20.5482
40.000000	91.526	20.3072
40.599998	91.640	19.2992
41.200001	91.632	18.2082
41.799999	91.590	17.8346
42.500000	91.666	17.6403
43.099998	91.753	16.7369
43.700001	91.728	15.6413
44.400002	91.654	15.3311
45.000000	91.719	15.4296
45.500000	91.838	14.9306
46.200001	91.913	13.3748
46.799999	91.844	12.3207
47.500000	91.794	12.1425
48.200001	91.911	11.8240
48.700001	91.991	10.8457
49.400002	91.932	9.4033
50.000000	91.829	9.2295
50.799999	91.905	9.5916
51.500000	92.030	8.8758
52.200001	92.031	8.2076
53.000000	92.125	8.2800
53.799999	92.339	6.9928
54.500000	92.299	5.0871
55.200001	92.114	4.5569
56.000000	92.123	5.1183
57.000000	92.319	4.1148
58.000000	92.370	2.5064
59.000000	92.393	0.7295
60.000000	92.223	-0.6268
60.799999	92.145	-0.2285
61.500000	92.248	-0.1269
62.200001	92.325	-1.0179
63.000000	92.238	-2.0990
64.000000	92.088	-1.9997
65.000000	92.184	-1.8886
66.000000	92.278	-3.5771
67.000000	92.177	-5.0104
68.000000	92.216	-5.6217
69.000000	92.293	-7.0149
70.000000	92.280	-7.6892
71.000000	92.368	-8.1361
72.000000	92.312	-8.8723
73.000000	92.219	-8.4116
74.000000	92.216	-8.6913
75.000000	92.041	-9.4405
76.199997	91.854	-10.0084
77.500000	91.732	-10.4882
78.800003	91.967	-12.1956
80.000000	92.007	-15.0779
81.199997	91.900	-16.5522
82.500000	91.911	-16.4159
83.800003	91.880	-17.0871
85.000000	91.820	-16.3289
86.199997	91.911	-16.7612
87.500000	91.925	-17.8561
88.500000	91.929	-19.3396
90.000000	91.660	-20.6779
91.199997	91.707	-20.1635
92.500000	91.761	-21.4871
93.800003	91.678	-22.1256
95.000000	91.623	-22.4544
96.199997	91.665	-23.0298
97.500000	91.584	-24.2156
98.800003	91.544	-24.7570
100.000000	91.457	-25.7493
101.500000	91.328	-25.7616
103.000000	91.394	-26.7531
104.400002	91.293	-27.8348
106.000000	91.229	-28.6799
107.500000	91.175	-29.3759
109.000000	91.089	-30.0460
110.599998	90.945	-30.8491
112.000000	90.900	-31.5521
113.800003	90.798	-32.4305
115.000000	90.880	-32.9801
117.199997	90.758	-33.0855
118.000000	90.787	-34.0716
120.599998	90.863	-33.5178
122.000000	90.360	-36.0581
124.099998	90.371	-37.5342
125.000000	90.262	-37.5624
126.500000	90.292	-38.0757
128.000000	90.235	-38.3518
131.500000	89.983	-39.3730
132.000000	89.949	-39.5467
134.000000	89.840	-40.4959
136.000000	89.793	-41.1316
138.000000	89.681	-41.7457
140.000000	89.526	-41.5656
143.000000	89.366	-43.3354
145.000000	89.280	-44.1068
147.500000	89.182	-44.8104
150.000000	88.973	-44.6648
152.500000	88.793	-45.5152
155.000000	88.720	-46.4242
157.500000	88.617	-47.1741
160.000000	88.469	-47.6960
162.500000	88.358	-48.4785
165.000000	88.169	-49.0309
167.500000	88.027	-49.6810
170.000000	87.862	-50.1563
172.500000	87.706	-50.5623
175.000000	87.543	-51.0180
177.500000	87.365	-51.5293
180.000000	87.190	-52.0573
182.500000	87.038	-52.3569
185.000000	86.873	-52.7997
187.500000	86.710	-53.1692
190.000000	86.539	-53.4905
192.500000	86.392	-53.7662
195.000000	86.231	-54.0208
197.500000	86.053	-54.1799
200.000000	85.905	-54.5416
203.000000	85.691	-54.7161
206.000000	85.524	-54.8932
209.000000	85.326	-55.0711
212.000000	85.166	-55.0994
214.000000	85.051	-55.3963
218.000000	84.809	-55.4543
220.000000	84.691	-55.5092
224.000000	84.415	-55.5871
227.000000	84.303	-55.5662
230.000000	84.133	-55.3002
233.000000	83.943	-55.2645
236.000000	83.775	-55.2254
240.000000	83.546	-55.6915
243.000000	83.407	-55.4205
247.000000	83.184	-54.6925
250.000000	83.021	-54.3945
254.000000	82.761	-53.9300
258.000000	82.568	-53.7517
262.000000	82.378	-53.2442
265.000000	82.212	-52.7719
269.000000	82.008	-52.6178
272.000000	81.859	-51.9060
276.000000	81.699	-51.3960
280.000000	81.512	-50.8353
285.000000	81.296	-50.1044
290.000000	81.095	-49.0303
295.000000	80.865	-48.3016
300.000000	80.699	-47.7659
304.000000	80.521	-46.3616
307.000000	80.451	-45.2834
311.000000	80.219	-45.8451
315.000000	80.217	-44.4520
320.000000	80.056	-43.7753
325.000000	79.891	-42.5926
330.000000	79.631	-41.3977
335.000000	79.589	-40.8221
340.000000	79.438	-39.9384
345.000000	79.392	-38.7060
350.000000	79.331	-37.6835
355.000000	79.168	-36.5269
360.000000	78.888	-30.0502
365.000000	78.905	-34.4092
370.000000	79.027	-32.9072
375.000000	78.819	-32.5267
382.000000	78.771	-31.2872
387.000000	78.684	-30.1474
395.000000	78.631	-28.9081
400.000000	78.538	-27.8191
406.000000	78.556	-26.9140
412.000000	78.499	-25.9304
418.000000	78.471	-24.9702
425.000000	78.453	-23.6122
431.000000	78.419	-23.0724
437.000000	78.397	-21.8535
444.000000	78.369	-20.9534
450.000000	78.291	-19.9987
455.000000	78.343	-19.1663
462.000000	78.324	-18.4943
468.000000	78.340	-17.7711
475.000000	78.315	-16.7626
482.000000	78.344	-15.9841
487.000000	78.313	-15.4811
494.000000	78.314	-14.4892
500.000000	78.330	-13.7425
508.000000	78.337	-12.9892
515.000000	78.294	-12.3727
522.000000	78.335	-11.4449
530.000000	78.316	-10.8634
538.000000	78.312	-9.9967
545.000000	78.339	-9.3459
552.000000	78.346	-8.7100
560.000000	78.342	-8.0152
570.000000	78.315	-7.1976
580.000000	78.365	-6.0322
590.000000	78.350	-5.4892
600.000000	78.383	-4.3729
608.000000	78.390	-3.9960
615.000000	78.397	-3.2558
622.000000	78.392	-2.7976
630.000000	78.423	-2.2965
640.000000	78.414	-1.3367
650.000000	78.430	-0.5364
660.000000	78.432	0.2518
670.000000	78.454	0.9396
680.000000	78.484	1.7986
690.000000	78.492	2.3368
700.000000	78.492	3.0886
710.000000	78.497	3.8479
720.000000	78.508	4.8693
730.000000	78.560	5.3641
740.000000	78.604	6.1206
750.000000	78.619	6.9188
762.000000	78.634	7.7084
775.000000	78.656	8.5827
788.000000	78.689	9.6247
800.000000	78.713	10.4235
812.000000	78.748	11.3235
825.000000	78.790	12.4775
838.000000	78.841	13.4468
850.000000	78.870	14.1145
862.000000	78.943	15.1990
875.000000	79.001	16.1188
885.000000	79.063	16.5850
900.000000	79.109	17.7274
912.000000	79.154	18.4354
925.000000	79.196	19.3221
938.000000	79.222	20.5551
950.000000	79.252	21.9131
962.000000	79.411	23.3060
975.000000	79.580	24.2970
988.000000	79.715	25.0042
1000.000000	79.848	25.5643
1015.000000	80.004	26.3728
1030.000000	80.139	27.0242
1044.000000	80.271	27.6609
1060.000000	80.441	28.3422
1075.000000	80.595	29.0185
1090.000000	80.736	29.4801
1106.000000	80.875	30.0129
1120.000000	81.033	30.4775
1138.000000	81.201	30.9719
1150.000000	81.319	31.3291
1172.000000	81.515	31.7840
1180.000000	81.591	31.9454
1206.000000	81.821	32.3966
1220.000000	81.947	32.5913
1241.000000	82.113	32.8760
1250.000000	82.175	33.0674
1265.000000	82.304	33.1673
1280.000000	82.413	33.2497
1315.000000	82.677	33.6692
1320.000000	82.720	33.7210
1340.000000	82.851	34.0004
1360.000000	83.000	34.1230
1380.000000	83.112	34.4343
1400.000000	83.255	34.5874
1430.000000	83.450	34.8906
1450.000000	83.562	35.0367
1475.000000	83.716	35.3718
1500.000000	83.883	35.7222
1525.000000	84.029	35.9250
1550.000000	84.192	36.2774
1575.000000	84.336	36.5190
1600.000000	84.474	36.8074
1625.000000	84.634	37.1840
1650.000000	84.776	37.5340
1675.000000	84.942	37.8468
1700.000000	85.096	38.0959
1725.000000	85.249	38.5123
1750.000000	85.412	38.7715
1775.000000	85.573	39.0787
1800.000000	85.736	39.3729
1825.000000	85.907	39.6449
1850.000000	86.083	39.8320
1875.000000	86.248	40.0746
1900.000000	86.425	40.3172
1925.000000	86.616	40.4837
1950.000000	86.802	40.6553
1975.000000	86.986	40.7483
2000.000000	87.168	40.9016
2030.000000	87.405	40.9330
2060.000000	87.639	40.9288
2090.000000	87.875	40.9299
2120.000000	88.112	40.8140
2140.000000	88.275	40.7297
2180.000000	88.592	40.4617
2200.000000	88.754	40.2659
2240.000000	89.065	39.7487
2270.000000	89.300	39.3906
2300.000000	89.530	38.9334
2330.000000	89.752	38.3561
2360.000000	89.976	37.7538
2400.000000	90.251	36.8058
2430.000000	90.461	36.1187
2470.000000	90.724	35.1210
2500.000000	90.925	34.3064
2540.000000	91.213	33.0934
2580.000000	91.478	31.5268
2620.000000	91.707	29.7592
2650.000000	91.841	28.3852
2690.000000	91.986	26.6476
2720.000000	92.094	25.2510
2760.000000	92.203	23.6388
2800.000000	92.291	21.6825
2850.000000	92.313	19.6375
2900.000000	92.300	17.4732
2950.000000	92.300	15.9614
3000.000000	92.232	14.1368
3040.000000	92.169	13.1564
3070.000000	92.181	12.1515
3110.000000	92.093	11.2693
3150.000000	92.011	9.8045
3200.000000	91.804	8.8718
3250.000000	91.688	7.8494
3300.000000	91.568	7.6641
3350.000000	91.347	6.9724
3400.000000	91.194	6.0387
3450.000000	91.029	5.5101
3500.000000	90.896	6.1247
3550.000000	90.764	5.5097
3600.000000	90.590	6.5056
3650.000000	90.407	6.0380
3700.000000	90.340	5.9620
3750.000000	90.153	7.1909
3820.000000	90.046	7.3063
3870.000000	89.976	8.4240
3950.000000	89.898	9.1429
4000.000000	89.636	9.3434
4060.000000	89.499	10.4323
4120.000000	89.627	10.4734
4180.000000	89.570	11.7764
4250.000000	89.549	12.8184
4310.000000	89.558	14.0959
4370.000000	89.470	13.4010
4440.000000	89.451	14.3746
4500.000000	89.427	15.0244
4550.000000	89.456	15.2415
4620.000000	89.585	16.5370
4680.000000	89.508	16.6139
4750.000000	89.615	17.8192
4820.000000	89.602	17.2175
4870.000000	89.728	17.6348
4940.000000	89.853	18.3300
5000.000000	90.021	17.9722
5080.000000	90.018	18.1669
5150.000000	90.084	18.1208
5220.000000	90.175	17.1290
5300.000000	90.164	16.4936
5380.000000	90.118	15.4124
5450.000000	90.334	14.7899
5520.000000	90.294	13.8473
5600.000000	90.362	12.0948
5700.000000	90.141	9.6538
5800.000000	89.971	8.3721
5900.000000	89.880	6.7599
6000.000000	89.745	4.6713
6080.000000	89.464	3.2827
6150.000000	89.163	2.8946
6220.000000	88.993	1.6784
6300.000000	88.900	1.3828
6400.000000	88.797	0.1999
6500.000000	88.475	-1.0061
6600.000000	88.381	0.2214
6700.000000	88.349	-0.7303
6800.000000	88.351	-0.5580
6900.000000	88.280	0.4549
7000.000000	88.200	0.0973
7100.000000	88.420	-0.1120
7200.000000	88.711	0.2623
7300.000000	89.017	-0.6102
7400.000000	89.211	0.0978
7500.000000	89.703	-2.1643
7620.000000	90.277	-2.4316
7750.000000	90.796	-5.8896
7880.000000	91.530	-11.2189
8000.000000	92.317	-16.2804
8120.000000	92.290	-23.8661
8250.000000	92.005	-32.4843
8380.000000	91.288	-40.5751
8500.000000	90.502	-46.9012
8620.000000	89.262	-50.3424
8750.000000	88.261	-52.4202
8850.000000	87.291	-53.0662
9000.000000	86.018	-52.7618
9120.000000	85.153	-49.8754
9250.000000	84.228	-47.5242
9380.000000	83.375	-44.0253
9500.000000	82.754	-41.1949
9620.000000	81.961	-36.9275
9750.000000	81.398	-32.8539
9880.000000	80.875	-28.5752
10000.000000	80.549	-23.2504
10150.000000	80.071	-17.0578
10300.000000	79.607	-12.0909
10440.000000	79.452	-5.5296
10600.000000	79.128	0.8714
10750.000000	78.938	5.8634
10900.000000	78.905	12.5363
11060.000000	78.719	18.2041
11200.000000	78.914	23.6554
11380.000000	78.884	30.3548
11500.000000	78.901	33.2342
11720.000000	79.225	40.2778
11800.000000	79.348	42.3992
12060.000000	79.596	48.1459
12200.000000	79.653	51.7014
12410.000000	80.072	56.9371
12500.000000	80.337	59.2465
12650.000000	80.841	61.3332
12800.000000	81.506	62.0676
13150.000000	83.376	60.4065
13200.000000	83.761	60.2370
13400.000000	85.186	53.2169
13600.000000	86.484	40.6216
13800.000000	87.113	23.2436
14000.000000	86.365	7.0944
14300.000000	84.920	-8.7648
14500.000000	83.934	-12.9625
14750.000000	83.474	-16.2418
15000.000000	83.356	-17.6837
15250.000000	83.588	-18.5083
15500.000000	84.174	-23.0903
15750.000000	84.288	-31.6633
16000.000000	83.432	-42.4400
16250.000000	82.177	-48.4445
16500.000000	80.169	-49.7486
16750.000000	78.332	-44.4296
17000.000000	76.638	-36.5459
17250.000000	75.185	-25.5133
17500.000000	73.853	-13.4452
17750.000000	72.947	-0.8895
18000.000000	72.178	14.1309
18250.000000	71.566	26.5297
18500.000000	70.921	41.2339
18750.000000	70.765	54.8966
19000.000000	70.307	66.8993
19250.000000	69.902	80.2940
19500.000000	69.795	91.1749
19750.000000	69.143	100.6189
