* Measurement data measured by REW V5.31.3
* Source: Headset (Odo By VECLAN.COM), MICROPHONE (Master Volume), L, volume: 0.720. Timing signal peak level -15.2 dBFS, measurement signal peak level -14.1 dBFS
* Format: 2M Log Swept Sine, 1 sweep at -23.5 dBFS using an acoustic timing reference
* Dated: 11 17, 24 11:27:12 AM
* REW Settings:
*  C-weighting compensation: Off
*  Target level: 85.0 dB
* Note: ; Spring tips Delay -0.0674 ms (-23 mm, -0.91 in) using estimated IR delay relative to Acoustic reference played from SPEAKER R with no timing offset
* Measurement: Chu Spring R
* Smoothing: 1/24 octave
* Frequency Step: 96 ppo
* Start Frequency: 0.36621094 Hz
*
* Freq(Hz) SPL(dB) Phase(degrees)
0.366211 72.491 48.9316
0.368865 72.468 48.8653
0.371538 72.435 48.7868
0.374230 72.398 48.7032
0.376942 72.359 48.6173
0.379673 72.319 48.5304
0.382424 72.279 48.4429
0.385196 72.238 48.3546
0.387987 72.198 48.2658
0.390798 72.157 48.1763
0.393630 72.115 48.0861
0.396483 72.074 47.9952
0.399356 72.032 47.9036
0.402250 71.990 47.8112
0.405165 71.947 47.7180
0.408101 71.904 47.6239
0.411058 71.861 47.5289
0.414037 71.818 47.4330
0.417037 71.774 47.3361
0.420059 71.730 47.2381
0.423103 71.685 47.1391
0.426169 71.640 47.0389
0.429257 71.595 46.9375
0.432368 71.550 46.8348
0.435501 71.504 46.7308
0.438656 71.458 46.6255
0.441835 71.412 46.5187
0.445037 71.365 46.4103
0.448262 71.318 46.3004
0.451510 71.271 46.1888
0.454782 71.223 46.0754
0.458077 71.175 45.9602
0.461397 71.126 45.8431
0.464740 71.078 45.7240
0.468108 71.028 45.6027
0.471500 70.979 45.4792
0.474917 70.929 45.3534
0.478358 70.879 45.2251
0.481825 70.828 45.0943
0.485316 70.777 44.9608
0.488833 70.726 44.8245
0.492375 70.674 44.6852
0.495943 70.622 44.5428
0.499537 70.570 44.3971
0.503157 70.517 44.2481
0.506803 70.464 44.0954
0.510475 70.410 43.9390
0.514175 70.356 43.7787
0.517900 70.302 43.6142
0.521653 70.247 43.4453
0.525434 70.192 43.2719
0.529241 70.136 43.0936
0.533076 70.080 42.9103
0.536939 70.024 42.7217
0.540830 69.967 42.5275
0.544749 69.910 42.3274
0.548696 69.852 42.1212
0.552673 69.794 41.9084
0.556677 69.736 41.6887
0.560711 69.677 41.4618
0.564774 69.618 41.2273
0.568867 69.558 41.0067
0.572989 69.498 40.7872
0.577141 69.437 40.5590
0.581324 69.376 40.3215
0.585536 69.315 40.0742
0.589779 69.253 39.8166
0.594053 69.191 39.5480
0.598358 69.128 39.2676
0.602694 69.064 38.9749
0.607061 69.001 38.6691
0.611460 68.937 38.3493
0.615891 68.872 38.0146
0.620354 68.807 37.6641
0.624849 68.741 37.2967
0.629377 68.675 36.9113
0.633938 68.609 36.5067
0.638532 68.542 36.0816
0.643159 68.474 35.6346
0.647819 68.406 35.1640
0.652514 68.337 34.6682
0.657242 68.268 34.1454
0.662005 68.199 33.5935
0.666802 68.129 33.0104
0.671634 68.058 32.3936
0.676501 67.987 31.7406
0.681403 67.916 31.0484
0.686341 67.844 30.3139
0.691314 67.771 29.5336
0.696324 67.698 28.7038
0.701370 67.625 27.8202
0.706452 67.551 26.8782
0.711571 67.476 25.8729
0.716728 67.402 24.7987
0.721921 67.331 23.6499
0.727153 67.269 22.4207
0.732422 67.228 21.1062
0.737729 67.223 19.7031
0.743075 67.243 18.2093
0.748460 67.277 16.6212
0.753883 67.319 14.9347
0.759346 67.369 13.1452
0.764849 67.424 11.2483
0.770391 67.485 9.3436
0.775974 67.552 7.3518
0.781597 67.625 5.2428
0.787261 67.704 3.0148
0.792966 67.788 0.6676
0.798712 67.877 -1.7975
0.804500 67.972 -4.3771
0.810329 68.073 -7.0658
0.816201 68.179 -9.8553
0.822116 68.291 -12.7352
0.828073 68.408 -15.6924
0.834074 68.531 -18.7116
0.840118 68.658 -21.7755
0.846206 68.791 -24.8655
0.852338 68.929 -27.9621
0.858514 69.072 -31.0458
0.864735 69.220 -34.0977
0.871001 69.373 -37.1004
0.877313 69.530 -40.0380
0.883670 69.692 -42.8970
0.890074 69.859 -45.6664
0.896524 70.030 -48.3375
0.903020 70.205 -50.9044
0.909564 70.385 -53.3632
0.916155 70.568 -55.7121
0.922794 70.755 -57.9512
0.929481 70.946 -60.0817
0.936216 71.140 -62.1062
0.943000 71.337 -64.0282
0.949834 71.538 -65.8516
0.956717 71.741 -67.5810
0.963649 71.947 -69.2210
0.970632 72.156 -70.7583
0.977666 72.366 -72.2065
0.984750 72.579 -73.5795
0.991886 72.793 -74.8820
0.999074 73.009 -76.1185
1.006314 73.225 -77.2932
1.013606 73.443 -78.4101
1.020951 73.661 -79.4730
1.028349 73.879 -80.4856
1.035801 74.097 -81.4511
1.043307 74.315 -82.3726
1.050867 74.532 -83.2530
1.058482 74.747 -84.0951
1.066152 74.961 -84.9012
1.073878 75.173 -85.6735
1.081660 75.383 -86.4136
1.089498 75.591 -87.1218
1.097393 75.797 -87.7963
1.105345 76.005 -88.4320
1.113355 76.215 -89.0238
1.121423 76.431 -89.5707
1.129549 76.652 -90.0749
1.137734 76.877 -90.5393
1.145979 77.108 -90.9673
1.154283 77.343 -91.3622
1.162647 77.583 -91.7270
1.171072 77.827 -92.0655
1.179558 78.076 -92.3801
1.188106 78.328 -92.6724
1.196715 78.585 -92.9446
1.205387 78.844 -93.1989
1.214122 79.107 -93.4372
1.222920 79.372 -93.6611
1.231782 79.640 -93.8723
1.240708 79.911 -94.0723
1.249699 80.183 -94.2625
1.258754 80.457 -94.4443
1.267876 80.732 -94.6188
1.277063 81.008 -94.7870
1.286318 81.284 -94.9502
1.295639 81.560 -95.1091
1.305027 81.836 -95.2648
1.314484 82.111 -95.4180
1.324009 82.385 -95.5695
1.333604 82.657 -95.7200
1.343268 82.926 -95.8701
1.353002 83.193 -96.0206
1.362806 83.456 -96.1719
1.372681 83.716 -96.3200
1.382628 83.971 -96.4675
1.392647 84.221 -96.6174
1.402739 84.465 -96.7699
1.412904 84.703 -96.9255
1.423142 84.934 -97.0845
1.433455 85.157 -97.2470
1.443843 85.372 -97.4130
1.454305 85.578 -97.5813
1.464844 85.775 -97.7493
1.475459 85.962 -97.9122
1.486150 86.141 -98.0653
1.496920 86.311 -98.2070
1.507767 86.474 -98.3373
1.518693 86.628 -98.4569
1.529698 86.775 -98.5669
1.540783 86.915 -98.6684
1.551948 87.047 -98.7623
1.563194 87.173 -98.8498
1.574521 87.293 -98.9269
1.585931 87.407 -98.9978
1.597423 87.515 -99.0648
1.608999 87.617 -99.1289
1.620658 87.715 -99.1909
1.632402 87.808 -99.2514
1.644232 87.898 -99.3112
1.656146 87.984 -99.3711
1.668147 88.067 -99.4315
1.680235 88.147 -99.4933
1.692411 88.226 -99.5569
1.704675 88.303 -99.6229
1.717028 88.379 -99.6919
1.729470 88.455 -99.7644
1.742003 88.532 -99.8409
1.754626 88.610 -99.9217
1.767341 88.690 -100.0082
1.780147 88.772 -100.1054
1.793047 88.858 -100.2082
1.806040 88.948 -100.3166
1.819128 89.042 -100.4300
1.832310 89.139 -100.5463
1.845587 89.238 -100.6617
1.858961 89.338 -100.7728
1.872432 89.437 -100.8784
1.886001 89.536 -100.9782
1.899667 89.633 -101.0729
1.913433 89.729 -101.1628
1.927299 89.824 -101.2488
1.941265 89.919 -101.3316
1.955332 90.012 -101.4117
1.969501 90.105 -101.4913
1.983773 90.197 -101.5741
1.998148 90.288 -101.6562
2.012627 90.378 -101.7384
2.027212 90.468 -101.8211
2.041902 90.557 -101.9049
2.056698 90.646 -101.9905
2.071602 90.735 -102.0784
2.086614 90.823 -102.1692
2.101734 90.911 -102.2635
2.116964 90.999 -102.3616
2.132304 91.086 -102.4643
2.147756 91.174 -102.5719
2.163320 91.262 -102.6848
2.178996 91.350 -102.8095
2.194786 91.438 -102.9400
2.210690 91.526 -103.0726
2.226710 91.614 -103.2048
2.242845 91.701 -103.3351
2.259098 91.787 -103.4630
2.275468 91.873 -103.5888
2.291957 91.958 -103.7124
2.308566 92.042 -103.8343
2.325295 92.126 -103.9549
2.342145 92.209 -104.0743
2.359117 92.292 -104.1931
2.376212 92.374 -104.3182
2.393431 92.456 -104.4479
2.410775 92.538 -104.5782
2.428244 92.619 -104.7096
2.445840 92.700 -104.8425
2.463564 92.780 -104.9773
2.481416 92.860 -105.1146
2.499397 92.940 -105.2547
2.517509 93.020 -105.3981
2.535752 93.100 -105.5452
2.554127 93.180 -105.6958
2.572635 93.259 -105.8556
2.591277 93.338 -106.0280
2.610055 93.417 -106.2012
2.628968 93.495 -106.3746
2.648019 93.572 -106.5477
2.667208 93.649 -106.7204
2.686535 93.726 -106.8927
2.706003 93.802 -107.0645
2.725612 93.877 -107.2358
2.745363 93.952 -107.4066
2.765257 94.027 -107.5770
2.785295 94.101 -107.7624
2.805478 94.174 -107.9484
2.825808 94.247 -108.1347
2.846285 94.320 -108.3214
2.866910 94.392 -108.5090
2.887685 94.463 -108.6976
2.908611 94.535 -108.8877
2.929688 94.605 -109.0797
2.950917 94.676 -109.2737
2.972301 94.745 -109.4744
2.993839 94.814 -109.6883
3.015534 94.882 -109.9034
3.037386 94.949 -110.1192
3.059396 95.016 -110.3351
3.081565 95.082 -110.5507
3.103896 95.147 -110.7656
3.126388 95.212 -110.9796
3.149043 95.276 -111.1922
3.171862 95.339 -111.4075
3.194847 95.402 -111.6329
3.217998 95.464 -111.8567
3.241317 95.526 -112.0789
3.264805 95.588 -112.2997
3.288463 95.648 -112.5198
3.312293 95.709 -112.7403
3.336295 95.768 -112.9623
3.360471 95.827 -113.1861
3.384822 95.885 -113.4240
3.409350 95.943 -113.6662
3.434056 95.999 -113.9085
3.458940 96.055 -114.1499
3.484005 96.110 -114.3898
3.509252 96.165 -114.6273
3.534681 96.218 -114.8620
3.560295 96.272 -115.0932
3.586094 96.324 -115.3351
3.612081 96.376 -115.5769
3.638255 96.428 -115.8149
3.664620 96.479 -116.0499
3.691175 96.529 -116.2838
3.717923 96.579 -116.5182
3.744864 96.627 -116.7533
3.772001 96.675 -116.9927
3.799335 96.722 -117.2468
3.826866 96.768 -117.4991
3.854597 96.814 -117.7487
3.882529 96.859 -117.9947
3.910664 96.903 -118.2360
3.939002 96.947 -118.4718
3.967546 96.990 -118.7024
3.996296 97.033 -118.9449
4.025255 97.075 -119.1817
4.054423 97.116 -119.4145
4.083804 97.157 -119.6453
4.113396 97.197 -119.8747
4.143204 97.236 -120.1024
4.173227 97.274 -120.3324
4.203468 97.312 -120.5740
4.233928 97.349 -120.8112
4.264609 97.385 -121.0429
4.295512 97.422 -121.2681
4.326639 97.457 -121.4858
4.357992 97.493 -121.6955
4.389572 97.528 -121.9123
4.421380 97.562 -122.1277
4.453419 97.596 -122.3384
4.485691 97.629 -122.5453
4.518196 97.662 -122.7480
4.550936 97.694 -122.9462
4.583914 97.725 -123.1495
4.617131 97.757 -123.3556
4.650589 97.788 -123.5548
4.684289 97.819 -123.7465
4.718233 97.850 -123.9298
4.752424 97.881 -124.1048
4.786862 97.912 -124.2829
4.821549 97.943 -124.4614
4.856488 97.974 -124.6340
4.891680 98.004 -124.8007
4.927127 98.034 -124.9614
4.962831 98.065 -125.1161
4.998794 98.095 -125.2804
5.035017 98.126 -125.4398
5.071503 98.157 -125.5923
5.108253 98.189 -125.7376
5.145270 98.221 -125.8757
5.182555 98.253 -126.0143
5.220110 98.285 -126.1557
5.257937 98.318 -126.2909
5.296038 98.351 -126.4205
5.334415 98.385 -126.5449
5.373071 98.419 -126.6679
5.412006 98.453 -126.8015
5.451224 98.489 -126.9312
5.490725 98.525 -127.0568
5.530514 98.562 -127.1778
5.570590 98.600 -127.2958
5.610957 98.638 -127.4256
5.651616 98.677 -127.5515
5.692570 98.716 -127.6745
5.733821 98.757 -127.7957
5.775370 98.798 -127.9199
5.817221 98.840 -128.0577
5.859375 98.882 -128.1956
5.901834 98.925 -128.3328
5.944602 98.969 -128.4689
5.987679 99.014 -128.6128
6.031068 99.060 -128.7652
6.074771 99.106 -128.9183
6.118792 99.153 -129.0730
6.163131 99.200 -129.2304
6.207792 99.247 -129.4061
6.252776 99.295 -129.5863
6.298086 99.343 -129.7695
6.343725 99.392 -129.9553
6.389694 99.441 -130.1523
6.435996 99.490 -130.3601
6.482634 99.539 -130.5712
6.529610 99.589 -130.7862
6.576926 99.637 -131.0088
6.624585 99.686 -131.2475
6.672590 99.735 -131.4914
6.720942 99.783 -131.7400
6.769645 99.831 -131.9937
6.818700 99.879 -132.2643
6.868111 99.926 -132.5376
6.917881 99.973 -132.8134
6.968010 100.018 -133.0926
7.018504 100.063 -133.3894
7.069362 100.107 -133.6906
7.120590 100.151 -133.9953
7.172189 100.193 -134.3035
7.224161 100.235 -134.6240
7.276511 100.275 -134.9438
7.329239 100.314 -135.2625
7.382350 100.352 -135.5858
7.435845 100.389 -135.9198
7.489729 100.425 -136.2543
7.544002 100.459 -136.5874
7.598669 100.492 -136.9259
7.653732 100.525 -137.2656
7.709194 100.556 -137.6004
7.765058 100.586 -137.9314
7.821327 100.614 -138.2734
7.878004 100.642 -138.6120
7.935091 100.669 -138.9456
7.992592 100.694 -139.2778
8.050510 100.719 -139.6088
8.108847 100.744 -139.9327
8.167607 100.767 -140.2506
8.226793 100.789 -140.5738
8.286408 100.811 -140.8911
8.346454 100.832 -141.2020
8.406936 100.854 -141.5144
8.467856 100.875 -141.8240
8.529218 100.896 -142.1271
8.591024 100.916 -142.4291
8.653278 100.937 -142.7327
8.715983 100.957 -143.0316
8.779143 100.977 -143.3284
8.842760 100.997 -143.6294
8.906839 101.017 -143.9265
8.971381 101.036 -144.2207
9.036392 101.055 -144.5209
9.101873 101.074 -144.8183
9.167829 101.093 -145.1136
9.234263 101.111 -145.4158
9.301178 101.129 -145.7159
9.368578 101.147 -146.0139
9.436467 101.164 -146.3188
9.504847 101.180 -146.6201
9.573723 101.195 -146.9193
9.643099 101.210 -147.2254
9.712976 101.223 -147.5273
9.783361 101.234 -147.8257
9.854255 101.242 -148.1237
9.925663 101.248 -148.4133
9.997588 101.250 -148.6947
10.070035 101.250 -148.9937
10.143007 101.247 -149.2833
10.216507 101.242 -149.5604
10.290540 101.236 -149.8238
10.365109 101.229 -150.0734
10.440219 101.220 -150.3096
10.515873 101.211 -150.5322
10.592076 101.202 -150.7409
10.668830 101.194 -150.9348
10.746141 101.186 -151.1140
10.824012 101.180 -151.2804
10.902447 101.175 -151.4363
10.981451 101.173 -151.5838
11.061027 101.173 -151.7543
11.141180 101.176 -151.9274
11.221913 101.181 -152.0966
11.303232 101.189 -152.2663
11.385140 101.198 -152.4390
11.467641 101.209 -152.6152
11.550741 101.223 -152.7964
11.634442 101.237 -152.9855
11.718750 101.253 -153.1855
11.803669 101.269 -153.3977
11.889203 101.287 -153.6218
11.975357 101.304 -153.8576
12.062136 101.321 -154.1314
12.149543 101.338 -154.4282
12.237583 101.354 -154.7370
12.326262 101.370 -155.0552
12.415583 101.386 -155.3801
12.505552 101.401 -155.7099
12.596172 101.417 -156.0439
12.687449 101.432 -156.3795
12.779387 101.446 -156.7126
12.871992 101.458 -157.0406
12.965268 101.469 -157.3629
13.059220 101.478 -157.6991
13.153852 101.487 -158.0383
13.249170 101.494 -158.3663
13.345179 101.501 -158.6829
13.441884 101.507 -158.9883
13.539289 101.513 -159.2826
13.637401 101.519 -159.5658
13.736223 101.526 -159.8384
13.835761 101.532 -160.1021
13.936021 101.539 -160.3582
14.037007 101.547 -160.6180
14.138725 101.556 -160.8902
14.241180 101.566 -161.1576
14.344377 101.575 -161.4213
14.448323 101.585 -161.6815
14.553021 101.595 -161.9381
14.658478 101.605 -162.1912
14.764700 101.615 -162.4408
14.871691 101.625 -162.6866
14.979457 101.635 -162.9283
15.088005 101.646 -163.1890
15.197339 101.657 -163.4511
15.307465 101.668 -163.7101
15.418389 101.680 -163.9665
15.530117 101.691 -164.2209
15.642655 101.703 -164.4747
15.756008 101.715 -164.7294
15.870182 101.728 -164.9860
15.985184 101.740 -165.2451
16.101019 101.753 -165.5256
16.217694 101.765 -165.8122
16.335214 101.776 -166.1011
16.453586 101.785 -166.3902
16.572815 101.793 -166.6774
16.692909 101.798 -166.9604
16.813872 101.800 -167.2351
16.935713 101.801 -167.4980
17.058436 101.800 -167.7563
17.182048 101.798 -168.0086
17.306556 101.796 -168.2428
17.431967 101.794 -168.4598
17.558286 101.793 -168.6623
17.685521 101.793 -168.8534
17.813677 101.796 -169.0379
17.942762 101.802 -169.2236
18.072783 101.810 -169.4278
18.203746 101.820 -169.6542
18.335658 101.832 -169.9010
18.468526 101.843 -170.1721
18.602356 101.852 -170.4678
18.737156 101.858 -170.7869
18.872934 101.860 -171.1260
19.009695 101.856 -171.4770
19.147447 101.846 -171.8419
19.286197 101.829 -172.1989
19.425953 101.806 -172.5347
19.566721 101.778 -172.8394
19.708510 101.746 -173.1059
19.851326 101.714 -173.3280
19.995177 101.682 -173.5055
20.140070 101.654 -173.6592
20.286013 101.631 -173.7820
20.433014 101.615 -173.8863
20.581080 101.606 -173.9883
20.730219 101.604 -174.1012
20.880439 101.607 -174.2389
21.031747 101.614 -174.4148
21.184152 101.622 -174.6410
21.337661 101.630 -174.9050
21.492282 101.634 -175.2008
21.648024 101.634 -175.5167
21.804895 101.628 -175.8408
21.962902 101.618 -176.1588
22.122054 101.603 -176.4668
22.282360 101.586 -176.7508
22.443827 101.569 -177.0026
22.606464 101.554 -177.2233
22.770280 101.542 -177.4188
22.935283 101.534 -177.5971
23.101481 101.532 -177.7771
23.268884 101.533 -177.9655
23.437500 101.538 -178.1644
23.607338 101.544 -178.3778
23.778406 101.551 -178.6042
23.950714 101.556 -178.8396
24.124271 101.561 -179.0872
24.299086 101.564 -179.3354
24.475167 101.566 -179.5774
24.652524 101.569 -179.8128
24.831166 101.572 179.9552
25.011103 101.576 179.7193
25.192344 101.579 179.4659
25.374898 101.581 179.1967
25.558775 101.580 178.9109
25.743984 101.573 178.6135
25.930536 101.558 178.3154
26.118439 101.533 178.0268
26.307704 101.500 177.7688
26.498341 101.459 177.5652
26.690359 101.414 177.4285
26.883768 101.367 177.3647
27.078579 101.323 177.3663
27.274801 101.285 177.4179
27.472446 101.254 177.5026
27.671522 101.232 177.5975
27.872042 101.216 177.6831
28.074014 101.205 177.7428
28.277450 101.196 177.7694
28.482360 101.188 177.7699
28.688755 101.180 177.7488
28.896645 101.174 177.7077
29.106042 101.170 177.6395
29.316957 101.170 177.5325
29.529400 101.174 177.3739
29.743382 101.180 177.1456
29.958915 101.186 176.8362
30.176009 101.187 176.4398
30.394677 101.178 175.9728
30.614929 101.158 175.4616
30.836778 101.125 174.9386
31.060234 101.080 174.4314
31.285309 101.030 173.9588
31.512015 100.978 173.5329
31.740364 100.930 173.1444
31.970368 100.887 172.7710
32.202039 100.850 172.3850
32.435388 100.815 171.9773
32.670428 100.777 171.5556
32.907171 100.733 171.1451
33.145630 100.682 170.7855
33.385817 100.627 170.5180
33.627745 100.576 170.3693
33.871425 100.539 170.3338
34.116871 100.526 170.3666
34.364096 100.539 170.4004
34.613113 100.574 170.3618
34.863934 100.623 170.1974
35.116572 100.671 169.8891
35.371041 100.705 169.4664
35.627354 100.717 168.9973
35.885525 100.705 168.5614
36.145566 100.673 168.2322
36.407492 100.634 168.0549
36.671316 100.599 168.0338
36.937051 100.578 168.1280
37.204712 100.577 168.2621
37.474313 100.592 168.3647
37.745867 100.617 168.3852
38.019389 100.641 168.3055
38.294893 100.656 168.1392
38.572394 100.658 167.9304
38.851905 100.646 167.7205
39.133442 100.626 167.5381
39.417019 100.602 167.3924
39.702651 100.578 167.2736
39.990353 100.558 167.1591
40.280140 100.541 167.0216
40.572026 100.526 166.8483
40.866028 100.509 166.6360
41.162160 100.490 166.3889
41.460438 100.468 166.1165
41.760877 100.443 165.8281
42.063494 100.415 165.5253
42.368303 100.385 165.2047
42.675322 100.351 164.8777
42.984565 100.312 164.5580
43.296048 100.267 164.2688
43.609789 100.216 164.0377
43.925804 100.165 163.8868
44.244108 100.118 163.8197
44.564719 100.082 163.8201
44.887654 100.058 163.8536
45.212928 100.046 163.8780
45.540560 100.042 163.8670
45.870565 100.039 163.8145
46.202962 100.035 163.7287
46.537768 100.027 163.6260
46.875000 100.016 163.5168
47.214676 100.003 163.3964
47.556813 99.988 163.2565
47.901429 99.968 163.0943
48.248542 99.941 162.9171
48.598171 99.907 162.7450
48.950334 99.868 162.5959
49.305048 99.827 162.4697
49.662333 99.789 162.3543
50.022206 99.754 162.2280
50.384688 99.720 162.0747
50.749796 99.684 161.8982
51.117550 99.645 161.7148
51.487969 99.604 161.5441
51.861072 99.564 161.3997
52.236879 99.527 161.2800
52.615409 99.494 161.1804
52.996681 99.468 161.0938
53.380717 99.447 161.0053
53.767536 99.433 160.9005
54.157158 99.422 160.7626
54.549603 99.409 160.5869
54.944892 99.390 160.3896
55.343045 99.361 160.2018
55.744084 99.325 160.0604
56.148028 99.287 159.9773
56.554900 99.250 159.9378
56.964720 99.215 159.9212
57.377510 99.181 159.9192
57.793291 99.148 159.9384
58.212085 99.117 159.9825
58.633914 99.095 160.0284
59.058799 99.085 160.0242
59.486764 99.079 159.9162
59.917829 99.068 159.6960
60.352019 99.044 159.4099
60.789354 99.005 159.1302
61.229859 98.960 158.9013
61.673556 98.916 158.7213
62.120468 98.877 158.5649
62.570618 98.840 158.4228
63.024031 98.803 158.3125
63.480729 98.772 158.2463
63.940736 98.752 158.2078
64.404077 98.745 158.1411
64.870776 98.740 158.0005
65.340856 98.727 157.8016
65.814343 98.701 157.6200
66.291261 98.669 157.5187
66.771635 98.639 157.4929
67.255489 98.616 157.4840
67.742850 98.595 157.4446
68.233743 98.568 157.3793
68.728193 98.533 157.3290
69.226226 98.494 157.3265
69.727867 98.458 157.3641
70.233144 98.428 157.3994
70.742083 98.403 157.3890
71.254709 98.377 157.3192
71.771050 98.345 157.2139
72.291132 98.309 157.1169
72.814984 98.273 157.0551
73.342631 98.243 157.0145
73.874102 98.220 156.9603
74.409424 98.202 156.8714
74.948626 98.182 156.7637
75.491734 98.160 156.6691
76.038779 98.138 156.6099
