* Measurement data measured by REW V5.30.9
* Source: Microphone (Realtek USB2.0 Audio), no input selected, L, volume: no control
* Format: 512k Log Swept Sine, 1 sweep at -12.0 dBFS with no timing reference
* Dated: 04 5, 24 10:54:40 AM
* REW Settings:
*  C-weighting compensation: Off
*  Target level: 75.0 dB
* Note: ; 
* Measurement: cra 2024 R
* Smoothing: None
* Frequency Step: 1/48 octave
* Start Frequency: 1.000 Hz
*
* Freq(Hz)	SPL(dB)	Phase(degrees)
1.000000	49.213	-50.2350
1.015000	48.968	-50.0971
1.030000	48.698	-49.9305
1.044000	48.423	-49.7572
1.060000	48.084	-49.5319
1.075000	47.747	-49.2882
1.090000	47.393	-49.0069
1.106000	47.002	-48.6590
1.120000	46.651	-48.3084
1.138000	46.191	-47.7864
1.150000	45.881	-47.3893
1.172000	45.315	-46.5478
1.180000	45.111	-46.2024
1.206000	44.462	-44.9208
1.220000	44.126	-44.1220
1.241000	43.647	-42.7680
1.250000	43.452	-42.1271
1.265000	43.145	-40.9733
1.280000	42.861	-39.7074
1.315000	42.312	-36.2847
1.320000	42.248	-35.7389
1.340000	42.032	-33.4052
1.360000	41.880	-30.7450
1.380000	41.775	-27.5755
1.400000	41.711	-23.9535
1.430000	41.689	-17.8262
1.450000	41.719	-13.3815
1.475000	41.801	-7.5448
1.500000	41.927	-1.5248
1.525000	42.092	4.5408
1.550000	42.291	10.5140
1.575000	42.517	16.2570
1.600000	42.765	21.6320
1.625000	43.029	26.5011
1.650000	43.304	30.7264
1.675000	43.584	34.1703
1.700000	43.879	35.0538
1.725000	44.225	35.2673
1.750000	44.616	35.6263
1.775000	45.045	36.1018
1.800000	45.503	36.6650
1.825000	45.982	37.2867
1.850000	46.475	37.9380
1.875000	46.972	38.5899
1.900000	47.467	39.2134
1.925000	47.950	39.7795
1.950000	48.415	40.2592
1.975000	48.851	40.6235
2.000000	49.253	40.8435
2.030000	49.679	40.8021
2.060000	50.068	40.3973
2.090000	50.430	39.7920
2.120000	50.769	39.0158
2.140000	50.983	38.4181
2.180000	51.388	37.0695
2.200000	51.581	36.3363
2.240000	51.952	34.7960
2.270000	52.222	33.6107
2.300000	52.488	32.4325
2.330000	52.754	31.2912
2.360000	53.023	30.2146
2.400000	53.371	28.7642
2.430000	53.619	27.6278
2.470000	53.938	26.0658
2.500000	54.169	24.8713
2.540000	54.469	23.2659
2.580000	54.764	21.6663
2.620000	55.057	20.0949
2.650000	55.279	18.9481
2.690000	55.577	17.4795
2.720000	55.803	16.4062
2.760000	56.101	14.9661
2.800000	56.396	13.5330
2.850000	56.762	11.7805
2.900000	57.127	10.1058
2.950000	57.494	8.5460
3.000000	57.864	7.1383
3.040000	58.164	6.1420
3.070000	58.390	5.4370
3.110000	58.694	4.5421
3.150000	58.999	3.7151
3.200000	59.383	2.8035
3.250000	59.767	2.0598
3.300000	60.153	1.5186
3.350000	60.539	1.2142
3.400000	60.926	1.1603
3.450000	61.316	1.3150
3.500000	61.707	1.6744
3.550000	62.098	2.2374
3.600000	62.488	3.0030
3.650000	62.877	3.9701
3.700000	63.262	5.1377
3.750000	63.644	6.5784
3.820000	64.178	9.0833
3.870000	64.558	11.1144
3.950000	65.158	14.5655
4.000000	65.528	16.7258
4.060000	65.966	19.2231
4.120000	66.399	21.8362
4.180000	66.826	24.5420
4.250000	67.318	27.6652
4.310000	67.732	30.1845
4.370000	68.140	32.4391
4.440000	68.607	34.7350
4.500000	69.001	36.5116
4.550000	69.324	37.8595
4.620000	69.769	39.5473
4.680000	70.145	40.8118
4.750000	70.576	42.0623
4.820000	70.998	43.0266
4.870000	71.295	43.5693
4.940000	71.704	44.1752
5.000000	72.050	44.5959
5.080000	72.506	45.0708
5.150000	72.897	45.3351
5.220000	73.281	45.4688
5.300000	73.715	45.5104
5.380000	74.142	45.4874
5.450000	74.512	45.4112
5.520000	74.876	45.2536
5.600000	75.287	45.0062
5.700000	75.793	44.6511
5.800000	76.292	44.2726
5.900000	76.783	43.8367
6.000000	77.265	43.3702
6.080000	77.644	42.9935
6.150000	77.972	42.6598
6.220000	78.296	42.3179
6.300000	78.660	41.9146
6.400000	79.106	41.3874
6.500000	79.542	40.8391
6.600000	79.968	40.2672
6.700000	80.383	39.6603
6.800000	80.787	39.0077
6.900000	81.179	38.3125
7.000000	81.561	37.5886
7.100000	81.932	36.8482
7.200000	82.291	36.0824
7.300000	82.640	35.2985
7.400000	82.980	34.5106
7.500000	83.310	33.7132
7.620000	83.694	32.7466
7.750000	84.097	31.7361
7.880000	84.488	30.7736
8.000000	84.840	29.9236
8.120000	85.184	29.1236
8.250000	85.548	28.3145
8.380000	85.905	27.5547
8.500000	86.229	26.8936
8.620000	86.548	26.2733
8.750000	86.888	25.6307
8.850000	87.145	25.1568
9.000000	87.524	24.4763
9.120000	87.822	23.9355
9.250000	88.138	23.3511
9.380000	88.447	22.7739
9.500000	88.726	22.2486
9.620000	89.000	21.7300
9.750000	89.290	21.1772
9.880000	89.574	20.6339
10.000000	89.831	20.1413
10.150000	90.146	19.5408
10.300000	90.454	18.9560
10.440000	90.737	18.4299
10.600000	91.055	17.8587
10.750000	91.349	17.3409
10.900000	91.640	16.8331
11.060000	91.945	16.3005
11.200000	92.208	15.8309
11.380000	92.539	15.2258
11.500000	92.755	14.8220
11.720000	93.139	14.0810
11.800000	93.275	13.8140
12.060000	93.700	12.9536
12.200000	93.919	12.5070
12.410000	94.234	11.8645
12.500000	94.366	11.6126
12.650000	94.579	11.2234
12.800000	94.789	10.8630
13.150000	95.250	10.1184
13.200000	95.283	10.0161
13.400000	95.350	9.6185
13.600000	95.361	9.2506
13.800000	95.361	8.8918
14.000000	95.364	8.5069
14.300000	95.376	7.8532
14.500000	95.382	7.3864
14.750000	95.374	6.8206
15.000000	95.361	6.2528
15.250000	95.349	5.6813
15.500000	95.337	5.1180
15.750000	95.316	4.6079
16.000000	95.299	4.0935
16.250000	95.288	3.5559
16.500000	95.281	2.9943
16.750000	95.261	2.4534
17.000000	95.239	1.9211
17.250000	95.217	1.4086
17.500000	95.195	0.9322
17.750000	95.167	0.5283
18.000000	95.147	0.1548
18.250000	95.136	-0.2120
18.500000	95.134	-0.5907
18.750000	95.129	-0.9793
19.000000	95.126	-1.4020
19.250000	95.122	-1.8520
19.500000	95.116	-2.3108
19.750000	95.099	-2.7327
20.000000	95.082	-3.1252
20.299999	95.064	-3.5599
20.600000	95.051	-3.9609
20.900000	95.040	-4.3493
21.200001	95.034	-4.7812
21.400000	95.029	-5.0943
21.799999	95.003	-5.7181
22.000000	94.985	-6.0195
22.400000	94.941	-6.5627
22.700001	94.906	-6.8766
23.000000	94.877	-7.1402
23.299999	94.859	-7.4131
23.600000	94.848	-7.7198
24.000000	94.832	-8.2060
24.299999	94.816	-8.6414
24.700001	94.778	-9.2282
25.000000	94.738	-9.6295
25.400000	94.685	-10.1055
25.799999	94.633	-10.4793
26.200001	94.595	-10.8155
26.500000	94.575	-11.0688
26.900000	94.553	-11.4197
27.200001	94.544	-11.7352
27.600000	94.533	-12.2206
28.000000	94.514	-12.7668
28.500000	94.478	-13.5177
29.000000	94.415	-14.1839
29.500000	94.345	-14.6983
30.000000	94.282	-15.0344
30.400000	94.248	-15.2689
30.700001	94.228	-15.4420
31.100000	94.208	-15.7013
31.500000	94.193	-16.0145
32.000000	94.170	-16.4433
32.500000	94.144	-16.9447
33.000000	94.104	-17.4548
33.500000	94.056	-17.9712
34.000000	93.999	-18.4121
34.500000	93.946	-18.8086
35.000000	93.895	-19.1666
35.500000	93.851	-19.5531
36.000000	93.803	-19.9274
36.500000	93.756	-20.3070
37.000000	93.706	-20.6357
37.500000	93.663	-20.9437
38.200001	93.609	-21.3534
38.700001	93.571	-21.6625
39.500000	93.503	-22.1467
40.000000	93.458	-22.4005
40.599998	93.409	-22.6856
41.200001	93.362	-22.9961
41.799999	93.306	-23.3506
42.500000	93.228	-23.7246
43.099998	93.158	-23.9640
43.700001	93.098	-24.1893
44.400002	93.038	-24.4678
45.000000	92.992	-24.7548
45.500000	92.956	-25.0681
46.200001	92.894	-25.5697
46.799999	92.830	-25.9652
47.500000	92.760	-26.3322
48.200001	92.700	-26.7093
48.700001	92.654	-27.0104
49.400002	92.580	-27.3582
50.000000	92.521	-27.5594
50.799999	92.459	-27.8335
51.500000	92.400	-28.0989
52.200001	92.340	-28.3328
53.000000	92.265	-28.6367
53.799999	92.169	-28.8547
54.500000	92.094	-28.8277
55.200001	92.053	-28.8051
56.000000	92.014	-29.0141
57.000000	91.931	-29.3067
58.000000	91.854	-29.3125
59.000000	91.848	-29.3262
60.000000	91.851	-30.0256
60.799999	91.763	-30.6614
61.500000	91.673	-30.7931
62.200001	91.626	-30.8137
63.000000	91.587	-31.0838
64.000000	91.505	-31.4437
65.000000	91.433	-31.7056
66.000000	91.360	-32.0499
67.000000	91.285	-32.3272
68.000000	91.221	-32.6820
69.000000	91.139	-33.0243
70.000000	91.066	-33.1898
71.000000	91.012	-33.4730
72.000000	90.936	-33.7168
73.000000	90.866	-33.8851
74.000000	90.789	-34.0502
75.000000	90.720	-34.1307
76.199997	90.643	-34.3524
77.500000	90.545	-34.5707
78.800003	90.455	-34.7613
80.000000	90.375	-34.9862
81.199997	90.292	-35.1649
82.500000	90.208	-35.3719
83.800003	90.128	-35.5509
85.000000	90.045	-35.7636
86.199997	89.971	-35.8530
87.500000	89.889	-36.0549
88.500000	89.827	-36.0769
90.000000	89.746	-36.3298
91.199997	89.659	-36.3907
92.500000	89.583	-36.4831
93.800003	89.504	-36.5570
95.000000	89.433	-36.6766
96.199997	89.360	-36.7497
97.500000	89.283	-36.8401
98.800003	89.215	-36.9079
100.000000	89.146	-37.0073
101.500000	89.064	-37.1038
103.000000	88.972	-37.1676
104.400002	88.897	-37.2417
106.000000	88.806	-37.2183
107.500000	88.742	-37.3381
109.000000	88.655	-37.3352
110.599998	88.581	-37.4706
112.000000	88.488	-37.4328
113.800003	88.405	-37.4452
115.000000	88.335	-37.4427
117.199997	88.221	-37.4975
118.000000	88.188	-37.4585
120.599998	88.044	-37.5745
122.000000	87.957	-37.7076
124.099998	87.879	-37.5819
125.000000	87.824	-37.5013
126.500000	87.783	-37.4879
128.000000	87.724	-37.3755
131.500000	87.573	-37.2829
132.000000	87.549	-37.2464
134.000000	87.466	-37.1807
136.000000	87.389	-37.0920
138.000000	87.318	-37.0510
140.000000	87.239	-37.0077
143.000000	87.111	-36.8264
145.000000	87.062	-36.7512
147.500000	86.971	-36.7095
150.000000	86.905	-36.4684
152.500000	86.799	-36.3292
155.000000	86.698	-36.2607
157.500000	86.619	-36.1609
160.000000	86.549	-36.0311
162.500000	86.461	-35.7974
165.000000	86.355	-35.6335
167.500000	86.254	-35.5336
170.000000	86.171	-35.4246
172.500000	86.083	-35.2548
175.000000	85.989	-35.1230
177.500000	85.893	-34.9851
180.000000	85.794	-34.8399
182.500000	85.720	-34.6468
185.000000	85.626	-34.4742
187.500000	85.539	-34.2658
190.000000	85.454	-34.0755
192.500000	85.364	-33.8699
195.000000	85.267	-33.6237
197.500000	85.198	-33.4348
200.000000	85.126	-33.1600
203.000000	85.067	-32.6900
206.000000	84.976	-32.1817
209.000000	84.898	-32.0220
212.000000	84.845	-31.6566
214.000000	84.823	-31.3102
218.000000	84.774	-30.7845
220.000000	84.731	-30.2952
224.000000	84.705	-30.2253
227.000000	84.657	-30.0670
230.000000	84.635	-29.8525
233.000000	84.589	-29.9710
236.000000	84.516	-29.8576
240.000000	84.733	-29.0437
243.000000	84.399	-29.1615
247.000000	84.317	-28.9586
250.000000	84.278	-28.7826
254.000000	84.181	-28.4402
258.000000	84.108	-28.2382
262.000000	84.008	-27.9573
265.000000	83.965	-27.6983
269.000000	83.903	-27.3740
272.000000	83.823	-27.0305
276.000000	83.767	-26.7739
280.000000	83.701	-26.4352
285.000000	83.621	-25.8684
290.000000	83.539	-25.5383
295.000000	83.469	-24.9292
300.000000	83.397	-24.5006
304.000000	83.393	-24.0155
307.000000	83.386	-24.1975
311.000000	83.258	-23.6178
315.000000	83.218	-23.3085
320.000000	83.154	-22.8383
325.000000	83.091	-22.4155
330.000000	83.045	-22.0180
335.000000	82.984	-21.5742
340.000000	82.929	-21.2038
345.000000	82.868	-20.8118
350.000000	82.820	-20.3211
355.000000	82.770	-19.9375
360.000000	82.716	-19.5632
365.000000	82.666	-19.0681
370.000000	82.625	-18.7068
375.000000	82.562	-18.2989
382.000000	82.509	-17.6269
387.000000	82.458	-17.2132
395.000000	82.392	-16.5588
400.000000	82.356	-16.1927
406.000000	82.302	-15.6714
412.000000	82.250	-15.1202
418.000000	82.215	-14.6671
425.000000	82.170	-14.0650
431.000000	82.124	-13.5350
437.000000	82.073	-12.9899
444.000000	82.029	-12.3940
450.000000	82.002	-11.9422
455.000000	81.967	-11.5412
462.000000	81.925	-10.9539
468.000000	81.884	-10.4903
475.000000	81.848	-9.9173
482.000000	81.816	-9.3533
487.000000	81.790	-8.9408
494.000000	81.759	-8.3597
500.000000	81.722	-7.9132
508.000000	81.694	-7.2553
515.000000	81.670	-6.6484
522.000000	81.642	-6.1468
530.000000	81.607	-5.5158
538.000000	81.577	-4.8354
545.000000	81.553	-4.3376
552.000000	81.540	-3.8723
560.000000	81.503	-3.1664
570.000000	81.480	-2.3309
580.000000	81.449	-1.6082
590.000000	81.426	-0.8237
600.000000	81.401	-0.0970
608.000000	81.392	0.5195
615.000000	81.377	0.9741
622.000000	81.368	1.5429
630.000000	81.360	2.0655
640.000000	81.344	2.8019
650.000000	81.311	3.4491
660.000000	81.274	3.9748
670.000000	81.210	4.6896
680.000000	81.160	5.6517
690.000000	81.144	6.7568
700.000000	81.157	7.7738
710.000000	81.152	8.6364
720.000000	81.165	9.5073
730.000000	81.171	10.3372
740.000000	81.185	11.1749
750.000000	81.187	11.9997
762.000000	81.203	12.8729
775.000000	81.211	13.9650
788.000000	81.228	15.1342
800.000000	81.250	16.0868
812.000000	81.257	17.1295
825.000000	81.283	18.2504
838.000000	81.320	19.4308
850.000000	81.360	20.5218
862.000000	81.403	21.6804
875.000000	81.472	22.8879
885.000000	81.534	23.9216
900.000000	81.642	25.2681
912.000000	81.748	26.2844
925.000000	81.870	27.1793
938.000000	81.993	28.0315
950.000000	82.106	28.7343
962.000000	82.209	29.3860
975.000000	82.319	30.0635
988.000000	82.427	30.7124
1000.000000	82.525	31.3267
1015.000000	82.653	31.9692
1030.000000	82.771	32.6397
1044.000000	82.884	33.2331
1060.000000	83.023	33.8699
1075.000000	83.145	34.4916
1090.000000	83.269	34.9301
1106.000000	83.397	35.5459
1120.000000	83.509	35.9233
1138.000000	83.660	36.4486
1150.000000	83.751	36.7867
1172.000000	83.919	37.3438
1180.000000	83.980	37.5159
1206.000000	84.168	38.0717
1220.000000	84.259	38.3490
1241.000000	84.402	38.7088
1250.000000	84.456	38.8892
1265.000000	84.570	39.1074
1280.000000	84.668	39.3717
1315.000000	84.906	39.8738
1320.000000	84.941	39.9899
1340.000000	85.078	40.2383
1360.000000	85.202	40.5364
1380.000000	85.330	40.8032
1400.000000	85.462	41.0834
1430.000000	85.644	41.4885
1450.000000	85.753	41.7460
1475.000000	85.894	42.1017
1500.000000	86.025	42.4416
1525.000000	86.161	42.7410
1550.000000	86.302	43.0856
1575.000000	86.446	43.4009
1600.000000	86.600	43.7390
1625.000000	86.751	43.9992
1650.000000	86.903	44.2966
1675.000000	87.060	44.5284
1700.000000	87.198	44.7810
1725.000000	87.330	45.0210
1750.000000	87.464	45.2558
1775.000000	87.597	45.4111
1800.000000	87.744	45.5975
1825.000000	87.887	45.7665
1850.000000	88.037	45.8843
1875.000000	88.174	46.0315
1900.000000	88.301	46.2016
1925.000000	88.425	46.3620
1950.000000	88.530	46.5683
1975.000000	88.646	46.8398
2000.000000	88.756	47.2200
2030.000000	88.926	47.9261
2060.000000	89.144	48.8895
2090.000000	89.451	49.7058
2120.000000	89.832	50.0871
2140.000000	90.096	49.8623
2180.000000	90.554	48.7616
2200.000000	90.741	48.0649
2240.000000	91.049	46.6160
2270.000000	91.241	45.5608
2300.000000	91.417	44.5577
2330.000000	91.576	43.5767
2360.000000	91.722	42.6206
2400.000000	91.901	41.3763
2430.000000	92.024	40.4498
2470.000000	92.178	39.2094
2500.000000	92.286	38.2728
2540.000000	92.433	37.0182
2580.000000	92.557	35.6429
2620.000000	92.658	34.3198
2650.000000	92.702	33.2741
2690.000000	92.742	32.1107
2720.000000	92.779	31.1479
2760.000000	92.788	30.3284
2800.000000	92.796	29.3574
2850.000000	92.790	28.8813
2900.000000	92.840	28.1674
2950.000000	92.955	27.6898
3000.000000	93.011	26.5490
3040.000000	93.033	25.9850
3070.000000	93.098	25.2597
3110.000000	93.100	24.6357
3150.000000	93.106	23.4979
3200.000000	93.014	22.8555
3250.000000	93.013	22.0776
3300.000000	93.009	22.0657
3350.000000	92.918	21.4700
3400.000000	92.892	20.5002
3450.000000	92.860	19.9393
3500.000000	92.862	20.4440
3550.000000	92.865	19.6693
3600.000000	92.830	20.4398
3650.000000	92.777	19.5596
3700.000000	92.849	19.0442
3750.000000	92.795	19.8290
3820.000000	92.867	19.1311
3870.000000	92.916	19.5968
3950.000000	93.010	19.2276
4000.000000	92.856	18.7385
4060.000000	92.839	18.9803
4120.000000	93.098	18.1482
4180.000000	93.185	18.4878
4250.000000	93.312	18.1367
4310.000000	93.446	18.1669
4370.000000	93.469	16.0928
4440.000000	93.568	15.3368
4500.000000	93.638	14.3510
4550.000000	93.715	13.1225
4620.000000	93.888	12.1996
4680.000000	93.821	10.3070
4750.000000	93.892	9.1672
4820.000000	93.782	6.2308
4870.000000	93.811	5.0182
4940.000000	93.751	3.5004
5000.000000	93.720	1.4778
5080.000000	93.386	-0.1932
5150.000000	93.136	-1.5604
5220.000000	92.884	-3.4734
5300.000000	92.470	-4.6702
5380.000000	92.002	-5.7728
5450.000000	91.875	-6.0071
5520.000000	91.493	-6.2486
5600.000000	91.202	-6.7240
5700.000000	90.599	-7.1188
5800.000000	90.121	-5.8994
5900.000000	89.801	-4.6774
6000.000000	89.496	-3.8120
6080.000000	89.121	-2.7718
6150.000000	88.797	-0.9358
6220.000000	88.612	0.0116
6300.000000	88.549	2.1982
6400.000000	88.506	3.9850
6500.000000	88.297	5.7956
6600.000000	88.348	9.9467
6700.000000	88.508	11.7607
6800.000000	88.755	14.5963
6900.000000	88.951	17.9440
7000.000000	89.189	19.6803
7100.000000	89.772	21.4305
7200.000000	90.445	23.3113
7300.000000	91.185	23.5660
7400.000000	91.871	24.8294
7500.000000	92.881	22.3481
7620.000000	94.126	20.2311
7750.000000	95.254	12.1578
7880.000000	96.163	-0.4235
8000.000000	96.454	-12.4361
8120.000000	95.413	-24.2837
8250.000000	93.911	-32.8447
8380.000000	92.321	-37.7446
8500.000000	91.062	-40.1018
8620.000000	89.609	-39.8992
8750.000000	88.576	-38.6212
8850.000000	87.679	-37.2714
9000.000000	86.548	-35.0014
9120.000000	85.800	-31.1929
9250.000000	84.884	-28.4453
9380.000000	83.725	-23.8128
9500.000000	83.442	-11.7386
9620.000000	83.909	-10.0606
9750.000000	83.686	-8.8847
9880.000000	83.427	-6.4654
10000.000000	83.324	-2.5281
10150.000000	83.214	2.0405
10300.000000	83.101	5.1384
10440.000000	83.330	9.5589
10600.000000	83.469	13.3496
10750.000000	83.751	15.2077
10900.000000	84.234	18.2598
11060.000000	84.644	19.1607
11200.000000	85.419	19.6696
11380.000000	86.109	18.3382
11500.000000	86.571	14.5006
11720.000000	87.393	6.3590
11800.000000	87.484	2.0809
12060.000000	86.806	-12.8480
12200.000000	85.833	-18.7677
12410.000000	84.276	-24.0329
12500.000000	83.611	-24.7260
12650.000000	82.476	-25.6354
12800.000000	81.499	-25.4893
13150.000000	79.669	-20.5919
13200.000000	79.522	-19.1356
13400.000000	78.796	-14.9303
13600.000000	78.396	-10.1076
13800.000000	78.379	-5.4982
14000.000000	78.208	-0.4319
14300.000000	78.917	5.3394
14500.000000	79.497	9.3874
14750.000000	80.905	9.8446
15000.000000	82.343	4.6031
15250.000000	82.987	-8.4161
15500.000000	81.822	-24.7362
15750.000000	79.222	-32.7926
16000.000000	76.455	-32.9509
16250.000000	74.747	-27.0505
16500.000000	72.994	-20.1903
16750.000000	71.798	-11.0803
17000.000000	70.702	-1.8982
17250.000000	69.859	6.6109
17500.000000	68.923	15.0502
17750.000000	68.443	21.1480
18000.000000	67.639	27.3184
18250.000000	66.972	31.0139
18500.000000	66.274	37.4571
18750.000000	66.564	38.8014
19000.000000	66.502	32.4793
19250.000000	66.434	22.1454
19500.000000	66.415	8.1276
19750.000000	65.815	-7.5785
