* Measurement data measured by REW V5.31.3
* Source: Headset (Odo By VECLAN.COM), MICROPHONE (Master Volume), L, volume: 0.720. Timing signal peak level -8.3 dBFS, measurement signal peak level -8.2 dBFS
* Format: 2M Log Swept Sine, 1 sweep at -26.5 dBFS using an acoustic timing reference
* Dated: 11 17, 24 11:44:39 AM
* REW Settings:
*  C-weighting compensation: Off
*  Target level: 85.0 dB
* Note: ; Delay -0.0672 ms (-23 mm, -0.91 in) using estimated IR delay relative to Acoustic reference played from SPEAKER R with no timing offset
* Measurement: CRA OG R
* Smoothing: 1/24 octave
* Frequency Step: 96 ppo
* Start Frequency: 0.36621094 Hz
*
* Freq(Hz) SPL(dB) Phase(degrees)
0.366211 79.026 -12.5550
0.368865 79.058 -12.7775
0.371538 79.104 -13.0814
0.374230 79.156 -13.4206
0.376942 79.210 -13.7743
0.379673 79.265 -14.1348
0.382424 79.321 -14.4998
0.385196 79.377 -14.8685
0.387987 79.433 -15.2408
0.390798 79.490 -15.6164
0.393630 79.548 -15.9955
0.396483 79.606 -16.3779
0.399356 79.664 -16.7636
0.402250 79.722 -17.1526
0.405165 79.781 -17.5449
0.408101 79.841 -17.9404
0.411058 79.901 -18.3391
0.414037 79.961 -18.7410
0.417037 80.022 -19.1460
0.420059 80.083 -19.5542
0.423103 80.145 -19.9654
0.426169 80.207 -20.3797
0.429257 80.270 -20.7971
0.432368 80.333 -21.2174
0.435501 80.396 -21.6407
0.438656 80.460 -22.0669
0.441835 80.525 -22.4961
0.445037 80.590 -22.9282
0.448262 80.655 -23.3632
0.451510 80.721 -23.8010
0.454782 80.787 -24.2416
0.458077 80.854 -24.6851
0.461397 80.921 -25.1314
0.464740 80.989 -25.5804
0.468108 81.057 -26.0323
0.471500 81.126 -26.4869
0.474917 81.195 -26.9442
0.478358 81.265 -27.4043
0.481825 81.335 -27.8671
0.485316 81.406 -28.3327
0.488833 81.477 -28.8010
0.492375 81.549 -29.2720
0.495943 81.621 -29.7458
0.499537 81.694 -30.2223
0.503157 81.768 -30.7015
0.506803 81.842 -31.1835
0.510475 81.916 -31.6683
0.514175 81.991 -32.1559
0.517900 82.066 -32.6463
0.521653 82.143 -33.1395
0.525434 82.219 -33.6355
0.529241 82.296 -34.1344
0.533076 82.374 -34.6363
0.536939 82.452 -35.1410
0.540830 82.531 -35.6487
0.544749 82.611 -36.1594
0.548696 82.691 -36.6732
0.552673 82.771 -37.1900
0.556677 82.852 -37.7099
0.560711 82.934 -38.2330
0.564774 83.017 -38.7593
0.568867 83.100 -39.2669
0.572989 83.183 -39.7681
0.577141 83.267 -40.2725
0.581324 83.352 -40.7800
0.585536 83.437 -41.2908
0.589779 83.523 -41.8048
0.594053 83.610 -42.3222
0.598358 83.697 -42.8430
0.602694 83.785 -43.3673
0.607061 83.874 -43.8951
0.611460 83.963 -44.4265
0.615891 84.053 -44.9615
0.620354 84.143 -45.5002
0.624849 84.234 -46.0427
0.629377 84.326 -46.5891
0.633938 84.419 -47.1393
0.638532 84.512 -47.6936
0.643159 84.605 -48.2518
0.647819 84.700 -48.8142
0.652514 84.795 -49.3808
0.657242 84.891 -49.9516
0.662005 84.988 -50.5267
0.666802 85.085 -51.1062
0.671634 85.183 -51.6901
0.676501 85.281 -52.2785
0.681403 85.381 -52.8714
0.686341 85.481 -53.4690
0.691314 85.582 -54.0713
0.696324 85.683 -54.6782
0.701370 85.785 -55.2900
0.706452 85.889 -55.9065
0.711571 85.992 -56.5279
0.716728 86.097 -57.1542
0.721921 86.202 -57.7849
0.727153 86.309 -58.4196
0.732422 86.416 -59.0564
0.737729 86.526 -59.6919
0.743075 86.637 -60.3231
0.748460 86.750 -60.9481
0.753883 86.864 -61.5662
0.759346 86.979 -62.1773
0.764849 87.096 -62.7813
0.770391 87.214 -63.2742
0.775974 87.333 -63.7321
0.781597 87.454 -64.1824
0.787261 87.576 -64.6251
0.792966 87.699 -65.0606
0.798712 87.824 -65.4891
0.804500 87.950 -65.9106
0.810329 88.077 -66.3255
0.816201 88.205 -66.7341
0.822116 88.335 -67.1365
0.828073 88.466 -67.5330
0.834074 88.598 -67.9239
0.840118 88.731 -68.3096
0.846206 88.865 -68.6902
0.852338 89.000 -69.0661
0.858514 89.136 -69.4376
0.864735 89.274 -69.8049
0.871001 89.412 -70.1685
0.877313 89.551 -70.5285
0.883670 89.692 -70.8854
0.890074 89.833 -71.2394
0.896524 89.975 -71.5909
0.903020 90.118 -71.9401
0.909564 90.262 -72.2875
0.916155 90.406 -72.6332
0.922794 90.551 -72.9777
0.929481 90.697 -73.3212
0.936216 90.844 -73.6641
0.943000 90.991 -74.0067
0.949834 91.138 -74.3492
0.956717 91.286 -74.6921
0.963649 91.435 -75.0356
0.970632 91.583 -75.3618
0.977666 91.733 -75.6797
0.984750 91.882 -75.9991
0.991886 92.031 -76.3200
0.999074 92.181 -76.6429
1.006314 92.330 -76.9680
1.013606 92.479 -77.2957
1.020951 92.629 -77.6261
1.028349 92.778 -77.9597
1.035801 92.926 -78.2966
1.043307 93.075 -78.6371
1.050867 93.222 -78.9816
1.058482 93.370 -79.3303
1.066152 93.516 -79.6835
1.073878 93.662 -80.0412
1.081660 93.807 -80.4036
1.089498 93.951 -80.7704
1.097393 94.094 -81.1400
1.105345 94.237 -81.5097
1.113355 94.381 -81.8764
1.121423 94.524 -82.2381
1.129549 94.669 -82.5942
1.137734 94.814 -82.9447
1.145979 94.959 -83.2895
1.154283 95.105 -83.6290
1.162647 95.251 -83.9633
1.171072 95.398 -84.2937
1.179558 95.545 -84.6201
1.188106 95.692 -84.9420
1.196715 95.839 -85.2598
1.205387 95.986 -85.5737
1.214122 96.132 -85.8839
1.222920 96.279 -86.1908
1.231782 96.425 -86.4947
1.240708 96.571 -86.7958
1.249699 96.717 -87.0945
1.258754 96.862 -87.3910
1.267876 97.006 -87.6856
1.277063 97.149 -87.9787
1.286318 97.291 -88.2705
1.295639 97.433 -88.5614
1.305027 97.573 -88.8517
1.314484 97.712 -89.1416
1.324009 97.849 -89.4316
1.333604 97.985 -89.7218
1.343268 98.118 -90.0127
1.353002 98.251 -90.3045
1.362806 98.380 -90.5976
1.372681 98.508 -90.8875
1.382628 98.634 -91.1769
1.392647 98.756 -91.4686
1.402739 98.876 -91.7626
1.412904 98.994 -92.0594
1.423142 99.108 -92.3592
1.433455 99.218 -92.6624
1.443843 99.325 -92.9689
1.454305 99.429 -93.2787
1.464844 99.528 -93.5906
1.475459 99.622 -93.9028
1.486150 99.711 -94.2131
1.496920 99.795 -94.5203
1.507767 99.873 -94.8240
1.518693 99.946 -95.1241
1.529698 100.014 -95.4207
1.540783 100.078 -95.7137
1.551948 100.136 -96.0033
1.563194 100.191 -96.2897
1.574521 100.241 -96.5681
1.585931 100.287 -96.8420
1.597423 100.330 -97.1132
1.608999 100.369 -97.3818
1.620658 100.406 -97.6481
1.632402 100.439 -97.9124
1.644232 100.470 -98.1748
1.656146 100.499 -98.4357
1.668147 100.526 -98.6953
1.680235 100.552 -98.9539
1.692411 100.576 -99.2118
1.704675 100.600 -99.4694
1.717028 100.624 -99.7270
1.729470 100.647 -99.9848
1.742003 100.672 -100.2433
1.754626 100.697 -100.5028
1.767341 100.725 -100.7643
1.780147 100.754 -101.0330
1.793047 100.786 -101.3038
1.806040 100.821 -101.5769
1.819128 100.859 -101.8525
1.832310 100.900 -102.1302
1.845587 100.943 -102.4089
1.858961 100.987 -102.6875
1.872432 101.031 -102.9653
1.886001 101.075 -103.2419
1.899667 101.119 -103.5169
1.913433 101.163 -103.7904
1.927299 101.207 -104.0620
1.941265 101.251 -104.3318
1.955332 101.295 -104.5996
1.969501 101.339 -104.8670
1.983773 101.383 -105.1370
1.998148 101.426 -105.4050
2.012627 101.470 -105.6712
2.027212 101.514 -105.9357
2.041902 101.557 -106.1985
2.056698 101.601 -106.4597
2.071602 101.644 -106.7195
2.086614 101.688 -106.9780
2.101734 101.731 -107.2355
2.116964 101.775 -107.4921
2.132304 101.818 -107.7480
2.147756 101.861 -108.0035
2.163320 101.905 -108.2589
2.178996 101.948 -108.5210
2.194786 101.992 -108.7848
2.210690 102.035 -109.0491
2.226710 102.079 -109.3136
2.242845 102.122 -109.5782
2.259098 102.165 -109.8424
2.275468 102.208 -110.1058
2.291957 102.251 -110.3683
2.308566 102.294 -110.6295
2.325295 102.336 -110.8891
2.342145 102.379 -111.1470
2.359117 102.421 -111.4029
2.376212 102.463 -111.6633
2.393431 102.506 -111.9260
2.410775 102.548 -112.1865
2.428244 102.590 -112.4447
2.445840 102.632 -112.7005
2.463564 102.674 -112.9539
2.481416 102.716 -113.2050
2.499397 102.758 -113.4538
2.517509 102.800 -113.7004
2.535752 102.843 -113.9449
2.554127 102.885 -114.1877
2.572635 102.927 -114.4355
2.591277 102.969 -114.6938
2.610055 103.011 -114.9518
2.628968 103.053 -115.2094
2.648019 103.095 -115.4663
2.667208 103.137 -115.7222
2.686535 103.179 -115.9767
2.706003 103.220 -116.2295
2.725612 103.262 -116.4803
2.745363 103.304 -116.7288
2.765257 103.345 -116.9747
2.785295 103.386 -117.2331
2.805478 103.428 -117.4891
2.825808 103.469 -117.7422
2.846285 103.510 -117.9922
2.866910 103.551 -118.2389
2.887685 103.592 -118.4824
2.908611 103.633 -118.7227
2.929688 103.674 -118.9604
2.950917 103.715 -119.1962
2.972301 103.755 -119.4356
2.993839 103.796 -119.6855
3.015534 103.836 -119.9343
3.037386 103.876 -120.1817
3.059396 103.916 -120.4274
3.081565 103.956 -120.6711
3.103896 103.996 -120.9125
3.126388 104.035 -121.1513
3.149043 104.075 -121.3873
3.171862 104.115 -121.6242
3.194847 104.154 -121.8697
3.217998 104.194 -122.1118
3.241317 104.234 -122.3504
3.264805 104.274 -122.5854
3.288463 104.314 -122.8172
3.312293 104.354 -123.0462
3.336295 104.394 -123.2732
3.360471 104.434 -123.4983
3.384822 104.474 -123.7343
3.409350 104.515 -123.9722
3.434056 104.555 -124.2081
3.458940 104.595 -124.4419
3.484005 104.635 -124.6732
3.509252 104.675 -124.9021
3.534681 104.716 -125.1283
3.560295 104.756 -125.3517
3.586094 104.796 -125.5868
3.612081 104.837 -125.8233
3.638255 104.878 -126.0570
3.664620 104.919 -126.2882
3.691175 104.960 -126.5175
3.717923 105.001 -126.7450
3.744864 105.043 -126.9711
3.772001 105.084 -127.1999
3.799335 105.125 -127.4424
3.826866 105.167 -127.6831
3.854597 105.209 -127.9220
3.882529 105.250 -128.1589
3.910664 105.292 -128.3938
3.939002 105.334 -128.6266
3.967546 105.376 -128.8584
3.996296 105.418 -129.1066
4.025255 105.460 -129.3532
4.054423 105.502 -129.5988
4.083804 105.544 -129.8437
4.113396 105.587 -130.0879
4.143204 105.629 -130.3315
4.173227 105.671 -130.5788
4.203468 105.714 -130.8402
4.233928 105.756 -131.1003
4.264609 105.799 -131.3589
4.295512 105.841 -131.6159
4.326639 105.883 -131.8712
4.357992 105.925 -132.1250
4.389572 105.967 -132.3925
4.421380 106.008 -132.6649
4.453419 106.050 -132.9377
4.485691 106.091 -133.2110
4.518196 106.132 -133.4845
4.550936 106.173 -133.7577
4.583914 106.214 -134.0405
4.617131 106.255 -134.3307
4.650589 106.295 -134.6191
4.684289 106.335 -134.9053
4.718233 106.375 -135.1893
4.752424 106.414 -135.4714
4.786862 106.453 -135.7639
4.821549 106.491 -136.0641
4.856488 106.529 -136.3653
4.891680 106.567 -136.6668
4.927127 106.604 -136.9678
4.962831 106.641 -137.2672
4.998794 106.677 -137.5800
5.035017 106.713 -137.8912
5.071503 106.748 -138.1984
5.108253 106.783 -138.5018
5.145270 106.817 -138.8022
5.182555 106.850 -139.1092
5.220110 106.883 -139.4255
5.257937 106.915 -139.7412
5.296038 106.946 -140.0552
5.334415 106.977 -140.3662
5.373071 107.007 -140.6762
5.412006 107.036 -140.9957
5.451224 107.065 -141.3090
5.490725 107.093 -141.6162
5.530514 107.121 -141.9188
5.570590 107.147 -142.2204
5.610957 107.173 -142.5357
5.651616 107.198 -142.8477
5.692570 107.223 -143.1553
5.733821 107.247 -143.4572
5.775370 107.270 -143.7560
5.817221 107.293 -144.0606
5.859375 107.316 -144.3573
5.901834 107.338 -144.6469
5.944602 107.359 -144.9308
5.987679 107.379 -145.2182
6.031068 107.399 -145.5088
6.074771 107.419 -145.7931
6.118792 107.438 -146.0703
6.163131 107.458 -146.3396
6.207792 107.477 -146.6155
6.252776 107.495 -146.8841
6.298086 107.514 -147.1452
6.343725 107.532 -147.3993
6.389694 107.550 -147.6552
6.435996 107.568 -147.9125
6.482634 107.586 -148.1632
6.529610 107.604 -148.4073
6.576926 107.622 -148.6480
6.624585 107.641 -148.8930
6.672590 107.659 -149.1313
6.720942 107.678 -149.3633
6.769645 107.697 -149.5907
6.818700 107.716 -149.8265
6.868111 107.735 -150.0578
6.917881 107.755 -150.2852
6.968010 107.775 -150.5092
7.018504 107.796 -150.7427
7.069362 107.816 -150.9724
7.120590 107.838 -151.1983
7.172189 107.859 -151.4229
7.224161 107.880 -151.6571
7.276511 107.902 -151.8895
7.329239 107.924 -152.1206
7.382350 107.945 -152.3548
7.435845 107.967 -152.5973
7.489729 107.989 -152.8386
7.544002 108.011 -153.0785
7.598669 108.033 -153.3257
7.653732 108.054 -153.5777
7.709194 108.075 -153.8290
7.765058 108.096 -154.0800
7.821327 108.116 -154.3449
7.878004 108.136 -154.6092
7.935091 108.155 -154.8718
7.992592 108.174 -155.1370
8.050510 108.192 -155.4055
8.108847 108.209 -155.6718
8.167607 108.225 -155.9368
8.226793 108.240 -156.2109
8.286408 108.255 -156.4817
8.346454 108.269 -156.7479
8.406936 108.282 -157.0169
8.467856 108.295 -157.2845
8.529218 108.307 -157.5474
8.591024 108.318 -157.8101
8.653278 108.329 -158.0740
8.715983 108.339 -158.3314
8.779143 108.348 -158.5835
8.842760 108.357 -158.8364
8.906839 108.366 -159.0822
8.971381 108.373 -159.3219
9.036392 108.381 -159.5642
9.101873 108.389 -159.7997
9.167829 108.397 -160.0283
9.234263 108.406 -160.2585
9.301178 108.415 -160.4820
9.368578 108.424 -160.7000
9.436467 108.433 -160.9236
9.504847 108.443 -161.1431
9.573723 108.453 -161.3600
9.643099 108.464 -161.5830
9.712976 108.475 -161.8029
9.783361 108.486 -162.0234
9.854255 108.495 -162.2509
9.925663 108.502 -162.4785
9.997588 108.508 -162.7063
10.070035 108.512 -162.9608
10.143007 108.515 -163.2172
10.216507 108.517 -163.4752
10.290540 108.517 -163.7356
10.365109 108.516 -163.9984
10.440219 108.513 -164.2632
10.515873 108.509 -164.5292
10.592076 108.504 -164.7958
10.668830 108.498 -165.0632
10.746141 108.490 -165.3313
10.824012 108.481 -165.5992
10.902447 108.472 -165.8648
10.981451 108.461 -166.1267
11.061027 108.450 -166.4160
11.141180 108.437 -166.7108
11.221913 108.424 -167.0001
11.303232 108.410 -167.2818
11.385140 108.394 -167.5545
11.467641 108.377 -167.8181
11.550741 108.359 -168.0720
11.634442 108.340 -168.3155
11.718750 108.320 -168.5473
11.803669 108.301 -168.7670
11.889203 108.281 -168.9749
11.975357 108.261 -169.1715
12.062136 108.242 -169.3836
12.149543 108.224 -169.5958
12.237583 108.207 -169.7981
12.326262 108.192 -169.9921
12.415583 108.180 -170.1798
12.505552 108.171 -170.3625
12.596172 108.165 -170.5406
12.687449 108.161 -170.7158
12.779387 108.160 -170.8901
12.871992 108.160 -171.0652
12.965268 108.161 -171.2415
13.059220 108.163 -171.4411
13.153852 108.166 -171.6562
13.249170 108.169 -171.8754
13.345179 108.173 -172.0984
13.441884 108.176 -172.3247
13.539289 108.178 -172.5537
13.637401 108.180 -172.7850
13.736223 108.181 -173.0181
13.835761 108.181 -173.2511
13.936021 108.180 -173.4827
14.037007 108.179 -173.7226
14.138725 108.176 -173.9776
14.241180 108.173 -174.2282
14.344377 108.169 -174.4730
14.448323 108.165 -174.7117
14.553021 108.160 -174.9440
14.658478 108.154 -175.1696
14.764700 108.148 -175.3883
14.871691 108.142 -175.6006
14.979457 108.137 -175.8074
15.088005 108.131 -176.0326
15.197339 108.127 -176.2590
15.307465 108.122 -176.4823
15.418389 108.118 -176.7034
15.530117 108.113 -176.9227
15.642655 108.108 -177.1404
15.756008 108.103 -177.3564
15.870182 108.098 -177.5708
15.985184 108.092 -177.7828
16.101019 108.086 -178.0095
16.217694 108.080 -178.2345
16.335214 108.074 -178.4542
16.453586 108.068 -178.6673
16.572815 108.061 -178.8726
16.692909 108.053 -179.0698
16.813872 108.046 -179.2589
16.935713 108.039 -179.4401
17.058436 108.033 -179.6236
17.182048 108.028 -179.8125
17.306556 108.024 -179.9985
17.431967 108.020 179.8166
17.558286 108.018 179.6298
17.685521 108.017 179.4387
17.813677 108.016 179.2416
17.942762 108.015 179.0374
18.072783 108.013 178.8141
18.203746 108.011 178.5750
18.335658 108.008 178.3304
18.468526 108.002 178.0823
18.602356 107.995 177.8342
18.737156 107.985 177.5905
18.872934 107.973 177.3545
19.009695 107.959 177.1291
19.147447 107.944 176.9061
19.286197 107.928 176.6995
19.425953 107.912 176.5093
19.566721 107.898 176.3352
19.708510 107.885 176.1737
19.851326 107.874 176.0204
19.995177 107.866 175.8711
20.140070 107.861 175.7042
20.286013 107.858 175.5294
20.433014 107.856 175.3433
20.581080 107.855 175.1429
20.730219 107.854 174.9276
20.880439 107.852 174.6992
21.031747 107.848 174.4572
21.184152 107.841 174.1978
21.337661 107.832 173.9390
21.492282 107.820 173.6858
21.648024 107.806 173.4436
21.804895 107.791 173.2158
21.962902 107.776 173.0034
22.122054 107.761 172.7966
22.282360 107.747 172.5987
22.443827 107.735 172.4074
22.606464 107.725 172.2179
22.770280 107.717 172.0244
22.935283 107.709 171.8232
23.101481 107.700 171.6050
23.268884 107.691 171.3730
23.437500 107.680 171.1359
23.607338 107.665 170.8991
23.778406 107.648 170.6698
23.950714 107.628 170.4556
24.124271 107.606 170.2533
24.299086 107.583 170.0725
24.475167 107.561 169.9175
24.652524 107.541 169.7857
24.831166 107.524 169.6715
25.011103 107.511 169.5659
25.192344 107.502 169.4529
25.374898 107.495 169.3307
25.558775 107.491 169.1927
25.743984 107.488 169.0342
25.930536 107.484 168.8543
26.118439 107.479 168.6481
26.307704 107.471 168.4230
26.498341 107.460 168.1901
26.690359 107.446 167.9563
26.883768 107.428 167.7283
27.078579 107.408 167.5087
27.274801 107.386 167.2997
27.472446 107.363 167.1062
27.671522 107.339 166.9274
27.872042 107.317 166.7607
28.074014 107.295 166.5994
28.277450 107.275 166.4368
28.482360 107.256 166.2747
28.688755 107.238 166.1096
28.896645 107.221 165.9392
29.106042 107.203 165.7592
29.316957 107.185 165.5704
29.529400 107.167 165.3784
29.743382 107.148 165.1865
29.958915 107.128 164.9977
30.176009 107.108 164.8092
30.394677 107.090 164.6253
30.614929 107.072 164.4451
30.836778 107.057 164.2641
31.060234 107.044 164.0743
31.285309 107.032 163.8655
31.512015 107.021 163.6399
31.740364 107.010 163.3961
31.970368 106.997 163.1371
32.202039 106.981 162.8636
32.435388 106.961 162.5900
32.670428 106.938 162.3270
32.907171 106.913 162.0834
33.145630 106.887 161.8621
33.385817 106.861 161.6649
33.627745 106.837 161.4905
33.871425 106.816 161.3319
34.116871 106.797 161.1776
34.364096 106.782 161.0197
34.613113 106.768 160.8564
34.863934 106.755 160.6855
35.116572 106.742 160.5063
35.371041 106.728 160.3223
35.627354 106.712 160.1417
35.885525 106.695 159.9704
36.145566 106.677 159.8096
36.407492 106.660 159.6608
36.671316 106.644 159.5233
36.937051 106.631 159.3895
37.204712 106.620 159.2463
37.474313 106.611 159.0844
37.745867 106.603 158.8964
38.019389 106.592 158.6788
38.294893 106.577 158.4305
38.572394 106.557 158.1669
38.851905 106.530 157.9013
39.133442 106.496 157.6467
39.417019 106.456 157.4162
39.702651 106.413 157.2213
39.990353 106.368 157.0669
40.280140 106.323 156.9502
40.572026 106.282 156.8688
40.866028 106.246 156.8108
41.162160 106.216 156.7571
41.460438 106.192 156.6885
41.760877 106.172 156.5898
42.063494 106.154 156.4510
42.368303 106.135 156.2720
42.675322 106.111 156.0741
42.984565 106.085 155.8756
43.296048 106.057 155.6885
43.609789 106.030 155.5117
43.925804 106.007 155.3294
44.244108 105.988 155.1183
44.564719 105.967 154.8678
44.887654 105.941 154.5871
45.212928 105.905 154.3028
45.540560 105.861 154.0573
45.870565 105.813 153.8858
46.202962 105.769 153.7965
46.537768 105.734 153.7673
46.875000 105.714 153.7515
47.214676 105.705 153.6957
47.556813 105.702 153.5683
47.901429 105.696 153.3690
48.248542 105.682 153.1221
48.598171 105.658 152.8681
48.950334 105.626 152.6434
49.305048 105.590 152.4643
49.662333 105.555 152.3315
50.022206 105.522 152.2277
50.384688 105.494 152.1291
50.749796 105.469 152.0198
51.117550 105.444 151.8932
51.487969 105.418 151.7531
51.861072 105.390 151.6090
52.236879 105.361 151.4641
52.615409 105.332 151.3201
52.996681 105.303 151.1750
53.380717 105.275 151.0223
53.767536 105.248 150.8615
54.157158 105.221 150.6917
54.549603 105.194 150.5114
54.944892 105.166 150.3200
55.343045 105.136 150.1173
55.744084 105.103 149.9166
56.148028 105.066 149.7337
56.554900 105.028 149.5837
56.964720 104.991 149.4756
57.377510 104.959 149.4019
57.793291 104.932 149.3379
58.212085 104.911 149.2549
58.633914 104.891 149.1373
59.058799 104.868 148.9899
59.486764 104.839 148.8315
59.917829 104.805 148.6871
60.352019 104.768 148.5694
60.789354 104.732 148.4741
61.229859 104.698 148.3802
61.673556 104.665 148.2701
62.120468 104.631 148.1426
62.570618 104.594 148.0098
63.024031 104.554 147.8833
63.480729 104.514 147.7623
63.940736 104.475 147.6490
64.404077 104.437 147.5413
64.870776 104.401 147.4351
65.340856 104.365 147.3276
65.814343 104.331 147.2212
66.291261 104.300 147.1121
66.771635 104.269 146.9916
67.255489 104.237 146.8569
67.742850 104.203 146.7188
68.233743 104.166 146.5929
68.728193 104.129 146.4852
69.226226 104.092 146.3893
