* Measurement data measured by REW V5.30.9
* Source: Microphone (Realtek USB2.0 Audio), MICROPHONE (Master Volume), L, volume: 0.500
* Format: 512k Log Swept Sine, 1 sweep at -12.0 dBFS with no timing reference
* Dated: 02 22, 24 9:56:03 PM
* REW Settings:
*  C-weighting compensation: Off
*  Target level: 75.0 dB
* Note: ; 
* Measurement: d13 blue r
* Smoothing: None
* Frequency Step: 1/48 octave
* Start Frequency: 1.000 Hz
*
* Freq(Hz)	SPL(dB)	Phase(degrees)
1.000000	48.439	-69.4178
1.015000	48.224	-70.0712
1.030000	48.000	-70.8141
1.044000	47.784	-71.5980
1.060000	47.528	-72.5796
1.075000	47.281	-73.5628
1.090000	47.026	-74.5865
1.106000	46.747	-75.7009
1.120000	46.497	-76.6767
1.138000	46.167	-77.9052
1.150000	45.943	-78.6924
1.172000	45.523	-80.0316
1.180000	45.368	-80.4755
1.206000	44.854	-81.7106
1.220000	44.572	-82.2182
1.241000	44.143	-82.7291
1.250000	43.958	-82.8445
1.265000	43.646	-82.8828
1.280000	43.331	-82.7117
1.315000	42.589	-81.3866
1.320000	42.482	-81.0808
1.340000	42.054	-79.5370
1.360000	41.606	-77.4011
1.380000	41.093	-74.5652
1.400000	40.526	-71.1038
1.430000	39.599	-64.9219
1.450000	38.949	-60.2629
1.475000	38.122	-53.9814
1.500000	37.303	-47.3438
1.525000	36.516	-40.5135
1.550000	35.785	-33.6541
1.575000	35.135	-26.9290
1.600000	34.590	-20.5019
1.625000	34.176	-14.5361
1.650000	33.916	-9.1951
1.675000	33.836	-4.6424
1.700000	33.960	-0.8593
1.725000	34.294	2.5880
1.750000	34.808	5.7390
1.775000	35.474	8.6044
1.800000	36.264	11.1953
1.825000	37.147	13.5227
1.850000	38.096	15.5975
1.875000	39.082	17.4306
1.900000	40.076	19.0330
1.925000	41.049	20.4157
1.950000	41.972	21.5895
1.975000	42.816	22.5656
2.000000	43.553	23.3547
2.030000	44.266	24.0443
2.060000	44.884	24.2211
2.090000	45.443	23.8911
2.120000	45.951	23.1364
2.140000	46.264	22.4382
2.180000	46.841	20.6830
2.200000	47.110	19.6750
2.240000	47.617	17.5198
2.270000	47.981	15.8779
2.300000	48.339	14.3056
2.330000	48.699	12.8852
2.360000	49.067	11.6947
2.400000	49.543	10.1955
2.430000	49.879	9.0355
2.470000	50.302	7.4624
2.500000	50.605	6.2771
2.540000	50.993	4.7107
2.580000	51.368	3.1842
2.620000	51.736	1.7239
2.650000	52.011	0.6880
2.690000	52.380	-0.5931
2.720000	52.656	-1.4932
2.760000	53.015	-2.6595
2.800000	53.364	-3.7747
2.850000	53.791	-5.0763
2.900000	54.210	-6.2504
2.950000	54.624	-7.2704
3.000000	55.038	-8.1100
3.040000	55.370	-8.6367
3.070000	55.618	-8.9690
3.110000	55.947	-9.3365
3.150000	56.272	-9.6078
3.200000	56.677	-9.7959
3.250000	57.079	-9.7971
3.300000	57.481	-9.5910
3.350000	57.883	-9.1569
3.400000	58.286	-8.4817
3.450000	58.689	-7.5804
3.500000	59.091	-6.4647
3.550000	59.492	-5.1459
3.600000	59.893	-3.6349
3.650000	60.292	-1.9429
3.700000	60.690	-0.0809
3.750000	61.088	2.0299
3.820000	61.645	5.4510
3.870000	62.041	8.1146
3.950000	62.671	12.5271
4.000000	63.062	15.2496
4.060000	63.525	18.3759
4.120000	63.986	21.5745
4.180000	64.444	24.8247
4.250000	64.973	28.5316
4.310000	65.420	31.5072
4.370000	65.860	34.1775
4.440000	66.366	36.9030
4.500000	66.794	38.9998
4.550000	67.146	40.5842
4.620000	67.631	42.5618
4.680000	68.039	44.0416
4.750000	68.506	45.5064
4.820000	68.964	46.6331
4.870000	69.285	47.2642
4.940000	69.727	47.9634
5.000000	70.099	48.4432
5.080000	70.585	48.9748
5.150000	70.999	49.2534
5.220000	71.405	49.3734
5.300000	71.859	49.3785
5.380000	72.303	49.3121
5.450000	72.683	49.1903
5.520000	73.055	48.9721
5.600000	73.471	48.6476
5.700000	73.980	48.2031
5.800000	74.476	47.7520
5.900000	74.960	47.2486
6.000000	75.432	46.7309
6.080000	75.803	46.3330
6.150000	76.122	45.9940
6.220000	76.436	45.6575
6.300000	76.789	45.2732
6.400000	77.222	44.7888
6.500000	77.647	44.3080
6.600000	78.063	43.8252
6.700000	78.470	43.3200
6.800000	78.870	42.7783
6.900000	79.260	42.2086
7.000000	79.643	41.6151
7.100000	80.018	41.0005
7.200000	80.385	40.3613
7.300000	80.743	39.7016
7.400000	81.095	39.0279
7.500000	81.438	38.3331
7.620000	81.841	37.4777
7.750000	82.266	36.5689
7.880000	82.680	35.6858
8.000000	83.052	34.8924
8.120000	83.416	34.1367
8.250000	83.802	33.3589
8.380000	84.179	32.6200
8.500000	84.520	31.9739
8.620000	84.854	31.3623
8.750000	85.209	30.7282
8.850000	85.478	30.2619
9.000000	85.873	29.5926
9.120000	86.183	29.0618
9.250000	86.512	28.4906
9.380000	86.834	27.9261
9.500000	87.125	27.4105
9.620000	87.410	26.9004
9.750000	87.712	26.3531
9.880000	88.008	25.8097
10.000000	88.275	25.3130
10.150000	88.601	24.7030
10.300000	88.919	24.1024
10.440000	89.209	23.5626
10.600000	89.533	22.9775
10.750000	89.830	22.4537
10.900000	90.122	21.9528
11.060000	90.428	21.4412
11.200000	90.691	21.0067
11.380000	91.022	20.4673
11.500000	91.239	20.1177
11.720000	91.629	19.4981
11.800000	91.768	19.2770
12.060000	92.208	18.5736
12.200000	92.437	18.2043
12.410000	92.772	17.6665
12.500000	92.912	17.4519
12.650000	93.141	17.1153
12.800000	93.365	16.7975
13.150000	93.859	16.1180
13.200000	93.896	16.0233
13.400000	93.979	15.6530
13.600000	94.015	15.3164
13.800000	94.021	14.9912
14.000000	94.040	14.6422
14.300000	94.077	14.0281
14.500000	94.100	13.5693
14.750000	94.114	12.9822
15.000000	94.117	12.3609
15.250000	94.112	11.7225
15.500000	94.099	11.1020
15.750000	94.068	10.5773
16.000000	94.037	10.1181
16.250000	94.015	9.7048
16.500000	94.003	9.3244
16.750000	93.990	8.9870
17.000000	93.985	8.6282
17.250000	93.986	8.2296
17.500000	93.990	7.7880
17.750000	93.983	7.3426
18.000000	93.971	6.8908
18.250000	93.957	6.4479
18.500000	93.942	6.0330
18.750000	93.922	5.6802
19.000000	93.906	5.3568
19.250000	93.898	5.0452
19.500000	93.897	4.7312
19.750000	93.894	4.4147
20.000000	93.892	4.0713
20.299999	93.892	3.6272
20.600000	93.886	3.1813
20.900000	93.872	2.7733
21.200001	93.859	2.3946
21.400000	93.852	2.1630
21.799999	93.839	1.7510
22.000000	93.835	1.5419
22.400000	93.832	1.0882
22.700001	93.825	0.7377
23.000000	93.813	0.3864
23.299999	93.797	0.0380
23.600000	93.779	-0.2713
24.000000	93.752	-0.6049
24.299999	93.741	-0.8466
24.700001	93.732	-1.1823
25.000000	93.726	-1.4762
25.400000	93.719	-1.9612
25.799999	93.695	-2.4724
26.200001	93.661	-2.9691
26.500000	93.632	-3.2999
26.900000	93.592	-3.6618
27.200001	93.570	-3.9173
27.600000	93.550	-4.2591
28.000000	93.533	-4.6284
28.500000	93.518	-5.1749
29.000000	93.490	-5.7119
29.500000	93.463	-6.1876
30.000000	93.442	-6.5565
30.400000	93.441	-6.8628
30.700001	93.444	-7.1216
31.100000	93.446	-7.5382
31.500000	93.438	-8.0242
32.000000	93.398	-8.5705
32.500000	93.343	-8.9479
33.000000	93.296	-9.1082
33.500000	93.278	-9.2478
34.000000	93.272	-9.4967
34.500000	93.260	-9.9063
35.000000	93.223	-10.3183
35.500000	93.180	-10.6520
36.000000	93.145	-10.8914
36.500000	93.131	-11.2063
37.000000	93.116	-11.6416
37.500000	93.087	-12.1601
38.200001	93.018	-12.7211
38.700001	92.977	-12.9551
39.500000	92.947	-13.3283
40.000000	92.925	-13.6368
40.599998	92.886	-13.9551
41.200001	92.852	-14.1477
41.799999	92.835	-14.3986
42.500000	92.802	-14.9043
43.099998	92.741	-15.3359
43.700001	92.674	-15.6258
44.400002	92.626	-15.9149
45.000000	92.599	-16.3243
45.500000	92.567	-16.7629
46.200001	92.504	-17.2641
46.799999	92.465	-17.5329
47.500000	92.440	-17.8516
48.200001	92.405	-18.1063
48.700001	92.391	-18.1279
49.400002	92.410	-18.2869
50.000000	92.389	-18.7992
50.799999	92.237	-19.0907
51.500000	92.159	-18.6772
52.200001	92.144	-18.9464
53.000000	91.981	-19.5150
53.799999	91.919	-19.3025
54.500000	91.956	-20.4712
55.200001	91.762	-21.7081
56.000000	91.777	-20.7425
57.000000	92.285	-24.9806
58.000000	91.312	-29.7804
59.000000	91.006	-22.0049
60.000000	91.868	-22.7851
60.799999	91.664	-24.4820
61.500000	91.580	-23.0492
62.200001	91.707	-22.8296
63.000000	91.600	-23.3993
64.000000	91.482	-22.5901
65.000000	91.446	-23.0570
66.000000	91.311	-23.3413
67.000000	91.243	-23.7620
68.000000	91.170	-24.1039
69.000000	91.156	-24.5601
70.000000	91.082	-25.0940
71.000000	90.998	-25.1764
72.000000	90.949	-25.1009
73.000000	90.916	-25.2065
74.000000	90.874	-25.5355
75.000000	90.783	-25.9444
76.199997	90.701	-25.8997
77.500000	90.653	-26.3778
78.800003	90.559	-26.3592
80.000000	90.530	-26.5925
81.199997	90.438	-26.8074
82.500000	90.379	-26.8770
83.800003	90.292	-27.3297
85.000000	90.195	-27.3221
86.199997	90.142	-27.2812
87.500000	90.133	-27.4138
88.500000	90.062	-27.8239
90.000000	89.963	-27.6321
91.199997	89.929	-27.7591
92.500000	89.835	-28.1357
93.800003	89.808	-27.8572
95.000000	89.741	-29.0470
96.199997	89.543	-28.0822
97.500000	89.724	-28.2812
98.800003	89.548	-29.0171
100.000000	89.522	-28.1880
101.500000	89.517	-29.0602
103.000000	89.323	-28.6233
104.400002	89.298	-28.9138
106.000000	89.182	-29.3341
107.500000	89.127	-29.1953
109.000000	88.998	-29.7890
110.599998	89.012	-29.3301
112.000000	88.705	-29.4013
113.800003	88.717	-29.4270
115.000000	88.700	-29.7570
117.199997	88.704	-30.5117
118.000000	88.662	-30.2280
120.599998	89.225	-34.8931
122.000000	88.399	-30.2895
124.099998	88.450	-30.4890
125.000000	88.246	-29.8895
126.500000	88.201	-30.1293
128.000000	87.970	-29.5783
131.500000	88.206	-30.0090
132.000000	88.103	-30.2870
134.000000	88.096	-28.9641
136.000000	87.967	-28.4525
138.000000	87.874	-28.5572
140.000000	87.863	-28.9226
143.000000	87.673	-28.6390
145.000000	87.582	-28.1728
147.500000	87.529	-28.2957
150.000000	87.464	-28.6785
152.500000	87.341	-30.0014
155.000000	87.398	-27.6362
157.500000	87.257	-27.3095
160.000000	87.171	-27.3785
162.500000	87.096	-26.8381
165.000000	87.048	-26.8569
167.500000	87.026	-26.5278
170.000000	86.942	-26.2532
172.500000	86.846	-26.5269
175.000000	86.862	-26.2295
177.500000	86.817	-25.8165
180.000000	86.608	-26.2913
182.500000	86.617	-25.8961
185.000000	86.537	-25.6304
187.500000	86.467	-25.4320
190.000000	86.402	-25.3138
192.500000	86.284	-25.0274
195.000000	86.250	-24.8399
197.500000	86.212	-24.5931
200.000000	86.143	-24.4778
203.000000	86.043	-24.2349
206.000000	85.971	-24.3586
209.000000	86.016	-23.9160
212.000000	85.955	-23.6218
214.000000	85.943	-23.5424
218.000000	85.856	-23.3396
220.000000	85.827	-23.1825
224.000000	85.775	-23.0093
227.000000	85.705	-22.7106
230.000000	85.645	-22.5623
233.000000	85.579	-22.3148
236.000000	85.584	-22.0426
240.000000	85.417	-23.0209
243.000000	85.428	-21.7609
247.000000	85.411	-21.1214
250.000000	85.326	-20.9359
254.000000	85.310	-20.5107
258.000000	85.234	-20.0557
262.000000	85.191	-19.8320
265.000000	85.143	-19.5432
269.000000	85.101	-19.1814
272.000000	85.059	-19.0981
276.000000	85.007	-18.7615
280.000000	84.949	-18.3928
285.000000	84.889	-18.0268
290.000000	84.821	-17.4109
295.000000	84.770	-17.1049
300.000000	84.711	-16.7595
304.000000	84.672	-16.3461
307.000000	84.640	-16.1523
311.000000	84.596	-15.8489
315.000000	84.567	-15.4239
320.000000	84.503	-15.0226
325.000000	84.461	-14.5405
330.000000	84.434	-14.2528
335.000000	84.402	-13.8528
340.000000	84.327	-13.3336
345.000000	84.306	-12.7534
350.000000	84.214	-12.5207
355.000000	84.230	-12.1799
360.000000	84.006	-10.6826
365.000000	84.141	-11.4160
370.000000	84.121	-10.8053
375.000000	84.086	-10.2899
382.000000	84.040	-9.8364
387.000000	84.011	-9.4828
395.000000	83.970	-8.7560
400.000000	83.934	-8.3947
406.000000	83.913	-7.8353
412.000000	83.893	-7.3642
418.000000	83.865	-6.8786
425.000000	83.831	-6.3505
431.000000	83.818	-5.8159
437.000000	83.782	-5.3776
444.000000	83.768	-4.7427
450.000000	83.748	-4.2907
455.000000	83.721	-3.9594
462.000000	83.704	-3.4616
468.000000	83.688	-2.8781
475.000000	83.654	-2.2822
482.000000	83.616	-2.2984
487.000000	83.642	-1.3505
494.000000	83.630	-0.9338
500.000000	83.613	-0.5358
508.000000	83.598	0.1421
515.000000	83.595	0.6855
522.000000	83.592	1.0090
530.000000	83.582	1.7957
538.000000	83.581	2.4166
545.000000	83.547	2.8563
552.000000	83.543	3.2559
560.000000	83.564	3.8695
570.000000	83.551	4.6447
580.000000	83.547	5.3803
590.000000	83.544	6.0982
600.000000	83.549	6.8687
608.000000	83.554	7.3697
615.000000	83.554	7.9122
622.000000	83.562	8.2850
630.000000	83.566	8.9468
640.000000	83.567	9.6641
650.000000	83.591	10.3904
660.000000	83.617	11.0611
670.000000	83.627	11.5958
680.000000	83.641	12.4829
690.000000	83.667	13.2100
700.000000	83.664	13.8534
710.000000	83.705	14.4869
720.000000	83.742	15.1666
730.000000	83.763	15.8977
740.000000	83.785	16.5895
750.000000	83.831	17.3257
762.000000	83.878	18.0566
775.000000	83.943	18.9214
788.000000	84.001	19.7470
800.000000	84.056	20.4867
812.000000	84.097	21.2312
825.000000	84.186	22.0442
838.000000	84.263	22.7239
850.000000	84.350	23.2565
862.000000	84.433	23.4928
875.000000	84.429	23.1050
885.000000	84.215	23.5811
900.000000	84.234	26.5372
912.000000	84.380	27.8633
925.000000	84.527	28.9352
938.000000	84.684	29.7891
950.000000	84.831	30.3807
962.000000	84.963	30.8328
975.000000	85.066	31.5474
988.000000	85.183	32.0415
1000.000000	85.300	32.5696
1015.000000	85.437	33.1867
1030.000000	85.572	33.7347
1044.000000	85.706	34.2717
1060.000000	85.861	34.7839
1075.000000	85.999	35.2115
1090.000000	86.147	35.6719
1106.000000	86.291	36.0618
1120.000000	86.425	36.3978
1138.000000	86.585	36.7470
1150.000000	86.694	36.9814
1172.000000	86.895	37.3229
1180.000000	86.966	37.4664
1206.000000	87.192	37.7850
1220.000000	87.313	37.9381
1241.000000	87.490	38.1614
1250.000000	87.567	38.2511
1265.000000	87.700	38.3220
1280.000000	87.830	38.4416
1315.000000	88.120	38.6619
1320.000000	88.165	38.6888
1340.000000	88.325	38.7727
1360.000000	88.489	38.8870
1380.000000	88.655	38.8847
1400.000000	88.815	38.9678
1430.000000	89.052	38.9484
1450.000000	89.215	38.9342
1475.000000	89.425	38.9326
1500.000000	89.632	38.9027
1525.000000	89.837	38.8043
1550.000000	90.043	38.6285
1575.000000	90.247	38.3878
1600.000000	90.455	38.1363
1625.000000	90.660	37.8644
1650.000000	90.868	37.4812
1675.000000	91.077	37.0540
1700.000000	91.278	36.6054
1725.000000	91.480	36.0852
1750.000000	91.680	35.5066
1775.000000	91.879	34.8344
1800.000000	92.080	34.1127
1825.000000	92.272	33.3022
1850.000000	92.460	32.4443
1875.000000	92.644	31.5073
1900.000000	92.817	30.4652
1925.000000	92.979	29.4103
1950.000000	93.129	28.2439
1975.000000	93.272	27.0023
2000.000000	93.409	25.7584
2030.000000	93.555	24.1111
2060.000000	93.684	22.4308
2090.000000	93.794	20.7189
2120.000000	93.876	18.9740
2140.000000	93.926	17.8385
2180.000000	93.978	15.4616
2200.000000	93.991	14.3003
2240.000000	93.989	11.9974
2270.000000	93.959	10.3632
2300.000000	93.917	8.7927
2330.000000	93.851	7.2334
2360.000000	93.771	5.8150
2400.000000	93.632	4.0472
2430.000000	93.522	2.8621
2470.000000	93.352	1.3869
2500.000000	93.208	0.4968
2540.000000	93.027	-0.5465
2580.000000	92.830	-1.3476
2620.000000	92.640	-1.8332
2650.000000	92.510	-1.9336
2690.000000	92.375	-2.0023
2720.000000	92.323	-2.2449
2760.000000	92.247	-2.3620
2800.000000	92.158	-2.8571
2850.000000	92.018	-3.1453
2900.000000	91.872	-3.7578
2950.000000	91.753	-3.7508
3000.000000	91.570	-4.0125
3040.000000	91.439	-3.7360
3070.000000	91.396	-3.8220
3110.000000	91.269	-3.4790
3150.000000	91.159	-3.6467
3200.000000	90.945	-3.0942
3250.000000	90.843	-2.6470
3300.000000	90.769	-1.3295
3350.000000	90.635	-0.6488
3400.000000	90.611	-0.3679
3450.000000	90.601	0.0935
3500.000000	90.635	1.4059
3550.000000	90.668	1.2595
3600.000000	90.649	2.6202
3650.000000	90.617	2.2992
3700.000000	90.700	2.2739
3750.000000	90.651	3.5667
3820.000000	90.756	3.4246
3870.000000	90.820	4.2668
3950.000000	90.958	4.3734
4000.000000	90.836	4.0694
4060.000000	90.844	4.4246
4120.000000	91.112	3.6588
4180.000000	91.184	3.9805
4250.000000	91.273	3.6578
4310.000000	91.373	3.7452
4370.000000	91.356	1.6881
4440.000000	91.391	1.0886
4500.000000	91.395	0.2422
4550.000000	91.420	-0.7855
4620.000000	91.499	-1.3418
4680.000000	91.359	-2.7864
4750.000000	91.340	-3.3053
4820.000000	91.158	-5.5597
4870.000000	91.127	-6.1865
4940.000000	91.000	-6.8547
5000.000000	90.916	-8.0595
5080.000000	90.538	-8.5284
5150.000000	90.254	-8.9185
5220.000000	89.975	-9.6256
5300.000000	89.557	-9.1443
5380.000000	89.249	-8.7982
5450.000000	89.141	-8.5750
5520.000000	88.704	-6.8293
5600.000000	88.771	-5.4699
5700.000000	88.468	-5.2805
5800.000000	88.225	-3.6810
5900.000000	88.132	-2.2192
6000.000000	88.063	-1.3838
6080.000000	87.868	-0.4043
6150.000000	87.696	1.1195
6220.000000	87.658	1.6828
6300.000000	87.732	3.3587
6400.000000	87.872	4.3040
6500.000000	87.786	4.9170
6600.000000	87.928	7.7398
6700.000000	88.132	8.3033
6800.000000	88.369	9.7765
6900.000000	88.508	11.9556
7000.000000	88.654	12.6521
7100.000000	89.102	13.5091
7200.000000	89.612	14.7093
7300.000000	90.151	14.5794
7400.000000	90.614	15.9184
7500.000000	91.361	14.1939
7620.000000	92.337	14.2797
7750.000000	93.404	10.4726
7880.000000	94.814	3.1736
8000.000000	96.234	-6.3155
8120.000000	96.541	-21.4599
8250.000000	95.833	-39.2448
8380.000000	94.075	-53.2002
8500.000000	92.290	-61.3568
8620.000000	90.226	-64.7191
8750.000000	88.557	-65.6733
8850.000000	87.205	-65.2426
9000.000000	85.517	-63.6685
9120.000000	84.407	-59.9097
9250.000000	83.252	-56.8284
9380.000000	82.213	-52.7059
9500.000000	81.463	-49.5450
9620.000000	80.581	-45.0233
9750.000000	79.904	-41.0226
9880.000000	79.297	-36.8571
10000.000000	78.890	-31.8637
10150.000000	78.332	-25.9958
10300.000000	77.777	-21.2913
10440.000000	77.584	-15.2224
10600.000000	77.197	-9.0762
10750.000000	76.991	-4.7417
10900.000000	76.963	1.5597
11060.000000	76.777	6.6271
11200.000000	77.034	11.6251
11380.000000	77.109	17.9569
11500.000000	77.247	20.2638
11720.000000	77.871	26.4275
11800.000000	78.079	28.1015
12060.000000	78.905	32.1447
12200.000000	79.398	34.1483
12410.000000	80.662	34.3332
12500.000000	81.280	32.9870
12650.000000	82.194	26.9447
12800.000000	82.706	17.0171
13150.000000	81.403	-5.3937
13200.000000	81.095	-7.1345
13400.000000	79.278	-14.6671
13600.000000	77.448	-16.5859
13800.000000	75.992	-15.3307
14000.000000	74.544	-12.0386
14300.000000	73.332	-6.0811
14500.000000	72.636	-0.1785
14750.000000	72.568	6.8049
15000.000000	72.942	13.2140
15250.000000	73.707	17.8807
15500.000000	75.097	16.6725
15750.000000	76.116	4.6586
16000.000000	74.664	-14.7533
16250.000000	71.626	-19.2404
16500.000000	68.661	-10.6633
16750.000000	66.990	6.6447
17000.000000	66.175	24.1638
17250.000000	66.390	42.8979
17500.000000	67.120	58.2230
17750.000000	68.464	67.9688
18000.000000	69.559	76.8121
18250.000000	70.718	83.1486
18500.000000	72.025	87.4189
18750.000000	73.545	85.5330
19000.000000	73.864	75.2065
19250.000000	72.541	68.1323
19500.000000	70.884	67.5374
19750.000000	68.972	71.7686
