* Measurement data measured by REW V5.30.9
* Source: Microphone (Realtek USB2.0 Audio), MICROPHONE (Master Volume), L, volume: 0.250
* Format: 512k Log Swept Sine, 1 sweep at -12.0 dBFS with no timing reference
* Dated: 06 22, 24 11:33:46 PM
* REW Settings:
*  C-weighting compensation: Off
*  Target level: 75.0 dB
* Note: ; 
* Measurement: db2 R
* Smoothing: None
* Frequency Step: 1/48 octave
* Start Frequency: 1.000 Hz
*
* Freq(Hz)	SPL(dB)	Phase(degrees)
1.000000	49.088	-42.9198
1.015000	48.836	-42.5197
1.030000	48.560	-42.0499
1.044000	48.280	-41.5556
1.060000	47.936	-40.9240
1.075000	47.595	-40.2668
1.090000	47.238	-39.5458
1.106000	46.844	-38.7060
1.120000	46.491	-37.9106
1.138000	46.030	-36.8042
1.150000	45.721	-36.0138
1.172000	45.156	-34.4539
1.180000	44.953	-33.8508
1.206000	44.309	-31.7573
1.220000	43.976	-30.5446
1.241000	43.504	-28.6125
1.250000	43.313	-27.7424
1.265000	43.013	-26.2360
1.280000	42.737	-24.6586
1.315000	42.210	-20.6987
1.320000	42.149	-20.1007
1.340000	41.949	-17.6275
1.360000	41.817	-14.9486
1.380000	41.740	-11.8815
1.400000	41.713	-8.4694
1.430000	41.756	-2.8285
1.450000	41.834	1.1980
1.475000	41.979	6.4308
1.500000	42.170	11.7820
1.525000	42.397	17.1411
1.550000	42.652	22.3974
1.575000	42.927	27.4403
1.600000	43.212	32.1591
1.625000	43.500	36.4431
1.650000	43.781	40.1818
1.675000	44.047	43.2645
1.700000	44.306	45.6595
1.725000	44.596	47.5563
1.750000	44.913	49.0147
1.775000	45.253	50.0837
1.800000	45.610	50.8121
1.825000	45.978	51.2489
1.850000	46.352	51.4430
1.875000	46.725	51.4432
1.900000	47.094	51.2985
1.925000	47.451	51.0577
1.950000	47.793	50.7698
1.975000	48.112	50.4837
2.000000	48.403	50.2482
2.030000	48.710	50.0724
2.060000	48.985	49.7748
2.090000	49.234	49.3027
2.120000	49.460	48.6791
2.140000	49.601	48.1908
2.180000	49.860	47.0707
2.200000	49.981	46.4527
2.240000	50.209	45.1353
2.270000	50.373	44.1030
2.300000	50.535	43.0586
2.330000	50.696	42.0252
2.360000	50.862	41.0247
2.400000	51.070	39.6455
2.430000	51.214	38.5479
2.470000	51.392	37.0174
2.500000	51.519	35.8307
2.540000	51.684	34.2141
2.580000	51.848	32.5775
2.620000	52.019	30.9423
2.650000	52.153	29.7296
2.690000	52.346	28.1482
2.720000	52.498	26.9655
2.760000	52.703	25.3389
2.800000	52.910	23.6819
2.850000	53.177	21.6117
2.900000	53.456	19.5954
2.950000	53.751	17.6893
3.000000	54.066	15.9499
3.040000	54.335	14.7096
3.070000	54.547	13.8191
3.110000	54.842	12.6677
3.150000	55.149	11.5799
3.200000	55.548	10.3468
3.250000	55.961	9.2991
3.300000	56.384	8.4846
3.350000	56.814	7.9513
3.400000	57.253	7.7193
3.450000	57.707	7.7336
3.500000	58.175	7.9859
3.550000	58.650	8.4716
3.600000	59.129	9.1864
3.650000	59.607	10.1258
3.700000	60.080	11.2854
3.750000	60.550	12.7442
3.820000	61.214	15.3265
3.870000	61.688	17.4413
3.950000	62.440	21.0585
4.000000	62.902	23.3329
4.060000	63.445	25.9692
4.120000	63.981	28.7378
4.180000	64.509	31.6157
4.250000	65.115	34.9535
4.310000	65.625	37.6623
4.370000	66.124	40.1056
4.440000	66.693	42.6233
4.500000	67.170	44.5966
4.550000	67.560	46.1108
4.620000	68.097	48.0318
4.680000	68.548	49.4934
4.750000	69.065	50.9689
4.820000	69.570	52.1593
4.870000	69.923	52.8625
4.940000	70.409	53.6880
5.000000	70.820	54.2893
5.080000	71.360	54.9902
5.150000	71.823	55.4456
5.220000	72.277	55.7615
5.300000	72.788	55.9934
5.380000	73.292	56.1344
5.450000	73.727	56.1799
5.520000	74.156	56.1281
5.600000	74.639	55.9779
5.700000	75.231	55.7019
5.800000	75.811	55.3502
5.900000	76.379	54.8927
6.000000	76.933	54.3603
6.080000	77.364	53.9010
6.150000	77.733	53.4683
6.220000	78.095	53.0051
6.300000	78.499	52.4429
6.400000	78.986	51.6991
6.500000	79.454	50.9057
6.600000	79.903	50.0633
6.700000	80.332	49.1838
6.800000	80.740	48.2664
6.900000	81.128	47.3006
7.000000	81.496	46.3223
7.100000	81.847	45.3653
7.200000	82.178	44.4079
7.300000	82.492	43.4660
7.400000	82.794	42.5726
7.500000	83.083	41.7263
7.620000	83.413	40.7675
7.750000	83.762	39.8541
7.880000	84.103	39.0954
8.000000	84.413	38.5075
8.120000	84.731	38.0115
8.250000	85.080	37.6022
8.380000	85.437	37.2559
8.500000	85.779	36.9485
8.620000	86.131	36.6744
8.750000	86.518	36.3320
8.850000	86.821	36.0211
9.000000	87.282	35.4890
9.120000	87.646	34.9589
9.250000	88.036	34.2692
9.380000	88.417	33.4890
9.500000	88.754	32.7004
9.620000	89.079	31.8364
9.750000	89.413	30.8689
9.880000	89.725	29.8793
10.000000	89.997	28.9500
10.150000	90.316	27.8466
10.300000	90.609	26.7934
10.440000	90.869	25.9103
10.600000	91.149	25.0500
10.750000	91.404	24.3743
10.900000	91.660	23.8414
11.060000	91.933	23.4031
11.200000	92.183	23.0919
11.380000	92.517	22.7879
11.500000	92.748	22.5834
11.720000	93.192	22.2143
11.800000	93.356	22.0472
12.060000	93.900	21.3820
12.200000	94.188	20.9238
12.410000	94.612	20.1124
12.500000	94.787	19.7404
12.650000	95.068	19.0795
12.800000	95.336	18.4000
13.150000	95.892	16.7942
13.200000	95.934	16.5695
13.400000	96.024	15.6931
13.600000	96.044	14.9114
13.800000	96.049	14.2019
14.000000	96.051	13.5379
14.300000	96.059	12.5493
14.500000	96.063	11.8912
14.750000	96.051	11.0927
15.000000	96.026	10.2963
15.250000	95.990	9.5329
15.500000	95.941	8.8538
15.750000	95.874	8.3608
16.000000	95.813	8.0348
16.250000	95.771	7.8396
16.500000	95.756	7.7356
16.750000	95.760	7.6832
17.000000	95.789	7.5593
17.250000	95.839	7.3140
17.500000	95.898	6.9227
17.750000	95.947	6.4209
18.000000	95.988	5.8237
18.250000	96.021	5.1633
18.500000	96.044	4.4763
18.750000	96.053	3.8140
19.000000	96.057	3.1553
19.250000	96.060	2.4932
19.500000	96.060	1.8243
19.750000	96.047	1.1656
20.000000	96.027	0.5104
20.299999	95.995	-0.2497
20.600000	95.951	-0.9338
20.900000	95.898	-1.5047
21.200001	95.850	-1.9904
21.400000	95.823	-2.2767
21.799999	95.774	-2.7848
22.000000	95.754	-3.0390
22.400000	95.722	-3.5686
22.700001	95.698	-3.9565
23.000000	95.676	-4.3419
23.299999	95.662	-4.7558
23.600000	95.653	-5.2075
24.000000	95.639	-5.9041
24.299999	95.624	-6.5246
24.700001	95.578	-7.3841
25.000000	95.524	-7.9682
25.400000	95.447	-8.5962
25.799999	95.381	-9.0093
26.200001	95.348	-9.3692
26.500000	95.341	-9.7064
26.900000	95.331	-10.2789
27.200001	95.316	-10.7878
27.600000	95.277	-11.4146
28.000000	95.228	-11.8605
28.500000	95.199	-12.2295
29.000000	95.209	-12.6403
29.500000	95.232	-13.3327
30.000000	95.216	-14.1554
30.400000	95.177	-14.7617
30.700001	95.139	-15.1140
31.100000	95.092	-15.4725
31.500000	95.056	-15.7971
32.000000	95.014	-16.2167
32.500000	94.967	-16.6888
33.000000	94.908	-17.1082
33.500000	94.851	-17.4960
34.000000	94.796	-17.8352
34.500000	94.754	-18.1819
35.000000	94.723	-18.5523
35.500000	94.708	-19.0715
36.000000	94.684	-19.7560
36.500000	94.635	-20.5659
37.000000	94.552	-21.2663
37.500000	94.466	-21.7371
38.200001	94.385	-22.1124
38.700001	94.360	-22.4450
39.500000	94.306	-23.2492
40.000000	94.240	-23.6919
40.599998	94.158	-23.9548
41.200001	94.107	-24.0493
41.799999	94.084	-24.2900
42.500000	94.037	-24.8111
43.099998	93.964	-25.2109
43.700001	93.893	-25.5168
44.400002	93.815	-25.9306
45.000000	93.729	-26.3115
45.500000	93.651	-26.5232
46.200001	93.574	-26.6817
46.799999	93.542	-26.9692
47.500000	93.492	-27.5643
48.200001	93.410	-28.1410
48.700001	93.349	-28.4393
49.400002	93.278	-28.7468
50.000000	93.233	-28.9876
50.799999	93.187	-29.4039
51.500000	93.130	-29.8764
52.200001	93.036	-30.2523
53.000000	92.913	-30.2473
53.799999	92.860	-29.8844
54.500000	92.880	-29.8717
55.200001	92.872	-30.3015
56.000000	92.808	-30.6309
57.000000	92.813	-31.0046
58.000000	92.757	-32.3600
59.000000	92.576	-33.0542
60.000000	92.483	-33.3970
60.799999	92.414	-33.7976
61.500000	92.364	-34.1439
62.200001	92.294	-34.5823
63.000000	92.187	-34.7433
64.000000	92.143	-34.7570
65.000000	92.057	-35.2053
66.000000	91.978	-35.1366
67.000000	91.917	-35.6021
68.000000	91.789	-35.6748
69.000000	91.751	-35.9837
70.000000	91.594	-36.4072
71.000000	91.547	-36.1498
72.000000	91.515	-36.9624
73.000000	91.364	-37.1797
74.000000	91.332	-37.2345
75.000000	91.240	-37.6840
76.199997	91.156	-37.6479
77.500000	91.068	-37.9799
78.800003	91.014	-38.4157
80.000000	90.823	-38.9726
81.199997	90.770	-38.6047
82.500000	90.684	-39.4708
83.800003	90.568	-39.4225
85.000000	90.485	-39.7496
86.199997	90.386	-39.5559
87.500000	90.353	-39.5111
88.500000	90.311	-39.7414
90.000000	90.185	-40.1086
91.199997	90.098	-40.1510
92.500000	90.029	-40.6922
93.800003	89.886	-40.9790
95.000000	89.832	-41.1094
96.199997	89.748	-41.3586
97.500000	89.671	-41.4036
98.800003	89.587	-41.2941
100.000000	89.526	-41.2703
101.500000	89.434	-41.1884
103.000000	89.332	-41.5704
104.400002	89.203	-41.5529
106.000000	89.134	-41.7764
107.500000	89.013	-41.8215
109.000000	88.989	-41.9198
110.599998	88.834	-42.0347
112.000000	88.791	-41.7448
113.800003	88.729	-42.2605
115.000000	88.629	-42.3465
117.199997	88.518	-42.4003
118.000000	88.462	-42.4299
120.599998	88.356	-41.9149
122.000000	88.265	-41.9177
124.099998	88.158	-42.2506
125.000000	88.097	-42.3033
126.500000	87.998	-42.4510
128.000000	87.920	-42.4323
131.500000	87.771	-42.5156
132.000000	87.743	-42.5299
134.000000	87.657	-42.4595
136.000000	87.570	-42.4111
138.000000	87.503	-42.3817
140.000000	87.428	-42.3327
143.000000	87.296	-42.1982
145.000000	87.198	-42.0754
147.500000	87.079	-42.0441
150.000000	86.991	-41.9959
152.500000	86.901	-41.9779
155.000000	86.806	-41.8001
157.500000	86.711	-41.6942
160.000000	86.624	-41.5839
162.500000	86.514	-41.4113
165.000000	86.410	-41.2538
167.500000	86.314	-41.2281
170.000000	86.207	-41.1294
172.500000	86.108	-41.0446
175.000000	86.007	-40.9580
177.500000	85.897	-40.8424
180.000000	85.806	-40.7360
182.500000	85.724	-40.6116
185.000000	85.636	-40.4610
187.500000	85.535	-40.2051
190.000000	85.423	-40.0624
192.500000	85.337	-40.0529
195.000000	85.270	-39.8997
197.500000	85.180	-39.6364
200.000000	85.082	-39.5633
203.000000	85.010	-39.3966
206.000000	84.918	-39.0402
209.000000	84.838	-38.9457
212.000000	84.766	-38.5605
214.000000	84.703	-38.4809
218.000000	84.604	-38.0500
220.000000	84.548	-37.9824
224.000000	84.467	-37.7073
227.000000	84.387	-37.5519
230.000000	84.329	-37.3173
233.000000	84.248	-37.1699
236.000000	84.172	-36.9407
240.000000	84.076	-36.5140
243.000000	84.017	-36.1202
247.000000	83.897	-35.8016
250.000000	83.816	-35.4468
254.000000	83.734	-35.1264
258.000000	83.662	-34.7525
262.000000	83.579	-34.4317
265.000000	83.526	-34.1871
269.000000	83.456	-33.8535
272.000000	83.408	-33.5625
276.000000	83.335	-33.2756
280.000000	83.271	-32.9437
285.000000	83.176	-32.5747
290.000000	83.104	-32.1237
295.000000	83.005	-31.6083
300.000000	82.917	-31.1842
304.000000	82.851	-30.7375
307.000000	82.792	-30.4203
311.000000	82.723	-30.1771
315.000000	82.667	-29.7934
320.000000	82.603	-29.3986
325.000000	82.518	-28.9266
330.000000	82.466	-28.4368
335.000000	82.396	-27.9818
340.000000	82.330	-27.6335
345.000000	82.265	-27.1281
350.000000	82.214	-26.7091
355.000000	82.181	-26.2577
360.000000	82.124	-25.8231
365.000000	82.055	-25.5556
370.000000	82.018	-25.1866
375.000000	81.960	-24.6964
382.000000	81.878	-23.9589
387.000000	81.821	-23.3557
395.000000	81.725	-22.6232
400.000000	81.668	-22.2010
406.000000	81.609	-21.6880
412.000000	81.545	-21.0606
418.000000	81.485	-20.4339
425.000000	81.423	-19.9034
431.000000	81.379	-19.3725
437.000000	81.338	-18.8495
444.000000	81.299	-18.1473
450.000000	81.263	-17.5627
455.000000	81.237	-17.1552
462.000000	81.194	-16.5435
468.000000	81.163	-16.0132
475.000000	81.136	-15.4104
482.000000	81.103	-14.8337
487.000000	81.079	-14.3834
494.000000	81.044	-13.7406
500.000000	81.013	-13.2062
508.000000	80.971	-12.5216
515.000000	80.941	-11.9292
522.000000	80.909	-11.2735
530.000000	80.878	-10.5968
538.000000	80.852	-9.9269
545.000000	80.832	-9.3405
552.000000	80.811	-8.7620
560.000000	80.789	-8.0508
570.000000	80.765	-7.1932
580.000000	80.741	-6.3469
590.000000	80.719	-5.5116
600.000000	80.688	-4.6005
608.000000	80.662	-3.9053
615.000000	80.627	-3.1535
622.000000	80.617	-2.1576
630.000000	80.703	-1.0742
640.000000	80.773	-0.6948
650.000000	80.758	-0.1075
660.000000	80.739	0.6306
670.000000	80.725	1.4508
680.000000	80.707	2.4561
690.000000	80.736	3.6895
700.000000	80.815	4.8031
710.000000	80.891	5.5765
720.000000	80.937	6.3263
730.000000	80.955	7.1267
740.000000	80.974	7.7460
750.000000	81.010	8.4327
762.000000	81.068	9.3098
775.000000	81.120	10.2166
788.000000	81.176	11.2398
800.000000	81.229	12.2344
812.000000	81.283	13.1692
825.000000	81.346	14.1739
838.000000	81.414	15.1492
850.000000	81.485	16.0901
862.000000	81.564	16.9564
875.000000	81.657	17.9506
885.000000	81.736	18.6795
900.000000	81.856	19.7854
912.000000	81.955	20.5618
925.000000	82.074	21.5379
938.000000	82.214	22.3111
950.000000	82.338	23.0313
962.000000	82.458	23.7972
975.000000	82.591	24.5464
988.000000	82.724	25.2901
1000.000000	82.860	25.9900
1015.000000	83.016	26.7794
1030.000000	83.211	27.5619
1044.000000	83.405	27.9693
1060.000000	83.610	28.5375
1075.000000	83.785	29.2604
1090.000000	83.942	29.7957
1106.000000	84.141	30.3882
1120.000000	84.306	30.7556
1138.000000	84.538	31.1982
1150.000000	84.685	31.4785
1172.000000	84.958	31.9377
1180.000000	85.053	32.0574
1206.000000	85.394	32.4571
1220.000000	85.556	32.6302
1241.000000	85.788	32.9138
1250.000000	85.898	32.9552
1265.000000	86.096	33.0556
1280.000000	86.275	33.1090
1315.000000	86.808	32.9321
1320.000000	86.867	32.9509
1340.000000	87.121	33.0747
1360.000000	87.337	33.1108
1380.000000	87.596	32.9873
1400.000000	87.880	32.7752
1430.000000	88.279	32.4969
1450.000000	88.521	32.2116
1475.000000	88.868	31.7195
1500.000000	89.209	31.1326
1525.000000	89.518	30.5832
1550.000000	89.866	29.7774
1575.000000	90.228	28.7130
1600.000000	90.526	27.7636
1625.000000	90.812	26.6011
1650.000000	91.128	25.2549
1675.000000	91.480	23.6457
1700.000000	91.805	21.8478
1725.000000	92.082	20.0186
1750.000000	92.315	18.0259
1775.000000	92.546	15.8342
1800.000000	92.772	13.4921
1825.000000	92.972	10.9935
1850.000000	93.157	8.4106
1875.000000	93.277	5.8384
1900.000000	93.354	3.2342
1925.000000	93.375	0.6463
1950.000000	93.353	-1.8924
1975.000000	93.312	-4.3862
2000.000000	93.240	-6.7080
2030.000000	93.125	-9.3506
2060.000000	92.978	-11.7758
2090.000000	92.810	-13.8772
2120.000000	92.619	-15.8463
2140.000000	92.499	-16.9160
2180.000000	92.197	-18.8428
2200.000000	92.017	-19.5148
2240.000000	91.683	-20.6772
2270.000000	91.441	-21.0712
2300.000000	91.221	-21.2243
2330.000000	91.031	-20.9977
2360.000000	90.893	-20.5308
2400.000000	90.812	-19.9173
2430.000000	90.802	-19.6738
2470.000000	90.816	-19.8611
2500.000000	90.810	-20.1754
2540.000000	90.782	-20.6499
2580.000000	90.726	-21.0733
2620.000000	90.678	-21.2498
2650.000000	90.626	-21.3045
2690.000000	90.575	-21.1508
2720.000000	90.570	-21.0905
2760.000000	90.568	-20.6446
2800.000000	90.610	-20.3784
2850.000000	90.698	-19.6935
2900.000000	90.878	-19.4505
2950.000000	91.157	-19.1874
3000.000000	91.401	-19.8441
3040.000000	91.609	-20.2912
3070.000000	91.830	-21.0717
3110.000000	92.056	-21.9207
3150.000000	92.308	-23.6915
3200.000000	92.529	-25.5638
3250.000000	92.852	-28.2619
3300.000000	93.175	-30.9926
3350.000000	93.360	-35.2897
3400.000000	93.524	-40.8423
3450.000000	93.524	-46.6931
3500.000000	93.372	-51.9463
3550.000000	93.027	-58.4897
3600.000000	92.426	-63.1602
3650.000000	91.645	-68.8249
3700.000000	90.870	-73.2123
3750.000000	89.881	-75.3307
3820.000000	88.601	-78.5928
3870.000000	87.602	-78.6839
3950.000000	86.018	-78.4458
4000.000000	84.839	-77.5293
4060.000000	83.634	-74.5318
4120.000000	82.745	-71.3171
4180.000000	81.716	-65.4255
4250.000000	80.745	-57.3478
4310.000000	80.177	-48.4753
4370.000000	79.837	-40.7390
4440.000000	80.064	-29.9855
4500.000000	80.648	-22.3503
4550.000000	81.367	-17.5087
4620.000000	82.602	-12.5696
4680.000000	83.519	-11.7915
4750.000000	84.646	-12.2753
4820.000000	85.387	-16.5802
4870.000000	85.860	-19.5109
4940.000000	86.169	-23.9631
5000.000000	86.240	-28.1516
5080.000000	85.860	-32.1989
5150.000000	85.464	-34.6344
5220.000000	85.058	-36.8101
5300.000000	84.477	-37.9444
5380.000000	83.838	-38.2626
5450.000000	83.613	-37.4255
5520.000000	83.166	-36.4144
5600.000000	82.898	-35.3743
5700.000000	82.370	-33.6994
5800.000000	82.033	-30.5940
5900.000000	81.822	-27.3499
6000.000000	81.686	-24.7206
6080.000000	81.498	-22.2821
6150.000000	81.338	-19.3241
6220.000000	81.319	-17.3058
6300.000000	81.456	-13.9433
6400.000000	81.711	-10.8168
6500.000000	81.801	-7.8617
6600.000000	82.160	-2.6382
6700.000000	82.630	0.1505
6800.000000	83.161	3.9075
6900.000000	83.667	8.1994
7000.000000	84.209	10.8775
7100.000000	85.092	13.6511
7200.000000	86.090	16.5398
7300.000000	87.171	17.8012
7400.000000	88.252	20.0093
7500.000000	89.712	18.4325
7620.000000	91.640	16.8156
7750.000000	93.648	7.5542
7880.000000	95.288	-9.5502
8000.000000	95.676	-26.8193
8120.000000	94.340	-41.0970
8250.000000	92.674	-49.2843
8380.000000	91.250	-53.0073
8500.000000	90.491	-55.0323
8620.000000	89.820	-55.9303
8750.000000	89.836	-58.8934
8850.000000	89.799	-64.3141
9000.000000	89.335	-80.1761
9120.000000	87.593	-94.7161
9250.000000	84.152	-105.8212
9380.000000	80.312	-106.5929
9500.000000	77.109	-101.5361
9620.000000	74.136	-90.2939
9750.000000	71.839	-76.2585
9880.000000	70.184	-61.0311
10000.000000	69.320	-46.0652
10150.000000	68.663	-29.2277
10300.000000	68.295	-15.9976
10440.000000	68.345	-3.9034
10600.000000	68.261	7.2995
10750.000000	68.359	15.6900
10900.000000	68.519	25.1394
11060.000000	68.561	33.3670
11200.000000	68.990	39.9724
11380.000000	69.264	48.4341
11500.000000	69.447	51.9672
11720.000000	70.197	60.3631
11800.000000	70.453	62.5057
12060.000000	71.415	69.2613
12200.000000	71.858	72.6567
12410.000000	72.963	76.9890
12500.000000	73.446	78.7874
12650.000000	74.279	80.1502
12800.000000	75.264	80.7352
13150.000000	77.623	80.0069
13200.000000	78.016	80.1515
13400.000000	79.291	77.2771
13600.000000	80.490	73.5943
13800.000000	81.706	69.2187
14000.000000	82.460	65.1615
14300.000000	84.075	58.2631
14500.000000	85.151	53.3138
14750.000000	86.976	39.1666
15000.000000	87.186	14.1543
15250.000000	84.424	-6.3339
15500.000000	80.846	-13.6119
15750.000000	77.466	-12.1530
16000.000000	74.502	-5.8430
16250.000000	72.577	3.7872
16500.000000	70.660	13.0306
16750.000000	69.181	24.2568
17000.000000	67.562	33.8739
17250.000000	66.202	46.9100
17500.000000	65.161	57.2943
17750.000000	64.517	65.0846
18000.000000	63.929	71.8011
18250.000000	63.852	73.2651
18500.000000	64.189	74.3621
18750.000000	65.627	71.6777
19000.000000	67.954	64.9795
19250.000000	71.002	55.4116
19500.000000	74.106	36.8907
19750.000000	74.793	13.2966
