* Measurement data measured by REW V5.30.9
* Source: Headset (Odo By VECLAN.COM), MICROPHONE (Master Volume), L, volume: 0.250
* Format: 512k Log Swept Sine, 1 sweep at -12.0 dBFS with no timing reference
* Dated: 10 13, 24 8:42:14 PM
* REW Settings:
*  C-weighting compensation: Off
*  Target level: 75.0 dB
* Note: ; 
* Measurement: diva blue L
* Smoothing: None
* Frequency Step: 1/48 octave
* Start Frequency: 1.000 Hz
*
* Freq(Hz)	SPL(dB)	Phase(degrees)
1.000000	96.920	39.5362
1.015000	97.186	39.2090
1.030000	97.446	38.8758
1.044000	97.685	38.5523
1.060000	97.954	38.1592
1.075000	98.201	37.7597
1.090000	98.444	37.3219
1.106000	98.699	36.8131
1.120000	98.919	36.3800
1.138000	99.197	35.8529
1.150000	99.380	35.5191
1.172000	99.708	34.9412
1.180000	99.826	34.7414
1.206000	100.198	34.1264
1.220000	100.394	33.8156
1.241000	100.678	33.3729
1.250000	100.797	33.1912
1.265000	100.991	32.8978
1.280000	101.180	32.6153
1.315000	101.597	31.9908
1.320000	101.653	31.9049
1.340000	101.874	31.5674
1.360000	102.082	31.2376
1.380000	102.278	30.9125
1.400000	102.461	30.5888
1.430000	102.711	30.0996
1.450000	102.859	29.7664
1.475000	103.023	29.3397
1.500000	103.154	28.9250
1.525000	103.254	28.5272
1.550000	103.326	28.1445
1.575000	103.374	27.7756
1.600000	103.402	27.4187
1.625000	103.413	27.0724
1.650000	103.411	26.7351
1.675000	103.400	26.4052
1.700000	103.383	26.0812
1.725000	103.364	25.7615
1.750000	103.347	25.4445
1.775000	103.335	25.1286
1.800000	103.333	24.8124
1.825000	103.343	24.4942
1.850000	103.364	24.1753
1.875000	103.385	23.8614
1.900000	103.406	23.5525
1.925000	103.426	23.2482
1.950000	103.445	22.9480
1.975000	103.464	22.6516
2.000000	103.482	22.3586
2.030000	103.503	22.0109
2.060000	103.523	21.6669
2.090000	103.542	21.3259
2.120000	103.561	20.9872
2.140000	103.573	20.7623
2.180000	103.595	20.3141
2.200000	103.606	20.0902
2.240000	103.627	19.6464
2.270000	103.642	19.3176
2.300000	103.656	18.9920
2.330000	103.669	18.6693
2.360000	103.682	18.3490
2.400000	103.697	17.9255
2.430000	103.707	17.6100
2.470000	103.720	17.1917
2.500000	103.729	16.8792
2.540000	103.740	16.4639
2.580000	103.750	16.0492
2.620000	103.759	15.6352
2.650000	103.764	15.3257
2.690000	103.771	14.9146
2.720000	103.775	14.6079
2.760000	103.779	14.2018
2.800000	103.782	13.7993
2.850000	103.783	13.3026
2.900000	103.782	12.8140
2.950000	103.779	12.3345
3.000000	103.773	11.8612
3.040000	103.767	11.4870
3.070000	103.761	11.2092
3.110000	103.752	10.8430
3.150000	103.742	10.4820
3.200000	103.728	10.0386
3.250000	103.713	9.6048
3.300000	103.697	9.1816
3.350000	103.679	8.7686
3.400000	103.659	8.3651
3.450000	103.638	7.9710
3.500000	103.616	7.5858
3.550000	103.593	7.2093
3.600000	103.569	6.8413
3.650000	103.545	6.4813
3.700000	103.521	6.1300
3.750000	103.495	5.7883
3.820000	103.458	5.3249
3.870000	103.431	5.0035
3.950000	103.387	4.5039
4.000000	103.359	4.1996
4.060000	103.327	3.8420
4.120000	103.294	3.4963
4.180000	103.261	3.1612
4.250000	103.223	2.7807
4.310000	103.190	2.4613
4.370000	103.158	2.1458
4.440000	103.121	1.7822
4.500000	103.090	1.4782
4.550000	103.064	1.2293
4.620000	103.029	0.8856
4.680000	102.999	0.5936
4.750000	102.965	0.2535
4.820000	102.931	-0.0861
4.870000	102.908	-0.3267
4.940000	102.876	-0.6614
5.000000	102.849	-0.9471
5.080000	102.813	-1.3273
5.150000	102.782	-1.6603
5.220000	102.752	-1.9928
5.300000	102.718	-2.3720
5.380000	102.684	-2.7507
5.450000	102.655	-3.0820
5.520000	102.626	-3.4136
5.600000	102.592	-3.7937
5.700000	102.551	-4.2689
5.800000	102.510	-4.7414
5.900000	102.469	-5.2088
6.000000	102.428	-5.6734
6.080000	102.395	-6.0420
6.150000	102.367	-6.3612
6.220000	102.339	-6.6763
6.300000	102.307	-7.0311
6.400000	102.268	-7.4682
6.500000	102.230	-7.8981
6.600000	102.194	-8.3207
6.700000	102.158	-8.7347
6.800000	102.124	-9.1411
6.900000	102.092	-9.5426
7.000000	102.062	-9.9414
7.100000	102.034	-10.3354
7.200000	102.007	-10.7259
7.300000	101.982	-11.1151
7.400000	101.958	-11.5041
7.500000	101.936	-11.8916
7.620000	101.911	-12.3558
7.750000	101.885	-12.8597
7.880000	101.862	-13.3656
8.000000	101.840	-13.8302
8.120000	101.819	-14.2889
8.250000	101.796	-14.7814
8.380000	101.774	-15.2669
8.500000	101.755	-15.7073
8.620000	101.736	-16.1413
8.750000	101.717	-16.6020
8.850000	101.702	-16.9483
9.000000	101.680	-17.4556
9.120000	101.663	-17.8513
9.250000	101.647	-18.2697
9.380000	101.632	-18.6770
9.500000	101.619	-19.0470
9.620000	101.608	-19.4117
9.750000	101.598	-19.8001
9.880000	101.584	-20.1889
10.000000	101.563	-20.5539
10.150000	101.532	-21.0118
10.300000	101.497	-21.4569
10.440000	101.461	-21.8614
10.600000	101.418	-22.3077
10.750000	101.377	-22.6987
10.900000	101.336	-23.0747
11.060000	101.295	-23.5009
11.200000	101.262	-23.8976
11.380000	101.220	-24.3966
11.500000	101.190	-24.7117
11.720000	101.136	-25.2736
11.800000	101.116	-25.4741
12.060000	101.052	-26.1189
12.200000	101.018	-26.4846
12.410000	100.969	-27.0445
12.500000	100.952	-27.2755
12.650000	100.929	-27.6487
12.800000	100.910	-28.0196
13.150000	100.865	-28.9027
13.200000	100.858	-29.0301
13.400000	100.834	-29.5470
13.600000	100.809	-30.0544
13.800000	100.783	-30.5402
14.000000	100.759	-31.0363
14.300000	100.724	-31.8007
14.500000	100.702	-32.3016
14.750000	100.674	-32.9120
15.000000	100.648	-33.5094
15.250000	100.626	-34.1502
15.500000	100.605	-34.7912
15.750000	100.585	-35.4237
16.000000	100.567	-36.0616
16.250000	100.550	-36.7136
16.500000	100.535	-37.3703
16.750000	100.517	-38.0018
17.000000	100.498	-38.6201
17.250000	100.480	-39.2221
17.500000	100.462	-39.8014
17.750000	100.445	-40.3486
18.000000	100.431	-40.8826
18.250000	100.422	-41.4278
18.500000	100.414	-41.9720
18.750000	100.407	-42.5172
19.000000	100.399	-43.0652
19.250000	100.390	-43.6294
19.500000	100.379	-44.1912
19.750000	100.364	-44.7393
20.000000	100.349	-45.2760
20.299999	100.329	-45.9085
20.600000	100.309	-46.5226
20.900000	100.290	-47.1133
21.200001	100.272	-47.7057
21.400000	100.261	-48.1008
21.799999	100.240	-48.8862
22.000000	100.230	-49.2809
22.400000	100.210	-50.0938
22.700001	100.196	-50.7045
23.000000	100.181	-51.3174
23.299999	100.165	-51.9450
23.600000	100.149	-52.5751
24.000000	100.126	-53.4158
24.299999	100.107	-54.0500
24.700001	100.080	-54.8828
25.000000	100.058	-55.4840
25.400000	100.028	-56.2516
25.799999	100.000	-56.9682
26.200001	99.978	-57.6618
26.500000	99.965	-58.1842
26.900000	99.951	-58.8835
27.200001	99.941	-59.4174
27.600000	99.927	-60.1375
28.000000	99.911	-60.8561
28.500000	99.888	-61.7630
29.000000	99.860	-62.6675
29.500000	99.822	-63.5549
30.000000	99.780	-64.3759
30.400000	99.750	-64.9949
30.700001	99.730	-65.4472
31.100000	99.707	-66.0632
31.500000	99.686	-66.7074
32.000000	99.657	-67.5251
32.500000	99.628	-68.3527
33.000000	99.599	-69.2030
33.500000	99.562	-70.0870
34.000000	99.512	-70.9332
34.500000	99.459	-71.6779
35.000000	99.417	-72.3313
35.500000	99.387	-73.0002
36.000000	99.358	-73.7236
36.500000	99.320	-74.4441
37.000000	99.283	-75.1025
37.500000	99.254	-75.7584
38.200001	99.212	-76.7930
38.700001	99.167	-77.5612
39.500000	99.082	-78.7027
40.000000	99.023	-79.4365
40.599998	98.931	-80.2770
41.200001	98.838	-80.8737
41.799999	98.790	-81.4771
42.500000	98.721	-82.7190
43.099998	98.559	-83.7005
43.700001	98.405	-83.8835
44.400002	98.395	-84.2148
45.000000	98.351	-85.6716
45.500000	98.147	-86.7091
46.200001	97.884	-86.1820
46.799999	97.998	-85.8241
47.500000	98.065	-88.4614
48.200001	97.587	-90.5067
48.700001	97.282	-89.2733
49.400002	97.498	-87.8162
50.000000	97.681	-90.3650
50.799999	97.157	-93.4694
51.500000	96.789	-91.6454
52.200001	96.983	-90.9334
53.000000	96.999	-93.0580
53.799999	96.821	-94.2319
54.500000	96.670	-95.5364
55.200001	96.345	-96.0600
56.000000	96.227	-95.0826
57.000000	96.160	-96.5786
58.000000	95.986	-96.0567
59.000000	96.036	-98.7815
60.000000	95.474	-98.0572
60.799999	95.936	-97.7848
61.500000	95.858	-102.8996
62.200001	94.950	-103.5368
63.000000	95.054	-98.4918
64.000000	95.418	-104.6035
65.000000	94.189	-102.3722
66.000000	95.460	-99.4081
67.000000	95.182	-111.1361
68.000000	93.451	-105.4583
69.000000	94.913	-100.7317
70.000000	94.799	-111.8379
71.000000	92.654	-108.6487
72.000000	93.527	-95.5941
73.000000	95.019	-101.0931
74.000000	94.749	-111.6526
75.000000	93.309	-115.4492
76.199997	92.557	-107.6027
77.500000	93.722	-103.6017
78.800003	94.568	-107.5086
80.000000	94.423	-111.8393
81.199997	93.517	-112.5999
82.500000	92.523	-108.9113
83.800003	91.832	-104.8183
85.000000	91.793	-103.6174
86.199997	91.864	-107.9194
87.500000	91.777	-112.6817
88.500000	91.856	-114.5727
90.000000	92.113	-115.4587
91.199997	92.139	-115.3779
92.500000	91.889	-114.8364
93.800003	91.407	-114.8410
95.000000	90.913	-115.8739
96.199997	90.552	-117.7979
97.500000	90.485	-120.2886
98.800003	90.638	-122.1537
100.000000	90.808	-122.6477
101.500000	90.889	-121.7332
103.000000	90.749	-120.4629
104.400002	90.488	-120.1725
106.000000	90.177	-120.7970
107.500000	89.992	-122.7816
109.000000	89.932	-123.7947
110.599998	89.894	-123.9492
112.000000	89.844	-123.7223
113.800003	89.626	-123.7248
115.000000	89.464	-123.7215
117.199997	89.248	-124.9866
118.000000	89.205	-125.3551
120.599998	89.105	-125.7708
122.000000	88.974	-126.1211
124.099998	88.834	-126.8696
125.000000	88.721	-126.9225
126.500000	88.667	-127.3984
128.000000	88.571	-127.7463
131.500000	88.411	-128.4418
132.000000	88.377	-128.5218
134.000000	88.264	-128.8901
136.000000	88.165	-129.4108
138.000000	88.030	-129.7791
140.000000	87.940	-130.1809
143.000000	87.779	-130.8123
145.000000	87.710	-131.1376
147.500000	87.601	-131.6921
150.000000	87.460	-132.1745
152.500000	87.379	-132.6068
155.000000	87.292	-133.0536
157.500000	87.198	-133.4001
160.000000	87.081	-133.7683
162.500000	86.973	-134.3197
165.000000	86.888	-134.6325
167.500000	86.722	-135.0155
170.000000	86.692	-135.6744
172.500000	86.596	-135.7064
175.000000	86.470	-135.8780
177.500000	86.405	-136.5697
180.000000	86.310	-136.9118
182.500000	86.249	-137.4190
185.000000	86.163	-137.7271
187.500000	86.061	-138.0732
190.000000	85.997	-138.3822
192.500000	85.932	-138.5651
195.000000	85.843	-139.0077
197.500000	85.773	-139.4327
200.000000	85.715	-139.8038
203.000000	85.657	-140.0675
206.000000	85.611	-140.3340
209.000000	85.542	-140.8742
212.000000	85.485	-141.2036
214.000000	85.426	-141.4703
218.000000	85.461	-141.5868
220.000000	85.417	-141.7318
224.000000	85.234	-142.7034
227.000000	85.321	-143.0569
230.000000	85.146	-143.5388
233.000000	85.107	-143.2919
236.000000	85.097	-143.8866
240.000000	85.067	-144.0942
243.000000	84.976	-145.0157
247.000000	84.878	-144.8390
250.000000	84.937	-144.9999
254.000000	84.870	-145.6202
258.000000	84.807	-146.0740
262.000000	84.762	-146.3516
265.000000	84.752	-146.6059
269.000000	84.680	-146.8744
272.000000	84.664	-147.2272
276.000000	84.643	-147.6396
280.000000	84.583	-147.8349
285.000000	84.549	-148.2318
290.000000	84.484	-148.7837
295.000000	84.456	-149.0945
300.000000	84.432	-149.4192
304.000000	84.381	-149.5118
307.000000	84.387	-150.0014
311.000000	84.361	-150.0737
315.000000	84.328	-150.5400
320.000000	84.273	-150.9608
325.000000	84.228	-151.0292
330.000000	84.242	-152.1168
335.000000	84.227	-152.0594
340.000000	84.152	-152.1501
345.000000	84.126	-152.1896
350.000000	84.153	-152.6728
355.000000	84.124	-152.9721
360.000000	84.121	-153.1097
365.000000	84.050	-153.2279
370.000000	84.055	-153.6705
375.000000	84.015	-153.9995
382.000000	84.030	-154.4352
387.000000	83.996	-154.4738
395.000000	83.894	-154.7151
400.000000	83.940	-154.6513
406.000000	84.054	-154.9564
412.000000	84.114	-156.0293
418.000000	83.831	-155.5727
425.000000	83.815	-156.4503
431.000000	83.785	-156.6670
437.000000	83.800	-155.5890
444.000000	83.749	-156.4652
450.000000	83.745	-157.4860
455.000000	83.893	-158.2760
462.000000	83.768	-157.2501
468.000000	83.803	-156.3022
475.000000	83.788	-157.4331
482.000000	83.818	-157.4527
487.000000	83.761	-158.0494
494.000000	83.851	-158.1210
500.000000	83.794	-158.0443
508.000000	83.876	-158.1463
515.000000	83.862	-158.4168
522.000000	83.867	-158.5861
530.000000	83.852	-158.6597
538.000000	83.810	-158.8208
545.000000	83.806	-159.1362
552.000000	83.867	-159.0896
560.000000	83.820	-158.8813
570.000000	83.844	-159.2033
580.000000	83.844	-158.8795
590.000000	83.953	-159.9942
600.000000	83.954	-158.5077
608.000000	83.738	-161.1297
615.000000	83.817	-159.9830
622.000000	83.892	-159.4317
630.000000	83.907	-159.7552
640.000000	83.886	-159.5787
650.000000	83.915	-159.9130
660.000000	83.942	-159.5706
670.000000	84.010	-159.0822
680.000000	84.003	-159.4156
690.000000	84.041	-159.3401
700.000000	84.106	-159.6610
710.000000	84.145	-159.0033
720.000000	84.223	-159.5408
730.000000	84.084	-159.0174
740.000000	84.077	-158.6776
750.000000	84.112	-159.0169
762.000000	84.159	-157.9021
775.000000	84.258	-157.6243
788.000000	84.272	-158.4122
800.000000	84.283	-156.8987
812.000000	84.366	-157.8205
825.000000	84.566	-156.8790
838.000000	84.656	-157.2753
850.000000	84.682	-156.5663
862.000000	84.789	-155.6833
875.000000	84.908	-157.2460
885.000000	84.718	-156.4673
900.000000	84.750	-154.1406
912.000000	85.147	-154.7343
925.000000	85.214	-155.7333
938.000000	85.427	-154.3466
950.000000	85.534	-153.9368
962.000000	85.578	-154.1952
975.000000	85.677	-153.8245
988.000000	85.847	-153.7724
1000.000000	85.948	-153.6746
1015.000000	86.104	-153.4861
1030.000000	86.306	-153.5155
1044.000000	86.414	-153.7303
1060.000000	86.607	-153.6835
1075.000000	86.773	-153.7911
1090.000000	86.932	-154.1180
1106.000000	87.063	-154.2103
1120.000000	87.228	-154.4751
1138.000000	87.414	-154.5765
1150.000000	87.541	-155.0261
1172.000000	87.744	-155.5391
1180.000000	87.828	-155.7467
1206.000000	88.062	-156.3895
1220.000000	88.191	-156.7195
1241.000000	88.349	-157.4477
1250.000000	88.403	-157.6916
1265.000000	88.541	-157.9961
1280.000000	88.665	-158.6316
1315.000000	88.944	-159.6333
1320.000000	88.930	-159.4094
1340.000000	89.081	-160.4393
1360.000000	89.186	-160.7621
1380.000000	89.327	-161.5011
1400.000000	89.397	-162.1652
1430.000000	89.693	-163.2531
1450.000000	89.725	-163.1283
1475.000000	89.785	-164.0688
1500.000000	89.908	-164.5164
1525.000000	90.023	-165.0743
1550.000000	90.117	-165.8797
1575.000000	90.245	-166.3042
1600.000000	90.323	-166.8210
1625.000000	90.433	-167.3869
1650.000000	90.532	-167.8325
1675.000000	90.615	-168.3285
1700.000000	90.712	-168.6993
1725.000000	90.808	-169.2011
1750.000000	90.866	-169.4370
1775.000000	90.981	-169.9652
1800.000000	91.062	-170.3051
1825.000000	91.154	-170.6468
1850.000000	91.236	-171.0322
1875.000000	91.312	-171.4797
1900.000000	91.396	-171.8023
1925.000000	91.481	-172.1519
1950.000000	91.554	-172.4994
1975.000000	91.615	-172.7310
2000.000000	91.709	-173.4494
2030.000000	91.802	-173.6048
2060.000000	91.880	-174.1876
2090.000000	91.997	-174.2544
2120.000000	92.097	-174.8709
2140.000000	92.150	-174.9322
2180.000000	92.281	-175.5717
2200.000000	92.358	-175.8670
2240.000000	92.489	-176.3714
2270.000000	92.574	-176.8341
2300.000000	92.673	-177.1615
2330.000000	92.776	-177.7131
2360.000000	92.876	-178.1568
2400.000000	93.013	-178.7889
2430.000000	93.110	-179.2986
2470.000000	93.222	-179.8008
2500.000000	93.317	179.1640
2540.000000	93.511	178.0388
2580.000000	93.636	177.1154
2620.000000	93.794	176.0422
2650.000000	93.880	175.2048
2690.000000	94.039	173.6093
2720.000000	94.037	172.3071
2760.000000	94.068	170.8051
2800.000000	94.087	169.0096
2850.000000	94.062	166.8629
2900.000000	93.961	165.1293
2950.000000	93.834	163.4075
3000.000000	93.660	162.0500
3040.000000	93.537	161.2401
3070.000000	93.439	160.7066
3110.000000	93.333	160.0306
3150.000000	93.208	159.4638
3200.000000	93.037	158.8778
3250.000000	92.909	158.5342
3300.000000	92.747	158.1325
3350.000000	92.627	157.7286
3400.000000	92.507	157.7630
3450.000000	92.423	157.5276
3500.000000	92.348	157.3618
3550.000000	92.289	157.1954
3600.000000	92.258	157.1737
3650.000000	92.232	156.7390
3700.000000	92.250	156.3456
3750.000000	92.243	156.0712
3820.000000	92.263	155.4000
3870.000000	92.297	154.7209
3950.000000	92.385	153.5999
4000.000000	92.446	152.5614
4060.000000	92.527	151.4216
4120.000000	92.600	150.0206
4180.000000	92.702	148.3522
4250.000000	92.801	146.2040
4310.000000	92.857	144.1328
4370.000000	92.905	141.8187
4440.000000	92.935	138.9884
4500.000000	92.915	136.3379
4550.000000	92.863	134.0982
4620.000000	92.732	130.9067
4680.000000	92.581	128.2552
4750.000000	92.337	125.3193
4820.000000	92.027	122.6077
4870.000000	91.784	120.8865
4940.000000	91.413	118.8785
5000.000000	91.062	117.4340
5080.000000	90.561	116.1445
5150.000000	90.091	115.3904
5220.000000	89.651	115.1791
5300.000000	89.153	115.3664
5380.000000	88.684	116.0655
5450.000000	88.295	116.9828
5520.000000	87.950	118.2491
5600.000000	87.578	119.9801
5700.000000	87.183	122.5188
5800.000000	86.841	125.4407
5900.000000	86.561	128.6923
6000.000000	86.358	132.1968
6080.000000	86.228	135.1601
6150.000000	86.166	137.7247
6220.000000	86.112	140.3414
6300.000000	86.086	143.4303
6400.000000	86.157	147.2794
6500.000000	86.287	151.0931
6600.000000	86.454	154.8177
6700.000000	86.673	158.3874
6800.000000	86.939	161.8601
6900.000000	87.238	165.0908
7000.000000	87.583	168.0508
7100.000000	87.965	170.8239
7200.000000	88.396	173.0925
7300.000000	88.848	174.9485
7400.000000	89.332	176.2242
7500.000000	89.844	176.7841
7620.000000	90.433	176.2337
7750.000000	91.010	174.2400
7880.000000	91.434	170.4526
8000.000000	91.574	165.8131
8120.000000	91.344	160.5564
8250.000000	90.767	155.1407
8380.000000	89.882	150.7316
8500.000000	88.919	147.9218
8620.000000	87.891	146.3045
8750.000000	86.758	145.6962
8850.000000	85.910	145.9560
9000.000000	84.694	147.1385
9120.000000	83.792	148.6907
9250.000000	82.900	150.7876
9380.000000	82.047	153.2293
9500.000000	81.317	155.9224
9620.000000	80.717	159.1866
9750.000000	80.217	162.7872
9880.000000	79.833	166.5541
10000.000000	79.626	170.1861
10150.000000	79.596	174.7077
10300.000000	79.754	178.6810
10440.000000	79.913	-178.3394
10600.000000	80.124	-174.6828
10750.000000	80.375	-170.8303
10900.000000	80.674	-166.6819
11060.000000	81.117	-161.8852
11200.000000	81.570	-157.6913
11380.000000	82.262	-152.1214
11500.000000	82.786	-148.5776
11720.000000	83.845	-142.5936
11800.000000	84.268	-140.6699
12060.000000	85.656	-135.7321
12200.000000	86.311	-133.7615
12410.000000	87.375	-131.8737
12500.000000	87.775	-131.6845
12650.000000	88.320	-131.8739
12800.000000	88.718	-132.4075
13150.000000	89.331	-132.8284
13200.000000	89.414	-132.7303
13400.000000	89.829	-133.3212
13600.000000	90.324	-135.9506
13800.000000	90.579	-141.8537
14000.000000	90.291	-148.7556
14300.000000	89.413	-156.7866
14500.000000	88.930	-161.7078
14750.000000	88.398	-169.7153
15000.000000	87.713	179.9594
15250.000000	86.687	169.3514
15500.000000	85.301	160.5102
15750.000000	83.712	156.4214
16000.000000	82.307	158.5577
16250.000000	82.053	163.0905
16500.000000	81.967	178.2109
16750.000000	84.982	-178.3034
17000.000000	86.869	155.9244
17250.000000	82.931	137.1129
17500.000000	78.785	140.7884
17750.000000	75.200	154.3799
18000.000000	72.129	174.9630
18250.000000	69.841	-159.2178
18500.000000	68.421	-131.5908
18750.000000	67.767	-103.6254
19000.000000	67.602	-77.5364
19250.000000	67.744	-54.3133
19500.000000	67.869	-33.0968
19750.000000	67.594	-10.6944
