* Measurement data measured by REW V5.30.9
* Source: Headset (Odo By VECLAN.COM), MICROPHONE (Master Volume), L, volume: 0.250
* Format: 512k Log Swept Sine, 1 sweep at -12.0 dBFS with no timing reference
* Dated: 10 13, 24 8:38:39 PM
* REW Settings:
*  C-weighting compensation: Off
*  Target level: 75.0 dB
* Note: ; 
* Measurement: diva red R
* Smoothing: None
* Frequency Step: 1/48 octave
* Start Frequency: 1.000 Hz
*
* Freq(Hz)	SPL(dB)	Phase(degrees)
1.000000	85.213	47.0163
1.015000	85.465	46.5430
1.030000	85.713	46.0699
1.044000	85.940	45.6228
1.060000	86.195	45.0987
1.075000	86.429	44.5881
1.090000	86.659	44.0525
1.106000	86.899	43.4539
1.120000	87.106	42.9461
1.138000	87.370	42.3253
1.150000	87.544	41.9306
1.172000	87.858	41.2439
1.180000	87.970	41.0054
1.206000	88.328	40.2684
1.220000	88.516	39.8939
1.241000	88.791	39.3584
1.250000	88.906	39.1378
1.265000	89.095	38.7809
1.280000	89.278	38.4363
1.315000	89.684	37.6727
1.320000	89.739	37.5675
1.340000	89.954	37.1544
1.360000	90.158	36.7512
1.380000	90.349	36.3549
1.400000	90.528	35.9622
1.430000	90.770	35.3729
1.450000	90.914	34.9754
1.475000	91.072	34.4708
1.500000	91.197	33.9825
1.525000	91.292	33.5154
1.550000	91.360	33.0677
1.575000	91.405	32.6375
1.600000	91.430	32.2231
1.625000	91.439	31.8227
1.650000	91.435	31.4344
1.675000	91.423	31.0564
1.700000	91.405	30.6870
1.725000	91.385	30.3243
1.750000	91.368	29.9665
1.775000	91.357	29.6118
1.800000	91.354	29.2585
1.825000	91.365	28.9046
1.850000	91.386	28.5518
1.875000	91.408	28.2070
1.900000	91.430	27.8698
1.925000	91.452	27.5399
1.950000	91.473	27.2167
1.975000	91.493	26.8996
2.000000	91.514	26.5881
2.030000	91.538	26.2209
2.060000	91.562	25.8602
2.090000	91.585	25.5050
2.120000	91.608	25.1543
2.140000	91.623	24.9226
2.180000	91.653	24.4631
2.200000	91.667	24.2346
2.240000	91.696	23.7851
2.270000	91.716	23.4553
2.300000	91.737	23.1314
2.330000	91.756	22.8128
2.360000	91.776	22.4991
2.400000	91.801	22.0875
2.430000	91.819	21.7832
2.470000	91.843	21.3823
2.500000	91.861	21.0848
2.540000	91.883	20.6912
2.580000	91.905	20.3004
2.620000	91.927	19.9139
2.650000	91.942	19.6272
2.690000	91.962	19.2495
2.720000	91.977	18.9698
2.760000	91.996	18.6018
2.800000	92.014	18.2397
2.850000	92.035	17.7958
2.900000	92.055	17.3621
2.950000	92.073	16.9391
3.000000	92.089	16.5259
3.040000	92.101	16.2022
3.070000	92.109	15.9636
3.110000	92.119	15.6509
3.150000	92.129	15.3445
3.200000	92.140	14.9705
3.250000	92.150	14.6066
3.300000	92.160	14.2529
3.350000	92.169	13.9104
3.400000	92.178	13.5791
3.450000	92.185	13.2582
3.500000	92.192	12.9467
3.550000	92.198	12.6438
3.600000	92.204	12.3486
3.650000	92.210	12.0603
3.700000	92.216	11.7792
3.750000	92.221	11.5075
3.820000	92.228	11.1414
3.870000	92.233	10.8886
3.950000	92.240	10.4966
4.000000	92.245	10.2578
4.060000	92.251	9.9769
4.120000	92.257	9.7057
4.180000	92.263	9.4432
4.250000	92.270	9.1457
4.310000	92.276	8.8963
4.370000	92.282	8.6502
4.440000	92.289	8.3666
4.500000	92.295	8.1293
4.550000	92.301	7.9352
4.620000	92.308	7.6678
4.680000	92.314	7.4417
4.750000	92.322	7.1801
4.820000	92.329	6.9208
4.870000	92.335	6.7376
4.940000	92.343	6.4842
5.000000	92.349	6.2695
5.080000	92.358	5.9869
5.150000	92.365	5.7429
5.220000	92.372	5.5024
5.300000	92.380	5.2316
5.380000	92.387	4.9644
5.450000	92.394	4.7331
5.520000	92.400	4.5037
5.600000	92.406	4.2442
5.700000	92.414	3.9241
5.800000	92.421	3.6086
5.900000	92.428	3.2976
6.000000	92.434	2.9913
6.080000	92.438	2.7495
6.150000	92.441	2.5402
6.220000	92.445	2.3329
6.300000	92.448	2.0985
6.400000	92.452	1.8093
6.500000	92.454	1.5243
6.600000	92.457	1.2435
6.700000	92.458	0.9663
6.800000	92.459	0.6933
6.900000	92.459	0.4251
7.000000	92.459	0.1624
7.100000	92.457	-0.0965
7.200000	92.455	-0.3496
7.300000	92.453	-0.5942
7.400000	92.449	-0.8292
7.500000	92.445	-1.0562
7.620000	92.439	-1.3159
7.750000	92.433	-1.5791
7.880000	92.426	-1.8241
8.000000	92.420	-2.0342
8.120000	92.415	-2.2275
8.250000	92.411	-2.4159
8.380000	92.408	-2.5924
8.500000	92.409	-2.7510
8.620000	92.413	-2.9006
8.750000	92.420	-3.0637
8.850000	92.426	-3.1957
9.000000	92.437	-3.3979
9.120000	92.448	-3.5702
9.250000	92.461	-3.7732
9.380000	92.475	-3.9902
9.500000	92.488	-4.2035
9.620000	92.500	-4.4303
9.750000	92.513	-4.6908
9.880000	92.519	-4.9629
10.000000	92.515	-5.2282
10.150000	92.500	-5.5731
10.300000	92.479	-5.9031
10.440000	92.452	-6.1986
10.600000	92.417	-6.5155
10.750000	92.382	-6.7751
10.900000	92.346	-7.0127
11.060000	92.310	-7.2865
11.200000	92.281	-7.5448
11.380000	92.244	-7.8662
11.500000	92.218	-8.0649
11.720000	92.170	-8.4165
11.800000	92.151	-8.5427
12.060000	92.090	-8.9494
12.200000	92.054	-9.1839
12.410000	92.001	-9.5397
12.500000	91.982	-9.6754
12.650000	91.954	-9.8813
12.800000	91.928	-10.0707
13.150000	91.868	-10.4628
13.200000	91.860	-10.5141
13.400000	91.830	-10.7090
13.600000	91.803	-10.8829
13.800000	91.779	-11.0282
14.000000	91.759	-11.1923
14.300000	91.736	-11.4822
14.500000	91.722	-11.6907
14.750000	91.704	-11.9584
15.000000	91.685	-12.2361
15.250000	91.668	-12.5703
15.500000	91.649	-12.9121
15.750000	91.628	-13.2493
16.000000	91.606	-13.5934
16.250000	91.585	-13.9517
16.500000	91.563	-14.3128
16.750000	91.537	-14.6434
17.000000	91.510	-14.9519
17.250000	91.483	-15.2360
17.500000	91.460	-15.4910
17.750000	91.440	-15.7176
18.000000	91.426	-15.9419
18.250000	91.418	-16.1959
18.500000	91.411	-16.4696
18.750000	91.403	-16.7571
19.000000	91.393	-17.0529
19.250000	91.379	-17.3537
19.500000	91.363	-17.6356
19.750000	91.345	-17.8846
20.000000	91.329	-18.1115
20.299999	91.313	-18.3784
20.600000	91.300	-18.6508
20.900000	91.287	-18.9323
21.200001	91.270	-19.2370
21.400000	91.256	-19.4355
21.799999	91.223	-19.7907
22.000000	91.205	-19.9454
22.400000	91.176	-20.2386
22.700001	91.157	-20.4551
23.000000	91.141	-20.6959
23.299999	91.122	-20.9724
23.600000	91.099	-21.2553
24.000000	91.066	-21.6117
24.299999	91.043	-21.8678
24.700001	91.019	-22.2215
25.000000	91.002	-22.5215
25.400000	90.975	-22.9737
25.799999	90.936	-23.3957
26.200001	90.896	-23.7095
26.500000	90.878	-23.8844
26.900000	90.877	-24.1237
27.200001	90.888	-24.3985
27.600000	90.894	-24.9213
28.000000	90.870	-25.4766
28.500000	90.812	-25.9026
29.000000	90.786	-25.9988
29.500000	90.812	-26.2454
30.000000	90.807	-26.8897
30.400000	90.731	-27.3324
30.700001	90.644	-27.3128
31.100000	90.566	-26.6963
31.500000	90.607	-25.8249
32.000000	90.811	-25.5443
32.500000	90.990	-26.7807
33.000000	90.958	-28.6375
33.500000	90.744	-29.7399
34.000000	90.549	-29.6183
34.500000	90.507	-29.2844
35.000000	90.527	-29.7052
35.500000	90.459	-30.5957
36.000000	90.310	-30.9916
36.500000	90.217	-30.6685
37.000000	90.259	-30.4372
37.500000	90.348	-30.9927
38.200001	90.345	-32.4852
38.700001	90.263	-33.2103
39.500000	90.184	-33.6905
40.000000	90.169	-34.0579
40.599998	90.135	-34.5900
41.200001	90.086	-34.9583
41.799999	90.051	-35.1985
42.500000	90.030	-35.5144
43.099998	90.021	-35.8709
43.700001	90.009	-36.3826
44.400002	89.958	-37.1039
45.000000	89.883	-37.5084
45.500000	89.841	-37.6196
46.200001	89.847	-37.8169
46.799999	89.870	-38.3485
47.500000	89.848	-39.1334
48.200001	89.797	-39.6693
48.700001	89.774	-39.9352
49.400002	89.751	-40.3417
50.000000	89.722	-40.6819
50.799999	89.687	-41.0051
51.500000	89.671	-41.3314
52.200001	89.643	-41.7615
53.000000	89.596	-42.1775
53.799999	89.565	-42.6080
54.500000	89.529	-43.1178
55.200001	89.478	-43.5273
56.000000	89.453	-43.9350
57.000000	89.405	-44.8310
58.000000	89.308	-45.1430
59.000000	89.353	-45.4425
60.000000	89.330	-46.5993
60.799999	89.251	-47.0521
61.500000	89.231	-47.3070
62.200001	89.218	-47.7947
63.000000	89.175	-48.3315
64.000000	89.136	-48.8724
65.000000	89.102	-49.4721
66.000000	89.070	-50.0238
67.000000	89.041	-50.6115
68.000000	89.003	-51.1689
69.000000	88.969	-51.6842
70.000000	88.935	-52.2283
71.000000	88.900	-52.8134
72.000000	88.857	-53.4225
73.000000	88.814	-53.9731
74.000000	88.782	-54.5404
75.000000	88.743	-55.1347
76.199997	88.703	-55.7251
77.500000	88.661	-56.4407
78.800003	88.608	-56.9975
80.000000	88.572	-57.6749
81.199997	88.503	-58.2369
82.500000	88.465	-59.0674
83.800003	88.353	-59.6045
85.000000	88.381	-60.0824
86.199997	88.336	-61.0642
87.500000	88.310	-61.6387
88.500000	88.284	-62.2913
90.000000	88.221	-62.7936
91.199997	88.228	-63.2797
92.500000	88.186	-64.2296
93.800003	88.099	-64.7515
95.000000	88.092	-65.2579
96.199997	88.045	-66.1337
97.500000	87.987	-66.6284
98.800003	87.962	-67.3290
100.000000	87.909	-67.8605
101.500000	87.881	-68.4264
103.000000	87.861	-69.2378
104.400002	87.805	-70.0532
106.000000	87.750	-70.7499
107.500000	87.707	-71.4061
109.000000	87.645	-72.1476
110.599998	87.600	-72.6365
112.000000	87.546	-73.2984
113.800003	87.512	-74.1549
115.000000	87.459	-74.6780
117.199997	87.390	-75.6389
118.000000	87.374	-75.9336
120.599998	87.301	-76.8727
122.000000	87.265	-77.6917
124.099998	87.212	-78.5794
125.000000	87.180	-78.9543
126.500000	87.152	-79.5129
128.000000	87.117	-80.1495
131.500000	87.034	-81.5186
132.000000	87.025	-81.6949
134.000000	86.984	-82.5050
136.000000	86.948	-83.2771
138.000000	86.904	-83.9502
140.000000	86.849	-84.7743
143.000000	86.786	-85.8353
145.000000	86.747	-86.5965
147.500000	86.696	-87.4189
150.000000	86.639	-88.3651
152.500000	86.615	-89.1181
155.000000	86.535	-89.9906
157.500000	86.498	-90.7635
160.000000	86.470	-91.6027
162.500000	86.402	-92.7319
165.000000	86.357	-93.2828
167.500000	86.291	-93.9481
170.000000	86.167	-94.6335
172.500000	86.108	-95.6565
175.000000	86.052	-96.1842
177.500000	86.082	-97.3800
180.000000	85.907	-98.0369
182.500000	85.944	-98.1447
185.000000	85.915	-98.8775
187.500000	85.892	-99.8555
190.000000	85.848	-100.3595
192.500000	85.793	-101.2911
195.000000	85.737	-101.9273
197.500000	85.613	-102.8871
200.000000	85.635	-103.6706
203.000000	85.585	-104.4991
206.000000	85.581	-104.3962
209.000000	85.418	-106.1571
212.000000	85.411	-106.3741
214.000000	85.370	-107.0359
218.000000	85.368	-107.6107
220.000000	85.356	-108.0940
224.000000	85.278	-109.2179
227.000000	85.280	-109.7214
230.000000	85.184	-110.0191
233.000000	85.052	-111.9928
236.000000	85.096	-113.3347
240.000000	85.207	-113.0480
243.000000	85.109	-113.0714
247.000000	85.000	-113.9268
250.000000	84.971	-114.6396
254.000000	84.943	-116.0823
258.000000	84.952	-115.9716
262.000000	84.878	-116.9869
265.000000	84.931	-117.5985
269.000000	84.951	-118.4744
272.000000	84.879	-119.1591
276.000000	84.747	-119.1748
280.000000	84.718	-119.8334
285.000000	84.653	-121.2421
290.000000	84.640	-121.8938
295.000000	84.573	-122.6142
300.000000	84.611	-123.7435
304.000000	84.480	-124.1345
307.000000	84.569	-124.4066
311.000000	84.477	-125.0919
315.000000	84.442	-125.6206
320.000000	84.465	-126.3666
325.000000	84.413	-127.4073
330.000000	84.388	-127.9040
335.000000	84.382	-129.2148
340.000000	84.391	-128.8616
345.000000	84.277	-128.9133
350.000000	84.255	-130.0014
355.000000	84.229	-130.7473
360.000000	84.223	-131.0332
365.000000	84.163	-131.7150
370.000000	84.132	-132.2896
375.000000	84.168	-133.2994
382.000000	84.115	-133.1402
387.000000	84.135	-134.2969
395.000000	84.043	-135.1609
400.000000	84.083	-135.2307
406.000000	84.054	-135.3775
412.000000	84.041	-136.0677
418.000000	84.007	-136.4344
425.000000	83.987	-137.1820
431.000000	84.001	-137.5254
437.000000	83.991	-138.8080
444.000000	84.016	-138.6171
450.000000	83.732	-139.6540
455.000000	83.777	-139.5268
462.000000	83.848	-140.6853
468.000000	84.156	-141.6085
475.000000	83.935	-140.7830
482.000000	83.888	-141.3768
487.000000	84.020	-142.5797
494.000000	83.813	-140.3730
500.000000	83.831	-144.6694
508.000000	83.876	-142.2499
515.000000	84.026	-142.8677
522.000000	83.811	-143.9100
530.000000	84.249	-141.3806
538.000000	84.414	-145.4449
545.000000	84.222	-143.6754
552.000000	83.576	-142.7577
560.000000	84.177	-144.0935
570.000000	83.996	-144.6371
580.000000	83.942	-143.8245
590.000000	83.714	-144.9178
600.000000	83.928	-145.4596
608.000000	84.001	-146.7486
615.000000	83.902	-146.4813
622.000000	83.719	-145.6678
630.000000	84.046	-147.1689
640.000000	84.063	-147.2131
650.000000	84.183	-146.3245
660.000000	83.779	-145.9827
670.000000	84.129	-147.1993
680.000000	83.945	-147.7168
690.000000	84.207	-148.1670
700.000000	84.138	-146.5570
710.000000	84.146	-146.6636
720.000000	84.357	-148.2560
730.000000	84.113	-148.0820
740.000000	84.395	-148.5395
750.000000	84.294	-147.9113
762.000000	84.224	-148.3540
775.000000	84.351	-148.0044
788.000000	84.507	-147.5554
800.000000	84.503	-147.5334
812.000000	84.529	-147.2469
825.000000	84.605	-147.3355
838.000000	84.702	-147.1595
850.000000	84.809	-147.1654
862.000000	84.895	-147.0762
875.000000	84.919	-147.0049
885.000000	85.035	-146.4408
900.000000	85.150	-146.5313
912.000000	85.240	-146.4619
925.000000	85.426	-146.1916
938.000000	85.478	-145.9248
950.000000	85.603	-145.7972
962.000000	85.735	-145.7518
975.000000	85.860	-145.9088
988.000000	86.016	-146.0260
1000.000000	86.135	-146.1248
1015.000000	86.301	-146.1933
1030.000000	86.465	-146.3605
1044.000000	86.624	-146.5154
1060.000000	86.796	-146.7081
1075.000000	86.971	-146.9594
1090.000000	87.128	-147.2393
1106.000000	87.288	-147.6246
1120.000000	87.441	-148.0865
1138.000000	87.640	-148.6135
1150.000000	87.763	-148.9842
1172.000000	87.968	-149.7230
1180.000000	88.036	-149.9626
1206.000000	88.277	-150.9306
1220.000000	88.405	-151.4986
1241.000000	88.576	-152.2717
1250.000000	88.642	-152.6397
1265.000000	88.753	-153.1729
1280.000000	88.857	-153.7142
1315.000000	89.101	-155.0611
1320.000000	89.138	-155.2270
1340.000000	89.262	-156.0532
1360.000000	89.384	-156.7517
1380.000000	89.483	-157.4553
1400.000000	89.596	-158.1486
1430.000000	89.755	-159.2271
1450.000000	89.865	-159.8149
1475.000000	89.973	-160.6182
1500.000000	90.080	-161.3101
1525.000000	90.171	-162.0033
1550.000000	90.292	-162.8257
1575.000000	90.395	-163.4400
1600.000000	90.460	-163.9220
1625.000000	90.568	-164.5851
1650.000000	90.649	-165.2490
1675.000000	90.738	-165.7935
1700.000000	90.834	-166.3728
1725.000000	90.899	-166.8870
1750.000000	90.974	-167.3749
1775.000000	91.037	-167.8553
1800.000000	91.106	-168.4187
1825.000000	91.187	-168.7786
1850.000000	91.265	-169.2864
1875.000000	91.337	-169.7057
1900.000000	91.402	-170.1289
1925.000000	91.457	-170.5038
1950.000000	91.515	-170.9409
1975.000000	91.581	-171.2733
2000.000000	91.638	-171.6489
2030.000000	91.715	-172.1157
2060.000000	91.785	-172.4826
2090.000000	91.859	-172.8647
2120.000000	91.927	-173.2211
2140.000000	91.977	-173.4777
2180.000000	92.059	-173.9803
2200.000000	92.123	-174.1901
2240.000000	92.195	-174.5838
2270.000000	92.262	-174.8909
2300.000000	92.325	-175.1795
2330.000000	92.395	-175.3924
2360.000000	92.475	-175.7435
2400.000000	92.563	-176.0374
2430.000000	92.640	-176.2976
2470.000000	92.762	-176.5817
2500.000000	92.841	-176.9325
2540.000000	92.974	-177.2932
2580.000000	93.103	-177.7601
2620.000000	93.253	-178.3028
2650.000000	93.360	-178.8369
2690.000000	93.506	-179.5724
2720.000000	93.608	179.7061
2760.000000	93.757	178.8100
2800.000000	93.865	177.6257
2850.000000	93.994	175.9686
2900.000000	94.063	174.2369
2950.000000	94.084	172.5391
3000.000000	94.084	170.9438
3040.000000	94.041	169.6970
3070.000000	94.008	168.9790
3110.000000	93.955	167.9388
3150.000000	93.888	167.0666
3200.000000	93.805	166.1183
3250.000000	93.713	165.2929
3300.000000	93.634	164.4935
3350.000000	93.557	163.7198
3400.000000	93.497	163.0345
3450.000000	93.420	162.2870
3500.000000	93.366	161.6049
3550.000000	93.305	160.9830
3600.000000	93.258	160.3362
3650.000000	93.223	159.6932
3700.000000	93.196	159.1025
3750.000000	93.177	158.4561
3820.000000	93.191	157.5117
3870.000000	93.211	156.6797
3950.000000	93.268	155.2636
4000.000000	93.327	154.1743
4060.000000	93.408	152.6430
4120.000000	93.497	150.9714
4180.000000	93.572	148.9542
4250.000000	93.651	146.3694
4310.000000	93.679	143.9305
4370.000000	93.691	141.2783
4440.000000	93.623	137.9993
4500.000000	93.527	135.1840
4550.000000	93.417	132.7937
4620.000000	93.183	129.6147
4680.000000	92.951	126.9939
4750.000000	92.627	124.3006
4820.000000	92.246	121.9435
4870.000000	91.969	120.4604
4940.000000	91.535	118.8096
5000.000000	91.169	117.7662
5080.000000	90.619	116.9416
5150.000000	90.157	116.6944
5220.000000	89.721	116.8430
5300.000000	89.235	117.4689
5380.000000	88.800	118.6619
5450.000000	88.462	119.9866
5520.000000	88.192	121.5847
5600.000000	87.979	123.2898
5700.000000	87.785	124.9318
5800.000000	87.419	125.6968
5900.000000	86.768	128.2160
6000.000000	86.406	132.7354
6080.000000	86.265	136.2741
6150.000000	86.173	139.2840
6220.000000	86.122	142.1832
6300.000000	86.099	145.5875
6400.000000	86.167	149.6885
6500.000000	86.294	153.6999
6600.000000	86.465	157.7084
6700.000000	86.684	161.5477
6800.000000	86.944	165.2179
6900.000000	87.237	168.7993
7000.000000	87.581	172.0827
7100.000000	87.967	175.0502
7200.000000	88.405	177.7611
7300.000000	88.866	179.8600
7400.000000	89.353	-178.4599
7500.000000	89.873	-177.3958
7620.000000	90.493	-177.2417
7750.000000	91.146	-178.2790
7880.000000	91.678	178.8510
8000.000000	91.991	174.8541
8120.000000	91.989	169.8849
8250.000000	91.652	164.3610
8380.000000	90.984	159.2971
8500.000000	90.126	155.5451
8620.000000	89.194	153.2435
8750.000000	88.103	151.9369
8850.000000	87.282	151.6859
9000.000000	86.085	152.2415
9120.000000	85.217	153.5135
9250.000000	84.312	155.2672
9380.000000	83.513	157.5156
9500.000000	82.830	159.9106
9620.000000	82.230	162.7441
9750.000000	81.723	166.0669
9880.000000	81.344	169.6196
10000.000000	81.083	172.9345
10150.000000	80.990	177.3406
10300.000000	81.107	-178.5641
10440.000000	81.332	-174.8255
10600.000000	81.616	-171.6939
10750.000000	81.886	-168.3701
10900.000000	82.180	-164.7315
11060.000000	82.604	-160.4921
11200.000000	83.016	-156.4860
11380.000000	83.671	-151.7737
11500.000000	84.154	-148.6893
11720.000000	85.147	-143.4479
11800.000000	85.534	-141.8781
12060.000000	86.793	-137.6100
12200.000000	87.486	-136.2972
12410.000000	88.246	-135.4346
12500.000000	88.598	-135.1555
12650.000000	89.065	-135.4374
12800.000000	89.343	-135.4278
13150.000000	90.320	-135.9393
13200.000000	90.478	-136.6108
13400.000000	90.927	-141.1591
13600.000000	90.864	-148.2559
13800.000000	90.289	-154.0359
14000.000000	89.538	-158.2739
14300.000000	88.701	-163.6813
14500.000000	88.314	-169.1329
14750.000000	87.772	-178.5242
15000.000000	86.930	168.5643
15250.000000	85.478	156.9679
15500.000000	83.486	149.1791
15750.000000	81.434	149.8622
16000.000000	80.835	157.1559
16250.000000	78.317	162.9014
16500.000000	80.735	-176.6675
16750.000000	83.937	-177.4659
17000.000000	84.901	157.3228
17250.000000	80.970	145.0734
17500.000000	77.452	152.2863
17750.000000	74.217	165.8133
18000.000000	71.341	-173.2398
18250.000000	69.190	-146.9490
18500.000000	67.885	-116.9664
18750.000000	67.652	-86.8327
19000.000000	68.299	-60.6669
19250.000000	69.033	-40.8640
19500.000000	69.122	-23.7320
19750.000000	68.731	-5.4171
