* Measurement data measured by REW V5.30.9
* Source: Microphone (Realtek USB2.0 Audio), MICROPHONE (Master Volume), L, volume: 0.500
* Format: 1M Log Swept Sine, 1 sweep at -12.0 dBFS with no timing reference
* Dated: 06 29, 24 2:04:18 PM
* REW Settings:
*  C-weighting compensation: Off
*  Target level: 75.0 dB
* Note: ; 
* Measurement: dmaj stock R
* Smoothing: None
* Frequency Step: 1/48 octave
* Start Frequency: 1.000 Hz
*
* Freq(Hz)	SPL(dB)	Phase(degrees)
1.000000	46.723	-31.6184
1.015000	46.531	-31.3586
1.030000	46.326	-31.0800
1.044000	46.124	-30.8075
1.060000	45.881	-30.4769
1.075000	45.643	-30.1438
1.090000	45.396	-29.7838
1.106000	45.126	-29.3655
1.120000	44.884	-28.9662
1.138000	44.569	-28.4013
1.150000	44.356	-27.9891
1.172000	43.966	-27.1511
1.180000	43.825	-26.8179
1.206000	43.369	-25.6190
1.220000	43.129	-24.8943
1.241000	42.779	-23.6937
1.250000	42.634	-23.1350
1.265000	42.398	-22.1413
1.280000	42.173	-21.0658
1.315000	41.696	-18.2137
1.320000	41.634	-17.7648
1.340000	41.404	-15.8588
1.360000	41.199	-13.7275
1.380000	41.001	-11.2699
1.400000	40.810	-8.5200
1.430000	40.542	-3.9388
1.450000	40.377	-0.6411
1.475000	40.188	3.6813
1.500000	40.020	8.1503
1.525000	39.877	12.6842
1.550000	39.760	17.2014
1.575000	39.673	21.6204
1.600000	39.617	25.8595
1.625000	39.595	29.8372
1.650000	39.611	33.4718
1.675000	39.666	36.6818
1.700000	39.769	39.4762
1.725000	39.936	42.0710
1.750000	40.159	44.4859
1.775000	40.430	46.7268
1.800000	40.739	48.7992
1.825000	41.077	50.7090
1.850000	41.436	52.4618
1.875000	41.805	54.0633
1.900000	42.177	55.5193
1.925000	42.543	56.8354
1.950000	42.892	58.0175
1.975000	43.218	59.0711
2.000000	43.509	60.0020
2.030000	43.806	60.9542
2.060000	44.078	61.6307
2.090000	44.336	62.0320
2.120000	44.580	62.1902
2.140000	44.736	62.1766
2.180000	45.030	61.9062
2.200000	45.168	61.6685
2.240000	45.430	61.0360
2.270000	45.613	60.4615
2.300000	45.785	59.8370
2.330000	45.946	59.1946
2.360000	46.098	58.5647
2.400000	46.275	57.6393
2.430000	46.388	56.8413
2.470000	46.517	55.6469
2.500000	46.601	54.6589
2.540000	46.700	53.2268
2.580000	46.788	51.6729
2.620000	46.871	50.0073
2.650000	46.933	48.6911
2.690000	47.020	46.8548
2.720000	47.083	45.3929
2.760000	47.150	43.2871
2.800000	47.204	41.0329
2.850000	47.265	38.0575
2.900000	47.331	34.9679
2.950000	47.415	31.8295
3.000000	47.531	28.7077
3.040000	47.655	26.2532
3.070000	47.761	24.3352
3.110000	47.914	21.6576
3.150000	48.082	18.9081
3.200000	48.312	15.4788
3.250000	48.566	12.1884
3.300000	48.844	9.1764
3.350000	49.147	6.5824
3.400000	49.481	4.4397
3.450000	49.855	2.5394
3.500000	50.259	0.9035
3.550000	50.682	-0.4291
3.600000	51.114	-1.4199
3.650000	51.544	-2.0302
3.700000	51.961	-2.2213
3.750000	52.371	-1.9170
3.820000	52.953	-0.6903
3.870000	53.369	0.6318
3.950000	54.026	3.2632
4.000000	54.424	5.0857
4.060000	54.885	7.3389
4.120000	55.327	9.9365
4.180000	55.756	12.8430
4.250000	56.245	16.4280
4.310000	56.660	19.4990
4.370000	57.075	22.4129
4.440000	57.554	25.6632
4.500000	57.956	28.4515
4.550000	58.289	30.7387
4.620000	58.760	33.8261
4.680000	59.173	36.3111
4.750000	59.674	38.9802
4.820000	60.186	41.4803
4.870000	60.558	43.1571
4.940000	61.088	45.3312
5.000000	61.549	47.0154
5.080000	62.175	48.9774
5.150000	62.740	50.4429
5.220000	63.316	51.6834
5.300000	63.975	52.8302
5.380000	64.623	53.6931
5.450000	65.184	54.1896
5.520000	65.744	54.4375
5.600000	66.375	54.4754
5.700000	67.135	54.2552
5.800000	67.855	53.7652
5.900000	68.544	52.9411
6.000000	69.194	51.9150
6.080000	69.681	51.0340
6.150000	70.084	50.1783
6.220000	70.466	49.2448
6.300000	70.877	48.1247
6.400000	71.351	46.7152
6.500000	71.779	45.2720
6.600000	72.164	43.7906
6.700000	72.509	42.3454
6.800000	72.815	40.9660
6.900000	73.079	39.6071
7.000000	73.310	38.3487
7.100000	73.518	37.2688
7.200000	73.691	36.3253
7.300000	73.840	35.5420
7.400000	73.985	34.9761
7.500000	74.122	34.6513
7.620000	74.275	34.5425
7.750000	74.470	34.7412
7.880000	74.702	35.3481
8.000000	74.950	36.1441
8.120000	75.254	36.9506
8.250000	75.648	37.9417
8.380000	76.090	38.8301
8.500000	76.535	39.3671
8.620000	77.020	39.7129
8.750000	77.553	39.7852
8.850000	77.961	39.5830
9.000000	78.574	38.9242
9.120000	79.036	38.1571
9.250000	79.510	37.0441
9.380000	79.951	35.7475
9.500000	80.320	34.4815
9.620000	80.654	33.1038
9.750000	80.978	31.6156
9.880000	81.261	30.1718
10.000000	81.488	28.8736
10.150000	81.738	27.4401
10.300000	81.945	26.1970
10.440000	82.121	25.2762
10.600000	82.302	24.5588
10.750000	82.470	24.1640
10.900000	82.652	24.0472
11.060000	82.861	24.1677
11.200000	83.075	24.3701
11.380000	83.384	24.7650
11.500000	83.610	24.9736
11.720000	84.066	25.2660
11.800000	84.235	25.2940
12.060000	84.796	25.0867
12.200000	85.082	24.8060
12.410000	85.489	24.1868
12.500000	85.649	23.9059
12.650000	85.896	23.3948
12.800000	86.122	22.9096
13.150000	86.554	21.9994
13.200000	86.578	21.9073
13.400000	86.599	21.6350
13.600000	86.576	21.5477
13.800000	86.528	21.5878
14.000000	86.510	21.6698
14.300000	86.515	21.6900
14.500000	86.528	21.6021
14.750000	86.533	21.3876
15.000000	86.524	21.0820
15.250000	86.504	20.7481
15.500000	86.479	20.4468
15.750000	86.448	20.2585
16.000000	86.438	20.0714
16.250000	86.451	19.7873
16.500000	86.481	19.3364
16.750000	86.497	18.7025
17.000000	86.491	17.9205
17.250000	86.457	17.1022
17.500000	86.393	16.3783
17.750000	86.303	15.9391
18.000000	86.226	15.8049
18.250000	86.185	15.8992
18.500000	86.199	16.1058
18.750000	86.261	16.2179
19.000000	86.351	16.0714
19.250000	86.446	15.6580
19.500000	86.520	15.0367
19.750000	86.548	14.4325
20.000000	86.550	14.0274
20.299999	86.551	13.9361
20.600000	86.601	14.2627
20.900000	86.736	14.7083
21.200001	86.959	14.7792
21.400000	87.129	14.4328
21.799999	87.408	12.8567
22.000000	87.485	11.7651
22.400000	87.480	9.5145
22.700001	87.353	8.3310
23.000000	87.178	7.8633
23.299999	87.026	8.0903
23.600000	86.947	8.7514
24.000000	86.965	9.5683
24.299999	87.026	9.7415
24.700001	87.076	9.4072
25.000000	87.058	9.0049
25.400000	86.979	8.6254
25.799999	86.885	8.6251
26.200001	86.830	8.7948
26.500000	86.816	8.8629
26.900000	86.809	8.7905
27.200001	86.808	8.5983
27.600000	86.803	8.2202
28.000000	86.789	7.7099
28.500000	86.743	6.8896
29.000000	86.632	6.2989
29.500000	86.519	6.4275
30.000000	86.524	7.1591
30.400000	86.647	7.5161
30.700001	86.769	7.3797
31.100000	86.902	6.6593
31.500000	86.954	5.6900
32.000000	86.920	4.8464
32.500000	86.874	4.6091
33.000000	86.863	4.6216
33.500000	86.864	4.5595
34.000000	86.853	4.6274
34.500000	86.883	4.8024
35.000000	86.958	4.6123
35.500000	86.996	3.7181
36.000000	86.904	2.7057
36.500000	86.730	2.4021
37.000000	86.624	2.9327
37.500000	86.666	3.3720
38.200001	86.770	2.7657
38.700001	86.759	2.0558
39.500000	86.715	1.6822
40.000000	86.734	1.5104
40.599998	86.725	1.2284
41.200001	86.704	1.5787
41.799999	86.820	2.2518
42.500000	87.067	1.7035
43.099998	87.117	0.1521
43.700001	86.967	-0.9596
44.400002	86.763	-0.8841
45.000000	86.688	-0.3490
45.500000	86.689	-0.0345
46.200001	86.746	-0.0697
46.799999	86.781	-0.7107
47.500000	86.711	-1.5142
48.200001	86.633	-1.4360
48.700001	86.673	-1.2683
49.400002	86.750	-1.8239
50.000000	86.706	-2.4017
50.799999	86.643	-2.1399
51.500000	86.706	-2.0842
52.200001	86.691	-2.6808
53.000000	86.586	-2.5781
53.799999	86.659	-2.3777
54.500000	86.711	-3.4453
55.200001	86.588	-4.4654
56.000000	86.455	-4.2589
57.000000	86.534	-3.8429
58.000000	86.651	-3.9184
59.000000	86.777	-4.3777
60.000000	86.694	-4.9571
60.799999	86.585	-4.3291
61.500000	86.560	-3.8894
62.200001	86.484	-3.7782
63.000000	86.402	-3.2441
64.000000	86.491	-3.4697
65.000000	86.495	-5.4558
66.000000	86.326	-7.3242
67.000000	86.158	-7.2293
68.000000	86.420	-7.0772
69.000000	86.448	-9.3518
70.000000	86.184	-8.5413
71.000000	86.346	-7.4194
72.000000	86.348	-8.1978
73.000000	86.232	-8.2227
74.000000	86.180	-8.2123
75.000000	86.181	-7.9385
76.199997	86.456	-8.0434
77.500000	86.523	-10.3518
78.800003	86.431	-9.4560
80.000000	86.445	-9.7981
81.199997	86.255	-8.4323
82.500000	86.352	-8.0566
83.800003	86.250	-9.0400
85.000000	86.109	-10.1801
86.199997	85.915	-10.3026
87.500000	86.000	-11.3937
88.500000	85.705	-11.8139
90.000000	85.997	-10.4529
91.199997	85.851	-10.5973
92.500000	86.498	-9.6006
93.800003	86.325	-14.4071
95.000000	85.843	-11.6642
96.199997	86.169	-10.5408
97.500000	85.958	-12.8868
98.800003	85.337	-12.7425
100.000000	85.226	-8.4482
101.500000	85.894	-10.6534
103.000000	85.936	-11.6519
104.400002	85.996	-13.8900
106.000000	85.946	-13.5394
107.500000	85.657	-13.1627
109.000000	85.477	-12.6232
110.599998	85.471	-12.2495
112.000000	85.350	-14.4942
113.800003	85.389	-13.6025
115.000000	85.453	-15.7631
117.199997	85.504	-14.8464
118.000000	85.373	-14.1794
120.599998	85.485	-14.4717
122.000000	85.592	-12.4937
124.099998	85.450	-15.5740
125.000000	85.262	-16.0229
126.500000	85.094	-15.5906
128.000000	85.008	-15.0934
131.500000	85.347	-14.1379
132.000000	85.258	-15.1933
134.000000	85.273	-11.7417
136.000000	85.040	-14.9437
138.000000	84.953	-14.8601
140.000000	84.909	-14.9927
143.000000	84.886	-16.8038
145.000000	84.914	-16.5195
147.500000	85.030	-17.3094
150.000000	84.685	-17.1146
152.500000	84.741	-14.9246
155.000000	84.670	-16.3276
157.500000	84.605	-15.7664
160.000000	84.602	-16.5560
162.500000	84.531	-14.0969
165.000000	84.406	-15.8361
167.500000	84.490	-15.9456
170.000000	84.335	-17.7829
172.500000	84.400	-16.3612
175.000000	84.413	-17.9102
177.500000	84.144	-17.0474
180.000000	83.966	-12.8686
182.500000	84.203	-14.4349
185.000000	83.960	-17.7635
187.500000	83.760	-18.2082
190.000000	83.863	-17.4360
192.500000	83.951	-16.1948
195.000000	83.812	-16.4870
197.500000	84.033	-16.7224
200.000000	83.905	-17.5106
203.000000	83.700	-13.8865
206.000000	83.471	-15.8556
209.000000	83.448	-13.8368
212.000000	83.450	-15.4220
214.000000	83.157	-19.5037
218.000000	83.250	-21.6143
220.000000	83.209	-15.3463
224.000000	83.673	-20.1135
227.000000	83.070	-13.6468
230.000000	83.340	-14.4797
233.000000	83.005	-15.8722
236.000000	83.082	-11.1930
240.000000	82.709	-22.2783
243.000000	82.568	-15.9930
247.000000	82.973	-10.8784
250.000000	82.274	-9.2434
254.000000	83.263	-8.0441
258.000000	82.506	-7.6760
262.000000	81.256	-15.5864
265.000000	83.599	-11.7252
269.000000	81.066	-16.1110
272.000000	82.684	-7.4673
276.000000	83.851	-16.0123
280.000000	83.269	-20.3424
285.000000	83.531	-16.2822
290.000000	82.327	-9.2010
295.000000	82.465	-14.7215
300.000000	82.466	-12.6553
304.000000	82.253	-12.8514
307.000000	82.138	-13.6614
311.000000	82.271	-12.5815
315.000000	82.234	-12.2845
320.000000	82.521	-10.8397
325.000000	81.954	-13.2043
330.000000	82.210	-10.2609
335.000000	81.913	-10.9893
340.000000	81.788	-9.8230
345.000000	81.664	-9.8756
350.000000	81.771	-10.3248
355.000000	81.807	-9.9718
360.000000	81.772	-8.2092
365.000000	81.850	-11.2916
370.000000	81.154	-5.8269
375.000000	81.961	-8.2402
382.000000	81.446	-8.8895
387.000000	81.271	-6.1473
395.000000	81.755	-10.0108
400.000000	81.321	-5.0511
406.000000	81.511	-6.9522
412.000000	81.390	-5.6976
418.000000	81.048	-5.5677
425.000000	81.427	-5.7066
431.000000	81.218	-4.7993
437.000000	81.175	-4.2595
444.000000	81.185	-5.5097
450.000000	81.119	-3.8831
455.000000	81.105	-1.8389
462.000000	81.043	-2.7804
468.000000	81.313	-5.9058
475.000000	81.076	2.3545
482.000000	81.033	-1.1401
487.000000	80.791	-0.2842
494.000000	80.762	-2.0645
500.000000	80.934	-1.7371
508.000000	80.508	-0.3071
515.000000	80.862	2.8476
522.000000	80.526	-0.8699
530.000000	80.483	0.3270
538.000000	80.706	2.6651
545.000000	80.590	2.0322
552.000000	80.504	2.1092
560.000000	80.582	3.8261
570.000000	80.625	3.3215
580.000000	80.526	4.8573
590.000000	80.540	5.7827
600.000000	80.477	7.5903
608.000000	80.444	7.0573
615.000000	80.431	8.3252
622.000000	80.416	8.4419
630.000000	80.408	9.1648
640.000000	80.431	9.7441
650.000000	80.406	10.5086
660.000000	80.480	11.1850
670.000000	80.464	11.3809
680.000000	80.395	12.6606
690.000000	80.338	13.3290
700.000000	80.404	14.1823
710.000000	80.388	14.8828
720.000000	80.346	15.4098
730.000000	80.381	16.4519
740.000000	80.389	17.5591
750.000000	80.330	17.9781
762.000000	80.450	18.7681
775.000000	80.392	19.8522
788.000000	80.455	21.0218
800.000000	80.462	22.1800
812.000000	80.494	22.9023
825.000000	80.519	23.8511
838.000000	80.594	24.6062
850.000000	80.625	25.6622
862.000000	80.635	27.4859
875.000000	80.695	28.0667
885.000000	80.641	28.3971
900.000000	80.786	29.7258
912.000000	80.939	30.7215
925.000000	80.975	31.7965
938.000000	81.052	32.7897
950.000000	81.127	33.5693
962.000000	81.206	34.4252
975.000000	81.279	34.9353
988.000000	81.388	35.8524
1000.000000	81.487	36.6361
1015.000000	81.605	37.4365
1030.000000	81.764	38.3993
1044.000000	81.842	38.9665
1060.000000	81.978	39.7695
1075.000000	82.140	40.4964
1090.000000	82.233	41.6059
1106.000000	82.422	41.9293
1120.000000	82.624	42.2054
1138.000000	82.628	43.2524
1150.000000	82.780	43.5781
1172.000000	82.918	43.9329
1180.000000	83.000	44.3537
1206.000000	83.251	44.5085
1220.000000	83.409	45.2476
1241.000000	83.585	45.6287
1250.000000	83.551	46.0944
1265.000000	83.689	46.6591
1280.000000	83.814	46.4346
1315.000000	84.044	47.1602
1320.000000	84.103	47.1281
1340.000000	84.261	47.4238
1360.000000	84.352	48.0865
1380.000000	84.481	48.4447
1400.000000	84.684	49.0357
1430.000000	84.802	49.3558
1450.000000	84.944	49.9880
1475.000000	85.172	51.0594
1500.000000	85.298	50.8135
1525.000000	85.442	51.2343
1550.000000	85.648	51.4723
1575.000000	85.719	51.8780
1600.000000	85.886	52.4405
1625.000000	86.036	52.9959
1650.000000	86.220	53.5266
1675.000000	86.428	54.0341
1700.000000	86.557	54.1123
1725.000000	86.749	54.7925
1750.000000	86.909	55.1901
1775.000000	87.074	55.8611
1800.000000	87.282	56.2879
1825.000000	87.481	56.4651
1850.000000	87.655	56.7503
1875.000000	87.845	57.1215
1900.000000	88.004	57.2707
1925.000000	88.213	57.7190
1950.000000	88.439	58.0414
1975.000000	88.631	58.1621
2000.000000	88.815	58.3713
2030.000000	89.082	58.6337
2060.000000	89.326	58.6580
2090.000000	89.594	58.7915
2120.000000	89.845	58.7817
2140.000000	90.014	58.6444
2180.000000	90.363	58.5255
2200.000000	90.538	58.3762
2240.000000	90.856	58.0596
2270.000000	91.106	57.8332
2300.000000	91.346	57.6446
2330.000000	91.583	57.3142
2360.000000	91.861	57.1949
2400.000000	92.227	56.8960
2430.000000	92.534	56.4737
2470.000000	92.992	55.4181
2500.000000	93.300	54.2709
2540.000000	93.657	52.4963
2580.000000	93.995	50.5279
2620.000000	94.307	48.4895
2650.000000	94.459	47.0513
2690.000000	94.690	45.1382
2720.000000	94.881	43.3486
2760.000000	95.075	41.3150
2800.000000	95.209	38.9151
2850.000000	95.323	36.2974
2900.000000	95.404	33.4838
2950.000000	95.461	31.4616
3000.000000	95.452	28.8487
3040.000000	95.442	27.2567
3070.000000	95.470	25.9801
3110.000000	95.391	24.5427
3150.000000	95.348	22.6554
3200.000000	95.182	21.1490
3250.000000	95.087	19.6889
3300.000000	95.022	19.0377
3350.000000	94.851	17.8006
3400.000000	94.720	16.4731
3450.000000	94.623	15.4740
3500.000000	94.555	15.6635
3550.000000	94.459	14.6583
3600.000000	94.376	15.2526
3650.000000	94.290	14.1305
3700.000000	94.306	13.6037
3750.000000	94.206	14.1686
3820.000000	94.243	13.3683
3870.000000	94.274	13.5454
3950.000000	94.365	12.7543
4000.000000	94.188	12.0670
4060.000000	94.194	11.8179
4120.000000	94.413	10.3547
4180.000000	94.451	10.1479
4250.000000	94.546	9.2072
4310.000000	94.600	8.7258
4370.000000	94.548	6.2515
4440.000000	94.604	4.8020
4500.000000	94.574	3.3658
4550.000000	94.574	1.7981
4620.000000	94.689	0.3118
4680.000000	94.501	-1.9578
4750.000000	94.430	-3.3896
4820.000000	94.196	-6.5948
4870.000000	94.141	-8.0662
4940.000000	93.920	-9.7626
5000.000000	93.780	-11.8463
5080.000000	93.297	-13.4874
5150.000000	92.902	-14.6618
5220.000000	92.518	-16.3533
5300.000000	91.995	-17.2049
5380.000000	91.432	-17.9618
5450.000000	91.206	-17.7374
5520.000000	90.748	-17.6493
5600.000000	90.405	-17.7117
5700.000000	89.732	-17.5744
5800.000000	89.173	-15.9098
5900.000000	88.813	-14.3252
6000.000000	88.436	-12.9918
6080.000000	88.040	-11.6353
6150.000000	87.718	-9.6866
6220.000000	87.499	-8.5260
6300.000000	87.400	-6.2120
6400.000000	87.359	-4.2831
6500.000000	87.114	-2.5327
6600.000000	87.110	1.5820
6700.000000	87.232	3.3496
6800.000000	87.378	6.0048
6900.000000	87.438	9.3438
7000.000000	87.557	11.3283
7100.000000	88.026	13.3470
7200.000000	88.541	15.6641
7300.000000	89.096	16.6504
7400.000000	89.561	19.1202
7500.000000	90.353	18.3024
7620.000000	91.374	19.3273
7750.000000	92.478	16.3999
7880.000000	93.860	9.8373
8000.000000	95.118	1.5960
8120.000000	95.324	-11.1751
8250.000000	94.709	-25.3110
8380.000000	93.313	-36.4198
8500.000000	91.905	-43.1527
8620.000000	90.200	-45.7767
8750.000000	88.830	-46.4138
8850.000000	87.701	-45.8482
9000.000000	86.296	-44.0683
9120.000000	85.349	-40.3230
9250.000000	84.397	-37.2845
9380.000000	83.583	-33.3484
9500.000000	83.002	-30.4384
9620.000000	82.222	-26.0252
9750.000000	81.689	-22.0482
9880.000000	81.226	-18.2783
10000.000000	80.944	-13.3321
10150.000000	80.567	-7.7551
10300.000000	80.179	-3.5244
10440.000000	80.151	2.0075
10600.000000	79.897	7.4910
10750.000000	79.827	10.8995
10900.000000	79.960	16.2229
11060.000000	79.918	20.2172
11200.000000	80.257	24.0577
11380.000000	80.435	28.8428
11500.000000	80.617	30.2247
11720.000000	81.327	34.4741
11800.000000	81.593	35.2905
12060.000000	82.513	36.3341
12200.000000	82.929	36.2439
12410.000000	83.726	34.1707
12500.000000	84.050	32.9973
12650.000000	84.472	29.0252
12800.000000	84.759	24.1726
13150.000000	84.778	14.3203
13200.000000	84.779	13.8763
13400.000000	84.478	10.1797
13600.000000	84.337	8.2246
13800.000000	84.530	7.1378
14000.000000	84.643	6.4993
14300.000000	85.779	3.5309
14500.000000	86.846	-0.6780
14750.000000	88.504	-16.5763
15000.000000	88.056	-42.1592
15250.000000	85.011	-59.3345
15500.000000	81.667	-64.5160
15750.000000	78.664	-62.6368
16000.000000	76.085	-57.4935
16250.000000	74.563	-49.1883
16500.000000	73.083	-41.5894
16750.000000	72.031	-32.4754
17000.000000	71.140	-25.1798
17250.000000	70.517	-18.2823
17500.000000	70.007	-14.1087
17750.000000	69.872	-13.9844
18000.000000	69.967	-16.7424
18250.000000	70.104	-30.0142
18500.000000	69.555	-48.3339
18750.000000	68.613	-68.7254
19000.000000	67.255	-84.3126
19250.000000	66.036	-91.8821
19500.000000	65.521	-94.1616
19750.000000	65.147	-91.9760
