* Measurement data measured by REW V5.30.9
* Source: Microphone (Realtek USB2.0 Audio), MICROPHONE (Master Volume), L, volume: 0.500
* Format: 512k Log Swept Sine, 1 sweep at -12.0 dBFS with no timing reference
* Dated: 02 26, 24 10:41:06 PM
* REW Settings:
*  C-weighting compensation: Off
*  Target level: 75.0 dB
* Note: ; 
* Measurement: e6 black R
* Smoothing: None
* Frequency Step: 1/48 octave
* Start Frequency: 1.000 Hz
*
* Freq(Hz)	SPL(dB)	Phase(degrees)
1.000000	48.689	-68.0672
1.015000	48.496	-68.7757
1.030000	48.306	-69.5330
1.044000	48.131	-70.2883
1.060000	47.932	-71.1971
1.075000	47.747	-72.0819
1.090000	47.560	-72.9869
1.106000	47.358	-73.9621
1.120000	47.179	-74.8134
1.138000	46.941	-75.8900
1.150000	46.777	-76.5878
1.172000	46.464	-77.8044
1.180000	46.345	-78.2211
1.206000	45.938	-79.4539
1.220000	45.703	-80.0259
1.241000	45.329	-80.7388
1.250000	45.159	-80.9846
1.265000	44.863	-81.3055
1.280000	44.549	-81.5060
1.315000	43.741	-81.4431
1.320000	43.616	-81.3674
1.340000	43.090	-80.8815
1.360000	42.500	-80.1182
1.380000	41.793	-79.1646
1.400000	40.984	-78.0287
1.430000	39.621	-75.9885
1.450000	38.642	-74.4075
1.475000	37.371	-72.1871
1.500000	36.085	-69.6999
1.525000	34.821	-66.9506
1.550000	33.615	-63.9439
1.575000	32.507	-60.6845
1.600000	31.534	-57.1772
1.625000	30.734	-53.4266
1.650000	30.143	-49.4377
1.675000	29.801	-45.2149
1.700000	29.735	-40.5818
1.725000	29.928	-35.1109
1.750000	30.343	-28.9341
1.775000	30.947	-22.2158
1.800000	31.705	-15.1207
1.825000	32.583	-7.8133
1.850000	33.546	-0.4584
1.875000	34.561	6.7795
1.900000	35.592	13.7358
1.925000	36.606	20.2459
1.950000	37.568	26.1451
1.975000	38.443	31.2689
2.000000	39.198	35.4527
2.030000	39.912	39.0310
2.060000	40.534	41.2299
2.090000	41.108	42.2878
2.120000	41.637	42.3892
2.140000	41.967	42.0165
2.180000	42.580	40.4606
2.200000	42.865	39.3866
2.240000	43.399	36.9201
2.270000	43.774	35.0067
2.300000	44.132	33.2440
2.330000	44.477	31.8164
2.360000	44.814	30.8989
2.400000	45.223	29.9070
2.430000	45.495	29.1102
2.470000	45.817	28.0017
2.500000	46.034	27.1521
2.540000	46.298	26.0197
2.580000	46.540	24.9154
2.620000	46.771	23.8694
2.650000	46.943	23.1416
2.690000	47.177	22.2710
2.720000	47.351	21.6768
2.760000	47.566	20.9097
2.800000	47.765	20.1845
2.850000	47.997	19.3594
2.900000	48.219	18.6515
2.950000	48.438	18.0896
3.000000	48.663	17.7023
3.040000	48.852	17.5346
3.070000	48.994	17.4707
3.110000	49.180	17.4592
3.150000	49.365	17.5403
3.200000	49.597	17.7852
3.250000	49.834	18.2063
3.300000	50.080	18.8209
3.350000	50.339	19.6466
3.400000	50.613	20.6983
3.450000	50.898	21.9694
3.500000	51.191	23.4435
3.550000	51.494	25.1046
3.600000	51.805	26.9362
3.650000	52.126	28.9221
3.700000	52.454	31.0460
3.750000	52.793	33.3872
3.820000	53.288	37.0857
3.870000	53.651	39.9167
3.950000	54.243	44.5470
4.000000	54.616	47.3759
4.060000	55.063	50.5999
4.120000	55.516	53.8510
4.180000	55.975	57.1148
4.250000	56.513	60.8034
4.310000	56.972	63.7473
4.370000	57.424	66.3832
4.440000	57.946	69.0560
4.500000	58.391	71.0859
4.550000	58.760	72.6068
4.620000	59.270	74.4950
4.680000	59.700	75.9082
4.750000	60.193	77.3149
4.820000	60.677	78.3884
4.870000	61.018	78.9863
4.940000	61.489	79.6507
5.000000	61.886	80.1161
5.080000	62.408	80.6574
5.150000	62.855	80.9687
5.220000	63.295	81.1409
5.300000	63.790	81.2270
5.380000	64.279	81.2614
5.450000	64.702	81.2481
5.520000	65.119	81.1594
5.600000	65.590	80.9987
5.700000	66.172	80.7655
5.800000	66.749	80.5281
5.900000	67.319	80.2515
6.000000	67.883	79.9521
6.080000	68.329	79.7081
6.150000	68.717	79.4942
6.220000	69.102	79.2745
6.300000	69.537	79.0089
6.400000	70.073	78.6423
6.500000	70.600	78.2426
6.600000	71.120	77.8096
6.700000	71.628	77.3275
6.800000	72.123	76.7818
6.900000	72.608	76.1772
7.000000	73.080	75.5310
7.100000	73.539	74.8579
7.200000	73.985	74.1453
7.300000	74.417	73.4051
7.400000	74.838	72.6592
7.500000	75.246	71.9015
7.620000	75.719	70.9785
7.750000	76.217	70.0248
7.880000	76.697	69.1315
8.000000	77.128	68.3555
8.120000	77.551	67.6447
8.250000	77.999	66.9504
8.380000	78.439	66.3171
8.500000	78.842	65.7804
8.620000	79.240	65.2939
8.750000	79.666	64.7894
8.850000	79.993	64.4153
9.000000	80.477	63.8735
9.120000	80.859	63.4177
9.250000	81.267	62.9005
9.380000	81.668	62.3625
9.500000	82.030	61.8432
9.620000	82.385	61.3025
9.750000	82.759	60.7028
9.880000	83.121	60.0880
10.000000	83.446	59.5108
10.150000	83.840	58.8020
10.300000	84.218	58.1011
10.440000	84.561	57.4803
10.600000	84.942	56.8254
10.750000	85.290	56.2558
10.900000	85.633	55.7336
11.060000	85.993	55.2191
11.200000	86.306	54.7890
11.380000	86.706	54.2641
11.500000	86.970	53.9129
11.720000	87.452	53.2696
11.800000	87.625	53.0261
12.060000	88.176	52.1979
12.200000	88.463	51.7300
12.410000	88.880	51.0065
12.500000	89.054	50.7073
12.650000	89.335	50.2184
12.800000	89.608	49.7523
13.150000	90.204	48.7696
13.200000	90.256	48.6399
13.400000	90.394	48.1492
13.600000	90.488	47.7199
13.800000	90.556	47.3183
14.000000	90.642	46.8915
14.300000	90.787	46.1168
14.500000	90.883	45.5092
14.750000	90.985	44.6801
15.000000	91.068	43.7766
15.250000	91.133	42.8471
15.500000	91.179	41.9563
15.750000	91.198	41.2152
16.000000	91.215	40.6083
16.250000	91.242	40.1063
16.500000	91.284	39.6804
16.750000	91.330	39.3103
17.000000	91.388	38.9044
17.250000	91.454	38.4370
17.500000	91.520	37.9054
17.750000	91.569	37.3633
18.000000	91.610	36.8287
18.250000	91.647	36.3257
18.500000	91.683	35.8770
18.750000	91.717	35.5063
19.000000	91.760	35.1570
19.250000	91.814	34.7932
19.500000	91.877	34.3840
19.750000	91.936	33.9213
20.000000	91.993	33.3893
20.299999	92.053	32.6799
20.600000	92.099	31.9528
20.900000	92.126	31.2727
21.200001	92.149	30.6474
21.400000	92.165	30.2701
21.799999	92.194	29.6137
22.000000	92.213	29.3049
22.400000	92.262	28.6858
22.700001	92.301	28.2203
23.000000	92.341	27.7353
23.299999	92.385	27.2096
23.600000	92.425	26.6640
24.000000	92.467	25.9335
24.299999	92.495	25.3749
24.700001	92.519	24.6774
25.000000	92.530	24.2099
25.400000	92.543	23.6511
25.799999	92.555	23.2081
26.200001	92.578	22.8335
26.500000	92.605	22.5741
26.900000	92.649	22.2255
27.200001	92.692	21.8962
27.600000	92.750	21.3343
28.000000	92.793	20.6285
28.500000	92.809	19.6096
29.000000	92.768	18.7580
29.500000	92.712	18.2831
30.000000	92.691	18.1524
30.400000	92.721	18.0314
30.700001	92.758	17.8344
31.100000	92.806	17.3977
31.500000	92.839	16.8624
32.000000	92.859	16.3248
32.500000	92.907	15.9274
33.000000	92.996	15.3790
33.500000	93.086	14.3456
34.000000	93.098	13.0514
34.500000	93.022	12.0112
35.000000	92.920	11.6688
35.500000	92.892	11.8193
36.000000	92.953	11.8763
36.500000	93.045	11.3833
37.000000	93.088	10.5291
37.500000	93.072	9.7087
38.200001	93.017	9.0456
38.700001	93.005	8.7486
39.500000	93.020	8.0961
40.000000	93.022	7.5872
40.599998	93.018	6.9793
41.200001	93.012	6.4063
41.799999	93.008	5.8282
42.500000	92.999	5.1570
43.099998	92.987	4.6304
43.700001	92.980	4.1485
44.400002	92.979	3.5997
45.000000	92.975	3.0743
45.500000	92.958	2.6354
46.200001	92.925	2.1870
46.799999	92.915	1.8966
47.500000	92.917	1.4305
48.200001	92.899	0.8897
48.700001	92.883	0.5841
49.400002	92.881	0.1533
50.000000	92.880	-0.3798
50.799999	92.843	-1.0779
51.500000	92.817	-1.5061
52.200001	92.802	-2.0225
53.000000	92.751	-2.5261
53.799999	92.744	-2.6949
54.500000	92.778	-3.1867
55.200001	92.746	-3.8669
56.000000	92.694	-4.0877
57.000000	92.716	-4.6765
58.000000	92.601	-5.2389
59.000000	92.632	-4.9578
60.000000	92.677	-6.2230
60.799999	92.556	-6.8774
61.500000	92.505	-6.9207
62.200001	92.493	-7.2006
63.000000	92.462	-7.5789
64.000000	92.453	-8.0661
65.000000	92.414	-8.6724
66.000000	92.403	-9.1457
67.000000	92.336	-9.8464
68.000000	92.277	-9.7918
69.000000	92.315	-10.2576
70.000000	92.232	-10.9097
71.000000	92.185	-10.9626
72.000000	92.192	-11.3858
73.000000	92.160	-12.0545
74.000000	92.095	-12.6020
75.000000	92.043	-12.9232
76.199997	92.000	-13.3634
77.500000	91.949	-13.6847
78.800003	91.917	-14.0402
80.000000	91.880	-14.4171
81.199997	91.835	-14.7872
82.500000	91.795	-15.2741
83.800003	91.716	-15.8434
85.000000	91.641	-16.0171
86.199997	91.619	-16.2516
87.500000	91.573	-16.6298
88.500000	91.555	-16.9332
90.000000	91.461	-17.4884
91.199997	91.419	-17.6129
92.500000	91.370	-17.9411
93.800003	91.325	-18.2927
95.000000	91.256	-18.5207
96.199997	91.218	-18.6996
97.500000	91.154	-19.0002
98.800003	91.103	-19.1465
100.000000	91.068	-19.4348
101.500000	90.998	-19.7074
103.000000	90.964	-19.8402
104.400002	90.932	-20.0983
106.000000	90.882	-20.3314
107.500000	90.836	-20.5951
109.000000	90.781	-20.9515
110.599998	90.724	-21.2805
112.000000	90.662	-21.6386
113.800003	90.624	-21.7684
115.000000	90.589	-22.0327
117.199997	90.498	-22.1821
118.000000	90.464	-22.2460
120.599998	90.371	-22.5452
122.000000	90.327	-22.9470
124.099998	90.241	-23.2530
125.000000	90.222	-23.3791
126.500000	90.174	-23.6327
128.000000	90.111	-23.6730
131.500000	89.995	-24.0997
132.000000	89.987	-24.1218
134.000000	89.934	-24.3088
136.000000	89.881	-24.5616
138.000000	89.816	-24.6591
140.000000	89.760	-24.7854
143.000000	89.662	-25.0867
145.000000	89.606	-25.2571
147.500000	89.520	-25.3484
150.000000	89.452	-25.4586
152.500000	89.372	-25.6772
155.000000	89.292	-25.6935
157.500000	89.238	-25.8820
160.000000	89.150	-25.9603
162.500000	89.073	-26.0754
165.000000	88.986	-26.1398
167.500000	88.906	-26.0945
170.000000	88.813	-26.2643
172.500000	88.730	-26.2525
175.000000	88.647	-26.2277
177.500000	88.570	-26.1697
180.000000	88.485	-26.2201
182.500000	88.401	-26.4068
185.000000	88.327	-26.3435
187.500000	88.253	-26.3892
190.000000	88.173	-26.3879
192.500000	88.097	-26.2906
195.000000	88.027	-26.2355
197.500000	87.952	-26.1748
200.000000	87.884	-26.2229
203.000000	87.821	-26.0537
206.000000	87.758	-25.8502
209.000000	87.680	-25.8160
212.000000	87.588	-25.7040
214.000000	87.586	-25.8285
218.000000	87.514	-25.3912
220.000000	87.465	-25.4181
224.000000	87.410	-25.3381
227.000000	87.350	-25.1921
230.000000	87.296	-25.1726
233.000000	87.272	-24.9441
236.000000	87.204	-24.9652
240.000000	87.127	-24.6852
243.000000	87.105	-24.6819
247.000000	87.051	-24.6635
250.000000	86.994	-24.5198
254.000000	86.925	-24.3165
258.000000	86.852	-24.2544
262.000000	86.783	-24.1279
265.000000	86.733	-23.9338
269.000000	86.673	-23.8980
272.000000	86.612	-23.8417
276.000000	86.553	-23.6704
280.000000	86.490	-23.4690
285.000000	86.410	-23.2581
290.000000	86.315	-23.2022
295.000000	86.245	-22.8257
300.000000	86.178	-22.6596
304.000000	86.120	-22.4155
307.000000	86.077	-22.2722
311.000000	86.020	-22.0478
315.000000	85.963	-21.8146
320.000000	85.897	-21.5818
325.000000	85.831	-21.3457
330.000000	85.770	-21.0350
335.000000	85.710	-20.7774
340.000000	85.649	-20.4972
345.000000	85.591	-20.2026
350.000000	85.537	-19.8838
355.000000	85.490	-19.4293
360.000000	85.455	-19.2488
365.000000	85.381	-19.0606
370.000000	85.330	-18.7129
375.000000	85.281	-18.4391
382.000000	85.214	-18.0374
387.000000	85.161	-17.7297
395.000000	85.100	-17.2778
400.000000	85.056	-16.9824
406.000000	85.009	-16.6196
412.000000	84.953	-16.2322
418.000000	84.890	-15.8859
425.000000	84.858	-15.4524
431.000000	84.810	-15.1278
437.000000	84.766	-14.7280
444.000000	84.722	-14.3032
450.000000	84.679	-13.9208
455.000000	84.648	-13.6561
462.000000	84.605	-13.2310
468.000000	84.559	-12.7846
475.000000	84.541	-12.3532
482.000000	84.502	-11.9203
487.000000	84.459	-11.6622
494.000000	84.431	-11.2113
500.000000	84.390	-10.8632
508.000000	84.356	-10.3777
515.000000	84.319	-9.9216
522.000000	84.288	-9.4887
530.000000	84.263	-8.9468
538.000000	84.230	-8.5392
545.000000	84.203	-8.0307
552.000000	84.174	-7.6565
560.000000	84.136	-7.1006
570.000000	84.115	-6.5707
580.000000	84.090	-5.9231
590.000000	84.054	-5.3119
600.000000	84.026	-4.6975
608.000000	84.003	-4.1410
615.000000	83.985	-3.7522
622.000000	83.987	-3.2496
630.000000	83.959	-2.7936
640.000000	83.953	-2.1826
650.000000	83.928	-1.5041
660.000000	83.923	-0.9555
670.000000	83.910	-0.3897
680.000000	83.901	0.2959
690.000000	83.895	0.9881
700.000000	83.889	1.6050
710.000000	83.884	2.2122
720.000000	83.882	2.8168
730.000000	83.889	3.5047
740.000000	83.887	4.0783
750.000000	83.897	4.7814
762.000000	83.909	5.4831
775.000000	83.925	6.2755
788.000000	83.943	7.1499
800.000000	83.973	7.8453
812.000000	83.989	8.5676
825.000000	84.024	9.3814
838.000000	84.054	10.1254
850.000000	84.078	10.8125
862.000000	84.114	11.5006
875.000000	84.137	12.2480
885.000000	84.164	12.8745
900.000000	84.206	13.8719
912.000000	84.262	14.6556
925.000000	84.329	15.4978
938.000000	84.400	16.2705
950.000000	84.478	16.9077
962.000000	84.556	17.5729
975.000000	84.637	18.2915
988.000000	84.727	18.9569
1000.000000	84.814	19.4603
1015.000000	84.922	20.1289
1030.000000	85.040	20.7108
1044.000000	85.138	21.2230
1060.000000	85.261	21.7503
1075.000000	85.384	22.2319
1090.000000	85.495	22.6534
1106.000000	85.626	23.0406
1120.000000	85.728	23.3779
1138.000000	85.871	23.7141
1150.000000	85.960	23.9490
1172.000000	86.125	24.2762
1180.000000	86.180	24.3809
1206.000000	86.366	24.6502
1220.000000	86.455	24.7822
1241.000000	86.597	24.9309
1250.000000	86.649	25.0099
1265.000000	86.747	25.0988
1280.000000	86.841	25.2082
1315.000000	87.057	25.3475
1320.000000	87.086	25.3741
1340.000000	87.196	25.5009
1360.000000	87.315	25.5552
1380.000000	87.420	25.7259
1400.000000	87.540	25.8055
1430.000000	87.730	25.8500
1450.000000	87.844	25.8024
1475.000000	87.968	25.8095
1500.000000	88.105	25.7829
1525.000000	88.226	25.7446
1550.000000	88.349	25.7254
1575.000000	88.473	25.7264
1600.000000	88.594	25.6739
1625.000000	88.718	25.6508
1650.000000	88.833	25.6114
1675.000000	88.958	25.5704
1700.000000	89.078	25.5025
1725.000000	89.199	25.4656
1750.000000	89.316	25.3657
1775.000000	89.435	25.2476
1800.000000	89.565	25.1226
1825.000000	89.681	24.9905
1850.000000	89.801	24.8649
1875.000000	89.921	24.6886
1900.000000	90.046	24.5165
1925.000000	90.164	24.2937
1950.000000	90.292	24.1151
1975.000000	90.417	23.7316
2000.000000	90.538	23.4985
2030.000000	90.687	23.0360
2060.000000	90.822	22.6424
2090.000000	90.959	22.1108
2120.000000	91.099	21.6300
2140.000000	91.184	21.2158
2180.000000	91.353	20.4821
2200.000000	91.434	20.0351
2240.000000	91.587	19.1968
2270.000000	91.694	18.5372
2300.000000	91.791	17.8366
2330.000000	91.882	17.1201
2360.000000	91.964	16.3914
2400.000000	92.055	15.4992
2430.000000	92.121	14.8202
2470.000000	92.203	14.0127
2500.000000	92.260	13.4705
2540.000000	92.370	12.8189
2580.000000	92.499	12.0737
2620.000000	92.652	11.1487
2650.000000	92.749	10.2983
2690.000000	92.858	8.9825
2720.000000	92.937	7.7680
2760.000000	92.986	6.4146
2800.000000	93.014	4.8680
2850.000000	92.977	3.3107
2900.000000	92.926	1.5144
2950.000000	92.887	0.4360
3000.000000	92.768	-0.9288
3040.000000	92.675	-1.5133
3070.000000	92.664	-2.0784
3110.000000	92.571	-2.4511
3150.000000	92.516	-3.2896
3200.000000	92.395	-3.6635
3250.000000	92.397	-4.2916
3300.000000	92.407	-4.5313
3350.000000	92.297	-5.5937
3400.000000	92.241	-7.1468
3450.000000	92.148	-8.3588
3500.000000	92.051	-8.4645
3550.000000	91.950	-9.8396
3600.000000	91.787	-9.5853
3650.000000	91.603	-10.9038
3700.000000	91.528	-11.7524
3750.000000	91.324	-11.2515
3820.000000	91.189	-12.2855
3870.000000	91.080	-12.0012
3950.000000	90.928	-12.6403
4000.000000	90.613	-13.2714
4060.000000	90.389	-13.2189
4120.000000	90.418	-14.0949
4180.000000	90.247	-13.7413
4250.000000	90.064	-13.7492
4310.000000	89.927	-13.2595
4370.000000	89.688	-14.7133
4440.000000	89.475	-14.4682
4500.000000	89.293	-14.3640
4550.000000	89.171	-14.5596
4620.000000	89.086	-13.8894
4680.000000	88.819	-14.2084
4750.000000	88.706	-13.4178
4820.000000	88.448	-14.1872
4870.000000	88.386	-13.8824
4940.000000	88.247	-13.2275
5000.000000	88.189	-13.4500
5080.000000	87.839	-12.6680
5150.000000	87.633	-12.0321
5220.000000	87.461	-12.1315
5300.000000	87.163	-11.3626
5380.000000	86.854	-10.7748
5450.000000	86.873	-9.7333
5520.000000	86.650	-8.8940
5600.000000	86.556	-8.3862
5700.000000	86.203	-7.8086
5800.000000	86.013	-5.9630
5900.000000	85.967	-4.7501
6000.000000	85.884	-4.2060
6080.000000	85.675	-3.4751
6150.000000	85.473	-1.9636
6220.000000	85.402	-1.5037
6300.000000	85.457	0.1524
6400.000000	85.585	0.9991
6500.000000	85.494	1.5961
6600.000000	85.662	4.4245
6700.000000	85.890	4.8330
6800.000000	86.152	6.0383
6900.000000	86.341	7.6739
7000.000000	86.499	7.7639
7100.000000	86.952	7.8249
7200.000000	87.434	8.1248
7300.000000	87.918	6.9980
7400.000000	88.286	7.2217
7500.000000	88.887	4.1731
7620.000000	89.560	2.4925
7750.000000	90.061	-2.7944
7880.000000	90.587	-10.0938
8000.000000	91.008	-16.2189
8120.000000	90.548	-23.8351
8250.000000	89.844	-30.9246
8380.000000	88.884	-36.6083
8500.000000	88.035	-40.6079
8620.000000	86.844	-42.3484
8750.000000	85.966	-42.9968
8850.000000	85.130	-42.9644
9000.000000	84.037	-42.4139
9120.000000	83.322	-39.7461
9250.000000	82.500	-37.9556
9380.000000	81.737	-35.1441
9500.000000	81.148	-33.3505
9620.000000	80.354	-29.9443
9750.000000	79.757	-26.8139
9880.000000	79.169	-23.5419
10000.000000	78.770	-18.8327
10150.000000	78.230	-13.2113
10300.000000	77.690	-8.6428
10440.000000	77.509	-2.6184
10600.000000	77.110	3.2445
10750.000000	76.877	7.6289
10900.000000	76.797	13.7416
11060.000000	76.555	18.6706
11200.000000	76.707	23.4424
11380.000000	76.598	29.7661
11500.000000	76.561	32.3516
11720.000000	76.843	39.1320
11800.000000	76.917	40.9938
12060.000000	77.201	46.2730
12200.000000	77.275	49.3715
12410.000000	77.600	53.1409
12500.000000	77.783	54.8307
12650.000000	78.034	56.1776
12800.000000	78.266	56.9680
13150.000000	78.901	60.4629
13200.000000	79.087	61.9582
13400.000000	79.896	64.6191
13600.000000	81.336	65.5499
13800.000000	83.298	61.1218
14000.000000	84.698	50.8301
14300.000000	85.827	28.4621
14500.000000	85.360	15.6496
14750.000000	84.460	3.4565
15000.000000	83.340	-2.7964
15250.000000	82.398	-4.6336
15500.000000	81.817	-6.5123
15750.000000	81.180	-8.4380
16000.000000	80.385	-9.6398
16250.000000	80.459	-8.1135
16500.000000	80.334	-9.6754
16750.000000	80.168	-11.5275
17000.000000	79.654	-15.1137
17250.000000	78.740	-18.4497
17500.000000	77.089	-21.8564
17750.000000	74.679	-22.5048
18000.000000	72.178	-3.2739
18250.000000	74.450	9.2329
18500.000000	75.801	-4.6763
18750.000000	75.139	-26.5958
19000.000000	72.760	-49.9284
19250.000000	69.897	-69.4166
19500.000000	67.900	-88.4700
19750.000000	66.695	-101.7061
