* Measurement data measured by REW V5.30.9
* Source: Headset (Odo By VECLAN.COM), no input selected, L, volume: no control
* Format: 512k Log Swept Sine, 1 sweep at -12.0 dBFS with no timing reference
* Dated: 09 30, 24 3:12:39 PM
* REW Settings:
*  C-weighting compensation: Off
*  Target level: 75.0 dB
* Note: ; 
* Measurement: ea1000 b L
* Smoothing: None
* Frequency Step: 1/48 octave
* Start Frequency: 1.000 Hz
*
* Freq(Hz)	SPL(dB)	Phase(degrees)
1.000000	58.780	-139.9485
1.015000	58.836	-140.8452
1.030000	58.890	-141.7402
1.044000	58.938	-142.5746
1.060000	58.991	-143.5279
1.075000	59.039	-144.4220
1.090000	59.086	-145.3171
1.106000	59.134	-146.2733
1.120000	59.173	-147.1084
1.138000	59.220	-148.1787
1.150000	59.249	-148.8901
1.172000	59.296	-150.1897
1.180000	59.312	-150.6606
1.206000	59.357	-152.1852
1.220000	59.377	-153.0020
1.241000	59.403	-154.2215
1.250000	59.413	-154.7420
1.265000	59.426	-155.6066
1.280000	59.436	-156.4673
1.315000	59.448	-158.4599
1.320000	59.449	-158.7427
1.340000	59.447	-159.8691
1.360000	59.441	-160.9874
1.380000	59.429	-162.0974
1.400000	59.412	-163.1988
1.430000	59.378	-164.8339
1.450000	59.349	-165.9123
1.475000	59.306	-167.2491
1.500000	59.257	-168.5940
1.525000	59.204	-169.9469
1.550000	59.144	-171.3018
1.575000	59.077	-172.6530
1.600000	59.003	-173.9943
1.625000	58.920	-175.3200
1.650000	58.828	-176.6240
1.675000	58.726	-177.9006
1.700000	58.613	-179.1437
1.725000	58.489	179.6525
1.750000	58.353	178.4940
1.775000	58.204	177.3867
1.800000	58.041	176.3365
1.825000	57.863	175.3493
1.850000	57.670	174.3648
1.875000	57.461	173.2502
1.900000	57.236	172.0419
1.925000	56.997	170.7830
1.950000	56.745	169.5168
1.975000	56.481	168.2867
2.000000	56.206	167.1359
2.030000	55.864	165.9208
2.060000	55.510	164.9571
2.090000	55.146	164.3198
2.120000	54.774	164.0836
2.140000	54.523	164.1859
2.180000	54.014	165.1138
2.200000	53.758	165.9843
2.240000	53.148	168.6837
2.270000	52.603	171.4700
2.300000	52.010	174.7928
2.330000	51.391	178.5473
2.360000	50.773	-177.3712
2.400000	49.989	-171.6016
2.430000	49.464	-167.1646
2.470000	48.892	-161.3014
2.500000	48.591	-157.0794
2.540000	48.407	-151.8830
2.580000	48.523	-147.3065
2.620000	48.952	-142.6689
2.650000	49.447	-139.1035
2.690000	50.289	-134.3468
2.720000	51.023	-130.8543
2.760000	52.091	-126.4110
2.800000	53.205	-122.3410
2.850000	54.570	-117.9936
2.900000	55.792	-114.7261
2.950000	56.779	-112.8127
3.000000	57.674	-112.3244
3.040000	58.359	-112.7805
3.070000	58.855	-113.5159
3.110000	59.494	-114.8978
3.150000	60.108	-116.5979
3.200000	60.841	-118.9370
3.250000	61.538	-121.2342
3.300000	62.200	-123.1932
3.350000	62.819	-125.0496
3.400000	63.390	-127.0799
3.450000	63.922	-129.2406
3.500000	64.421	-131.4886
3.550000	64.896	-133.7806
3.600000	65.352	-136.0732
3.650000	65.799	-138.3234
3.700000	66.235	-140.5287
3.750000	66.648	-142.7597
3.820000	67.190	-145.9098
3.870000	67.557	-148.1627
3.950000	68.117	-151.7389
4.000000	68.453	-153.9375
4.060000	68.848	-156.5272
4.120000	69.222	-159.0943
4.180000	69.579	-161.6368
4.250000	69.975	-164.5609
4.310000	70.301	-167.0217
4.370000	70.618	-169.4315
4.440000	70.975	-172.1747
4.500000	71.267	-174.4790
4.550000	71.501	-176.3651
4.620000	71.817	-178.9502
4.680000	72.078	178.8888
4.750000	72.374	176.4354
4.820000	72.660	174.0566
4.870000	72.857	172.4013
4.940000	73.123	170.1440
5.000000	73.344	168.2643
5.080000	73.629	165.8359
5.150000	73.874	163.7834
5.220000	74.110	161.8038
5.300000	74.370	159.6272
5.380000	74.621	157.5347
5.450000	74.837	155.7665
5.520000	75.049	154.0529
5.600000	75.285	152.1736
5.700000	75.571	149.9346
5.800000	75.849	147.7980
5.900000	76.122	145.7470
6.000000	76.388	143.7981
6.080000	76.596	142.3054
6.150000	76.776	141.0391
6.220000	76.953	139.8028
6.300000	77.152	138.4297
6.400000	77.396	136.7819
6.500000	77.635	135.1972
6.600000	77.868	133.6615
6.700000	78.096	132.1779
6.800000	78.319	130.7486
6.900000	78.537	129.3651
7.000000	78.750	128.0204
7.100000	78.957	126.7203
7.200000	79.159	125.4617
7.300000	79.356	124.2386
7.400000	79.548	123.0490
7.500000	79.736	121.8970
7.620000	79.954	120.5567
7.750000	80.184	119.1480
7.880000	80.405	117.7894
8.000000	80.603	116.5727
8.120000	80.795	115.3846
8.250000	80.996	114.1342
8.380000	81.190	112.9167
8.500000	81.361	111.8172
8.620000	81.527	110.7433
8.750000	81.699	109.6078
8.850000	81.827	108.7531
9.000000	82.009	107.5024
9.120000	82.149	106.5295
9.250000	82.294	105.5043
9.380000	82.432	104.5088
9.500000	82.555	103.6141
9.620000	82.673	102.7433
9.750000	82.797	101.8268
9.880000	82.916	100.9308
10.000000	83.023	100.1209
10.150000	83.152	99.1318
10.300000	83.277	98.1552
10.440000	83.389	97.2555
10.600000	83.512	96.2386
10.750000	83.620	95.2908
10.900000	83.723	94.3520
11.060000	83.826	93.3678
11.200000	83.910	92.5187
11.380000	84.011	91.4612
11.500000	84.073	90.7805
11.720000	84.182	89.5848
11.800000	84.221	89.1708
12.060000	84.345	87.8893
12.200000	84.414	87.2298
12.410000	84.522	86.2699
12.500000	84.570	85.8530
12.650000	84.653	85.1591
12.800000	84.738	84.4462
13.150000	84.936	82.6581
13.200000	84.963	82.3902
13.400000	85.067	81.2780
13.600000	85.160	80.1484
13.800000	85.238	79.0103
14.000000	85.306	77.9252
14.300000	85.388	76.4293
14.500000	85.440	75.5639
14.750000	85.512	74.6067
15.000000	85.599	73.7652
15.250000	85.709	72.9501
15.500000	85.837	72.0771
15.750000	85.976	71.1014
16.000000	86.114	69.9807
16.250000	86.238	68.7526
16.500000	86.341	67.4546
16.750000	86.417	66.1513
17.000000	86.470	64.9211
17.250000	86.503	63.7996
17.500000	86.521	62.8270
17.750000	86.535	62.0141
18.000000	86.552	61.3499
18.250000	86.576	60.8214
18.500000	86.615	60.3841
18.750000	86.671	59.9931
19.000000	86.746	59.6053
19.250000	86.839	59.1439
19.500000	86.941	58.5674
19.750000	87.048	57.8448
20.000000	87.145	56.9634
20.299999	87.237	55.7556
20.600000	87.293	54.4754
20.900000	87.311	53.2462
21.200001	87.301	52.1921
21.400000	87.290	51.6237
21.799999	87.279	50.7696
22.000000	87.290	50.4336
22.400000	87.352	49.7754
22.700001	87.426	49.1648
23.000000	87.506	48.3914
23.299999	87.577	47.4874
23.600000	87.631	46.5204
24.000000	87.675	45.2583
24.299999	87.693	44.4108
24.700001	87.712	43.4531
25.000000	87.733	42.8456
25.400000	87.775	42.1204
25.799999	87.833	41.4039
26.200001	87.897	40.6328
26.500000	87.941	40.0167
26.900000	87.987	39.1858
27.200001	88.012	38.6001
27.600000	88.039	37.9097
28.000000	88.072	37.2993
28.500000	88.128	36.5019
29.000000	88.177	35.5269
29.500000	88.189	34.4624
30.000000	88.164	33.5690
30.400000	88.145	33.0631
30.700001	88.145	32.7601
31.100000	88.166	32.3297
31.500000	88.200	31.7785
32.000000	88.234	30.9376
32.500000	88.249	30.0898
33.000000	88.260	29.3415
33.500000	88.281	28.6430
34.000000	88.306	27.9321
34.500000	88.327	27.2405
35.000000	88.350	26.6034
35.500000	88.377	25.9717
36.000000	88.400	25.2999
36.500000	88.405	24.6537
37.000000	88.405	24.1327
37.500000	88.418	23.6938
38.200001	88.455	22.9097
38.700001	88.461	22.1885
39.500000	88.422	21.2172
40.000000	88.410	20.7877
40.599998	88.422	20.1876
41.200001	88.426	19.3867
41.799999	88.399	18.6465
42.500000	88.381	18.0680
43.099998	88.403	17.5543
43.700001	88.425	16.8475
44.400002	88.417	16.0308
45.000000	88.406	15.5115
45.500000	88.408	15.0903
46.200001	88.400	14.4001
46.799999	88.365	13.9142
47.500000	88.339	13.6401
48.200001	88.363	13.2948
48.700001	88.381	12.8431
49.400002	88.374	12.1528
50.000000	88.367	11.6667
50.799999	88.376	10.8932
51.500000	88.351	10.0744
52.200001	88.296	9.5240
53.000000	88.275	9.2086
53.799999	88.294	8.7205
54.500000	88.291	8.1475
55.200001	88.266	7.7129
56.000000	88.267	7.4115
57.000000	88.313	6.5391
58.000000	88.229	5.3997
59.000000	88.147	5.2633
60.000000	88.185	4.8018
60.799999	88.170	4.1697
61.500000	88.149	3.7661
62.200001	88.128	3.3542
63.000000	88.092	3.0032
64.000000	88.074	2.5771
65.000000	88.029	2.0916
66.000000	88.032	1.5250
67.000000	87.913	0.2869
68.000000	87.725	0.6877
69.000000	87.834	1.0125
70.000000	87.891	-0.0541
71.000000	87.852	-0.9031
72.000000	87.769	-1.4290
73.000000	87.733	-1.3749
74.000000	87.747	-1.8068
75.000000	87.677	-2.2396
76.199997	87.635	-2.4596
77.500000	87.571	-3.1454
78.800003	87.495	-3.4919
80.000000	87.435	-3.9607
81.199997	87.441	-3.8005
82.500000	87.445	-5.1240
83.800003	87.331	-4.4778
85.000000	87.444	-5.5483
86.199997	87.212	-5.6713
87.500000	87.334	-5.3339
88.500000	87.302	-6.2830
90.000000	87.212	-6.3521
91.199997	87.242	-6.6000
92.500000	87.230	-7.2875
93.800003	87.160	-7.8307
95.000000	87.118	-7.9467
96.199997	87.099	-8.5499
97.500000	87.005	-8.7930
98.800003	86.976	-9.1464
100.000000	86.909	-9.2067
101.500000	86.909	-9.4706
103.000000	86.870	-9.9692
104.400002	86.776	-10.2848
106.000000	86.754	-10.5400
107.500000	86.681	-10.7952
109.000000	86.654	-11.2505
110.599998	86.592	-11.1960
112.000000	86.574	-11.6919
113.800003	86.510	-11.9686
115.000000	86.420	-11.9464
117.199997	86.378	-12.4420
118.000000	86.335	-12.3583
120.599998	86.248	-12.6328
122.000000	86.217	-12.8680
124.099998	86.169	-13.3058
125.000000	86.133	-13.4371
126.500000	86.071	-13.5537
128.000000	86.038	-13.6426
131.500000	85.937	-13.9055
132.000000	85.939	-13.9145
134.000000	85.893	-14.3951
136.000000	85.808	-14.2460
138.000000	85.739	-14.5905
140.000000	85.677	-14.7297
143.000000	85.599	-15.0532
145.000000	85.540	-15.2070
147.500000	85.442	-15.2440
150.000000	85.413	-15.4431
152.500000	85.318	-15.4440
155.000000	85.273	-15.5157
157.500000	85.176	-15.7130
160.000000	85.112	-15.6592
162.500000	85.054	-15.6710
165.000000	85.011	-15.7885
167.500000	84.938	-15.8921
170.000000	84.847	-16.0833
172.500000	84.793	-15.8817
175.000000	84.729	-15.9998
177.500000	84.658	-15.9946
180.000000	84.627	-16.0486
182.500000	84.564	-15.8961
185.000000	84.494	-15.7531
187.500000	84.443	-15.8563
190.000000	84.379	-16.1251
192.500000	84.350	-16.0251
195.000000	84.313	-15.9527
197.500000	84.193	-15.7806
200.000000	84.117	-15.7169
203.000000	84.102	-15.4822
206.000000	84.110	-15.6769
209.000000	83.991	-15.6222
212.000000	83.923	-15.5802
214.000000	83.893	-15.5446
218.000000	83.803	-15.2990
220.000000	83.761	-15.2981
224.000000	83.686	-15.2318
227.000000	83.644	-15.0494
230.000000	83.548	-14.8096
233.000000	83.506	-14.7692
236.000000	83.462	-14.4956
240.000000	83.387	-14.2845
243.000000	83.346	-14.1028
247.000000	83.290	-13.6169
250.000000	83.246	-13.4403
254.000000	83.210	-13.2124
258.000000	83.177	-12.8550
262.000000	83.164	-12.9520
265.000000	83.199	-13.6549
269.000000	83.073	-12.5657
272.000000	83.040	-12.5057
276.000000	82.969	-12.4831
280.000000	82.942	-12.2252
285.000000	82.863	-11.8080
290.000000	82.802	-11.6543
295.000000	82.747	-11.4126
300.000000	82.679	-11.2166
304.000000	82.639	-10.9081
307.000000	82.586	-10.7019
311.000000	82.561	-10.5433
315.000000	82.511	-10.2998
320.000000	82.461	-10.0768
325.000000	82.421	-9.7660
330.000000	82.357	-9.3800
335.000000	82.309	-9.1736
340.000000	82.249	-8.7556
345.000000	82.207	-8.6820
350.000000	82.176	-8.1891
355.000000	82.137	-7.9633
360.000000	82.088	-7.5841
365.000000	82.053	-7.3538
370.000000	81.991	-6.9303
375.000000	81.955	-6.4441
382.000000	81.890	-6.2096
387.000000	81.875	-5.9268
395.000000	81.806	-5.4223
400.000000	81.772	-6.1322
406.000000	81.740	-4.4076
412.000000	81.704	-4.1370
418.000000	81.679	-3.9525
425.000000	81.628	-3.2148
431.000000	81.602	-2.8996
437.000000	81.555	-2.4547
444.000000	81.522	-2.0210
450.000000	81.501	-1.5661
455.000000	81.465	-1.3175
462.000000	81.426	-0.7373
468.000000	81.406	-0.3510
475.000000	81.386	0.1023
482.000000	81.348	0.5668
487.000000	81.329	0.8975
494.000000	81.301	1.3851
500.000000	81.280	1.8756
508.000000	81.264	2.3680
515.000000	81.232	2.8730
522.000000	81.214	3.3381
530.000000	81.189	3.9104
538.000000	81.168	4.3138
545.000000	81.150	4.9498
552.000000	81.138	5.4612
560.000000	81.129	6.0189
570.000000	81.107	6.7813
580.000000	81.070	7.3302
590.000000	81.061	8.0695
600.000000	81.120	9.1282
608.000000	81.037	9.3877
615.000000	81.034	9.9424
622.000000	81.040	10.3344
630.000000	81.032	10.8212
640.000000	81.046	11.5428
650.000000	81.035	12.2639
660.000000	81.036	12.9487
670.000000	81.041	13.6309
680.000000	81.055	14.2767
690.000000	81.058	14.9670
700.000000	81.063	15.6581
710.000000	81.070	16.3512
720.000000	81.089	17.0731
730.000000	81.105	17.6451
740.000000	81.120	18.3533
750.000000	81.139	18.9745
762.000000	81.170	19.8306
775.000000	81.198	20.6802
788.000000	81.233	21.5248
800.000000	81.270	22.4774
812.000000	81.303	23.1398
825.000000	81.341	23.9683
838.000000	81.378	24.8567
850.000000	81.426	25.7592
862.000000	81.481	26.4819
875.000000	81.546	27.2261
885.000000	81.597	27.9484
900.000000	81.676	28.7392
912.000000	81.736	29.5439
925.000000	81.828	30.4035
938.000000	81.905	31.0816
950.000000	81.994	31.6273
962.000000	82.081	32.2151
975.000000	82.179	32.7681
988.000000	82.266	32.7852
1000.000000	82.172	32.9202
1015.000000	82.246	34.9158
1030.000000	82.391	35.8740
1044.000000	82.544	36.4594
1060.000000	82.673	37.0419
1075.000000	82.760	37.5186
1090.000000	82.860	38.3810
1106.000000	83.018	38.9866
1120.000000	83.141	39.4298
1138.000000	83.293	39.9485
1150.000000	83.376	40.2188
1172.000000	83.554	40.8475
1180.000000	83.609	41.0812
1206.000000	83.789	41.6730
1220.000000	83.891	42.0327
1241.000000	84.068	42.4702
1250.000000	84.134	42.5524
1265.000000	84.250	42.7830
1280.000000	84.360	42.9723
1315.000000	84.582	43.4494
1320.000000	84.622	43.5473
1340.000000	84.739	43.7735
1360.000000	84.856	44.0006
1380.000000	84.982	44.2536
1400.000000	85.085	44.5473
1430.000000	85.277	44.9111
1450.000000	85.387	45.2261
1475.000000	85.534	45.4471
1500.000000	85.674	45.8294
1525.000000	85.826	46.1352
1550.000000	85.966	46.4214
1575.000000	86.116	46.7628
1600.000000	86.284	47.0421
1625.000000	86.409	47.4374
1650.000000	86.556	47.7794
1675.000000	86.726	48.1268
1700.000000	86.897	48.3871
1725.000000	87.068	48.6212
1750.000000	87.251	48.8270
1775.000000	87.414	48.9451
1800.000000	87.612	49.0846
1825.000000	87.764	49.1630
1850.000000	87.945	49.2660
1875.000000	88.131	49.3391
1900.000000	88.306	49.4207
1925.000000	88.504	49.4238
1950.000000	88.688	49.3613
1975.000000	88.890	49.3406
2000.000000	89.082	49.1596
2030.000000	89.321	48.9748
2060.000000	89.568	48.6110
2090.000000	89.817	48.1955
2120.000000	90.056	47.6121
2140.000000	90.209	47.1272
2180.000000	90.495	46.1795
2200.000000	90.620	45.6979
2240.000000	90.903	44.8535
2270.000000	91.130	44.2310
2300.000000	91.395	43.4012
2330.000000	91.655	42.2615
2360.000000	91.894	40.7595
2400.000000	92.160	38.5885
2430.000000	92.305	36.7857
2470.000000	92.455	34.4458
2500.000000	92.535	32.7200
2540.000000	92.614	30.5223
2580.000000	92.662	28.4018
2620.000000	92.673	26.3074
2650.000000	92.665	24.7998
2690.000000	92.618	22.9058
2720.000000	92.565	21.7262
2760.000000	92.487	20.2747
2800.000000	92.432	19.1251
2850.000000	92.392	17.7382
2900.000000	92.374	16.0840
2950.000000	92.320	14.1801
3000.000000	92.200	12.3130
3040.000000	92.071	10.9932
3070.000000	91.962	10.0836
3110.000000	91.802	9.0650
3150.000000	91.634	8.2487
3200.000000	91.430	7.4298
3250.000000	91.233	6.9437
3300.000000	91.052	6.6121
3350.000000	90.892	6.3766
3400.000000	90.738	6.1592
3450.000000	90.598	6.1171
3500.000000	90.457	6.0321
3550.000000	90.328	6.0665
3600.000000	90.198	6.1237
3650.000000	90.090	6.3446
3700.000000	89.981	6.5714
3750.000000	89.886	6.8728
3820.000000	89.769	7.3736
3870.000000	89.703	7.8165
3950.000000	89.612	8.4788
4000.000000	89.571	8.9224
4060.000000	89.537	9.4623
4120.000000	89.511	10.0079
4180.000000	89.490	10.5881
4250.000000	89.491	11.2837
4310.000000	89.504	11.8392
4370.000000	89.541	12.3824
4440.000000	89.594	12.9925
4500.000000	89.654	13.4705
4550.000000	89.711	13.7983
4620.000000	89.805	14.2501
4680.000000	89.902	14.5314
4750.000000	90.019	14.7591
4820.000000	90.156	14.8796
4870.000000	90.260	14.8677
4940.000000	90.403	14.7722
5000.000000	90.531	14.5433
5080.000000	90.698	14.1045
5150.000000	90.845	13.5203
5220.000000	90.986	12.7802
5300.000000	91.133	11.8102
5380.000000	91.260	10.5850
5450.000000	91.350	9.4333
5520.000000	91.432	8.1980
5600.000000	91.482	6.5535
5700.000000	91.498	4.6195
5800.000000	91.465	2.7310
5900.000000	91.368	0.8064
6000.000000	91.227	-0.8887
6080.000000	91.081	-2.0234
6150.000000	90.900	-2.5653
6220.000000	90.814	-2.3768
6300.000000	90.838	-3.0913
6400.000000	90.720	-4.4142
6500.000000	90.549	-5.1544
6600.000000	90.408	-5.5174
6700.000000	90.291	-5.8049
6800.000000	90.222	-5.8778
6900.000000	90.169	-5.9709
7000.000000	90.166	-5.9604
7100.000000	90.205	-6.0194
7200.000000	90.304	-6.2565
7300.000000	90.454	-6.6483
7400.000000	90.659	-7.5723
7500.000000	90.897	-9.0995
7620.000000	91.189	-11.8445
7750.000000	91.453	-16.1205
7880.000000	91.574	-21.8361
8000.000000	91.468	-27.9722
8120.000000	91.100	-34.4079
8250.000000	90.393	-40.9376
8380.000000	89.438	-46.2166
8500.000000	88.415	-49.7299
8620.000000	87.349	-51.8475
8750.000000	86.181	-52.7938
8850.000000	85.311	-52.6765
9000.000000	84.076	-51.4148
9120.000000	83.161	-49.6312
9250.000000	82.242	-47.1129
9380.000000	81.407	-44.1253
9500.000000	80.701	-41.0583
9620.000000	80.049	-37.5791
9750.000000	79.417	-33.7279
9880.000000	78.852	-29.4927
10000.000000	78.388	-25.7048
10150.000000	77.872	-20.4885
10300.000000	77.435	-15.2651
10440.000000	77.141	-10.3149
10600.000000	76.846	-4.6445
10750.000000	76.657	0.6818
10900.000000	76.529	5.9103
11060.000000	76.477	11.4771
11200.000000	76.501	16.2431
11380.000000	76.592	22.2205
11500.000000	76.693	26.2377
11720.000000	77.029	33.2752
11800.000000	77.173	35.6579
12060.000000	77.839	43.4327
12200.000000	78.257	47.6555
12410.000000	79.114	53.1025
12500.000000	79.559	55.3161
12650.000000	80.373	58.5867
12800.000000	81.342	61.1847
13150.000000	84.279	63.0330
13200.000000	84.787	62.4702
13400.000000	86.971	56.8759
13600.000000	89.055	42.7265
13800.000000	89.674	19.9736
14000.000000	88.255	1.3795
14300.000000	85.371	-10.9491
14500.000000	83.652	-12.7605
14750.000000	82.023	-11.1578
15000.000000	80.908	-7.5719
15250.000000	80.253	-3.3707
15500.000000	80.037	0.5033
15750.000000	80.166	3.0294
16000.000000	80.566	3.3750
16250.000000	81.129	0.4172
16500.000000	81.483	-7.4655
16750.000000	81.011	-18.4651
17000.000000	79.608	-27.9864
17250.000000	77.722	-33.0153
17500.000000	75.785	-34.0042
17750.000000	74.050	-31.8870
18000.000000	72.572	-28.6052
18250.000000	71.336	-24.4384
18500.000000	70.226	-21.0305
18750.000000	68.853	-17.0944
19000.000000	67.878	-6.8677
19250.000000	68.350	-0.7673
19500.000000	68.841	-2.7025
19750.000000	68.740	-9.8477
