* Measurement data measured by REW V5.30.9
* Source: Headset (Odo By VECLAN.COM), no input selected, L, volume: no control
* Format: 512k Log Swept Sine, 1 sweep at -12.0 dBFS with no timing reference
* Dated: 09 30, 24 3:08:02 PM
* REW Settings:
*  C-weighting compensation: Off
*  Target level: 75.0 dB
* Note: ; 
* Measurement: ea1000 r R
* Smoothing: None
* Frequency Step: 1/48 octave
* Start Frequency: 1.000 Hz
*
* Freq(Hz)	SPL(dB)	Phase(degrees)
1.000000	46.118	-129.0015
1.015000	46.348	-127.8248
1.030000	46.577	-126.7134
1.044000	46.789	-125.7412
1.060000	47.028	-124.7144
1.075000	47.249	-123.8407
1.090000	47.465	-123.0601
1.106000	47.691	-122.3345
1.120000	47.892	-121.7745
1.138000	48.158	-121.1473
1.150000	48.338	-120.7842
1.172000	48.676	-120.2258
1.180000	48.800	-120.0552
1.206000	49.211	-119.6115
1.220000	49.436	-119.4376
1.241000	49.775	-119.2538
1.250000	49.921	-119.2011
1.265000	50.166	-119.1451
1.280000	50.410	-119.1256
1.315000	50.980	-119.2007
1.320000	51.061	-119.2231
1.340000	51.383	-119.3368
1.360000	51.702	-119.4819
1.380000	52.015	-119.6494
1.400000	52.323	-119.8305
1.430000	52.770	-120.1080
1.450000	53.058	-120.2839
1.475000	53.403	-120.4880
1.500000	53.740	-120.7511
1.525000	54.069	-121.0869
1.550000	54.391	-121.4879
1.575000	54.707	-121.9470
1.600000	55.016	-122.4566
1.625000	55.320	-123.0096
1.650000	55.618	-123.5984
1.675000	55.911	-124.2157
1.700000	56.199	-124.8542
1.725000	56.483	-125.5066
1.750000	56.762	-126.1655
1.775000	57.038	-126.8235
1.800000	57.310	-127.4733
1.825000	57.579	-128.1075
1.850000	57.844	-128.7325
1.875000	58.103	-129.3760
1.900000	58.358	-130.0374
1.925000	58.607	-130.7144
1.950000	58.851	-131.4051
1.975000	59.091	-132.1072
2.000000	59.327	-132.8186
2.030000	59.605	-133.6817
2.060000	59.878	-134.5516
2.090000	60.146	-135.4245
2.120000	60.411	-136.2969
2.140000	60.586	-136.8764
2.180000	60.931	-138.0254
2.200000	61.102	-138.5929
2.240000	61.438	-139.7285
2.270000	61.685	-140.5850
2.300000	61.926	-141.4445
2.330000	62.164	-142.3060
2.360000	62.397	-143.1683
2.400000	62.702	-144.3176
2.430000	62.928	-145.1779
2.470000	63.223	-146.3207
2.500000	63.442	-147.1733
2.540000	63.731	-148.3020
2.580000	64.016	-149.4200
2.620000	64.296	-150.5321
2.650000	64.502	-151.3630
2.690000	64.772	-152.4665
2.720000	64.971	-153.2906
2.760000	65.233	-154.3845
2.800000	65.491	-155.4723
2.850000	65.808	-156.8232
2.900000	66.120	-158.1636
2.950000	66.427	-159.4929
3.000000	66.729	-160.8112
3.040000	66.966	-161.8584
3.070000	67.141	-162.6395
3.110000	67.371	-163.6755
3.150000	67.598	-164.7055
3.200000	67.878	-165.9848
3.250000	68.153	-167.2556
3.300000	68.424	-168.5181
3.350000	68.691	-169.7722
3.400000	68.953	-171.0173
3.450000	69.210	-172.2536
3.500000	69.462	-173.4810
3.550000	69.710	-174.6997
3.600000	69.954	-175.9097
3.650000	70.193	-177.1112
3.700000	70.429	-178.3045
3.750000	70.660	-179.4904
3.820000	70.976	178.8632
3.870000	71.197	177.6982
3.950000	71.541	175.8553
4.000000	71.752	174.7178
4.060000	71.999	173.3679
4.120000	72.240	172.0307
4.180000	72.475	170.7076
4.250000	72.742	169.1847
4.310000	72.965	167.8996
4.370000	73.184	166.6355
4.440000	73.432	165.1878
4.500000	73.639	163.9666
4.550000	73.807	162.9634
4.620000	74.037	161.5831
4.680000	74.230	160.4241
4.750000	74.451	159.1024
4.820000	74.666	157.8145
4.870000	74.816	156.9140
4.940000	75.021	155.6802
5.000000	75.194	154.6470
5.080000	75.420	153.3033
5.150000	75.616	152.1592
5.220000	75.808	151.0495
5.300000	76.023	149.8200
5.380000	76.234	148.6247
5.450000	76.418	147.6007
5.520000	76.601	146.5936
5.600000	76.808	145.4755
5.700000	77.064	144.1180
5.800000	77.318	142.7847
5.900000	77.570	141.4576
6.000000	77.821	140.1526
6.080000	78.021	139.1185
6.150000	78.193	138.2133
6.220000	78.364	137.3013
6.300000	78.556	136.2514
6.400000	78.795	134.9355
6.500000	79.028	133.6117
6.600000	79.253	132.2757
6.700000	79.472	130.9222
6.800000	79.684	129.5564
6.900000	79.887	128.1881
7.000000	80.079	126.8240
7.100000	80.262	125.4526
7.200000	80.436	124.0856
7.300000	80.599	122.7408
7.400000	80.752	121.4238
7.500000	80.894	120.1227
7.620000	81.052	118.6046
7.750000	81.211	117.0398
7.880000	81.355	115.5468
8.000000	81.478	114.2408
8.120000	81.597	113.0166
8.250000	81.717	111.7812
8.380000	81.834	110.6265
8.500000	81.943	109.6276
8.620000	82.051	108.7012
8.750000	82.170	107.7473
8.850000	82.264	107.0330
9.000000	82.410	106.0147
9.120000	82.529	105.2138
9.250000	82.661	104.3365
9.380000	82.796	103.4623
9.500000	82.920	102.6431
9.620000	83.043	101.8021
9.750000	83.175	100.8734
9.880000	83.303	99.9325
10.000000	83.415	99.0509
10.150000	83.551	97.9352
10.300000	83.679	96.8287
10.440000	83.790	95.8014
10.600000	83.911	94.6465
10.750000	84.018	93.5958
10.900000	84.120	92.5707
11.060000	84.226	91.5068
11.200000	84.317	90.6030
11.380000	84.431	89.4598
11.500000	84.506	88.7078
11.720000	84.641	87.3414
11.800000	84.689	86.8431
12.060000	84.838	85.2281
12.200000	84.913	84.3629
12.410000	85.017	83.0791
12.500000	85.059	82.5452
12.650000	85.123	81.6708
12.800000	85.184	80.8319
13.150000	85.316	79.0522
13.200000	85.335	78.8165
13.400000	85.414	77.9297
13.600000	85.501	77.0844
13.800000	85.597	76.2718
14.000000	85.702	75.4287
14.300000	85.869	74.0753
14.500000	85.979	73.0714
14.750000	86.102	71.7330
15.000000	86.202	70.3295
15.250000	86.271	68.9590
15.500000	86.315	67.7213
15.750000	86.341	66.6708
16.000000	86.367	65.8671
16.250000	86.412	65.2480
16.500000	86.484	64.7414
16.750000	86.591	64.2206
17.000000	86.720	63.5392
17.250000	86.857	62.6593
17.500000	86.983	61.5443
17.750000	87.076	60.2932
18.000000	87.132	59.0089
18.250000	87.147	57.8067
18.500000	87.138	56.8406
18.750000	87.122	56.1314
19.000000	87.119	55.6951
19.250000	87.154	55.4070
19.500000	87.227	55.1112
19.750000	87.337	54.6858
20.000000	87.462	53.9783
20.299999	87.598	52.7782
20.600000	87.690	51.2969
20.900000	87.718	49.7410
21.200001	87.684	48.3683
21.400000	87.642	47.6688
21.799999	87.554	46.8206
22.000000	87.530	46.6262
22.400000	87.556	46.4347
22.700001	87.634	46.1864
23.000000	87.736	45.6650
23.299999	87.832	44.8809
23.600000	87.901	43.9373
24.000000	87.945	42.6543
24.299999	87.951	41.8251
24.700001	87.951	40.9696
25.000000	87.961	40.4698
25.400000	87.998	39.8665
25.799999	88.055	39.2064
26.200001	88.114	38.4400
26.500000	88.154	37.8103
26.900000	88.194	36.9373
27.200001	88.214	36.2891
27.600000	88.228	35.4725
28.000000	88.236	34.7434
28.500000	88.251	33.9479
29.000000	88.281	33.1709
29.500000	88.317	32.2897
30.000000	88.335	31.3230
30.400000	88.333	30.5956
30.700001	88.327	30.1231
31.100000	88.327	29.5797
31.500000	88.341	29.0602
32.000000	88.372	28.3238
32.500000	88.394	27.4969
33.000000	88.400	26.7217
33.500000	88.409	26.0677
34.000000	88.434	25.4415
34.500000	88.465	24.7349
35.000000	88.483	23.9818
35.500000	88.490	23.2900
36.000000	88.497	22.6754
36.500000	88.508	22.0646
37.000000	88.512	21.4360
37.500000	88.505	20.8604
38.200001	88.499	20.1865
38.700001	88.504	19.6890
39.500000	88.491	18.8207
40.000000	88.470	18.4077
40.599998	88.468	18.0687
41.200001	88.507	17.6107
41.799999	88.547	16.8278
42.500000	88.537	15.7026
43.099998	88.477	14.9457
43.700001	88.418	14.5837
44.400002	88.420	14.4128
45.000000	88.480	13.9935
45.500000	88.519	13.3170
46.200001	88.505	12.2576
46.799999	88.457	11.6565
47.500000	88.435	11.2090
48.200001	88.438	10.6350
48.700001	88.430	10.1606
49.400002	88.407	9.5830
50.000000	88.394	9.1473
50.799999	88.382	8.5635
51.500000	88.376	8.0667
52.200001	88.375	7.5044
53.000000	88.351	6.8130
53.799999	88.314	6.3065
54.500000	88.298	5.9481
55.200001	88.292	5.5293
56.000000	88.279	4.9714
57.000000	88.235	4.2476
58.000000	88.196	3.7908
59.000000	88.194	3.0612
60.000000	88.123	2.3390
60.799999	88.093	2.0942
61.500000	88.087	1.7899
62.200001	88.085	1.5171
63.000000	88.112	1.0314
64.000000	88.048	0.0878
65.000000	87.980	0.0847
66.000000	87.992	-0.6236
67.000000	87.849	-0.9943
68.000000	87.865	-0.9506
69.000000	87.816	-1.7940
70.000000	87.763	-1.8619
71.000000	87.784	-2.5118
72.000000	87.721	-3.0857
73.000000	87.680	-3.3904
74.000000	87.653	-3.5184
75.000000	87.682	-3.8599
76.199997	87.629	-4.6402
77.500000	87.578	-4.8424
78.800003	87.562	-5.5149
80.000000	87.524	-5.8500
81.199997	87.503	-6.4103
82.500000	87.508	-6.6261
83.800003	87.423	-7.6253
85.000000	87.380	-6.9007
86.199997	87.474	-7.9612
87.500000	87.301	-8.4956
88.500000	87.305	-8.6354
90.000000	87.167	-9.2987
91.199997	87.187	-9.1139
92.500000	87.144	-10.0666
93.800003	87.079	-10.1121
95.000000	87.052	-10.5886
96.199997	87.003	-10.9482
97.500000	86.906	-11.3600
98.800003	86.866	-11.1710
100.000000	86.873	-11.6305
101.500000	86.780	-11.9935
103.000000	86.758	-12.0441
104.400002	86.760	-12.7823
106.000000	86.592	-13.1085
107.500000	86.594	-13.1379
109.000000	86.524	-13.2728
110.599998	86.477	-13.4980
112.000000	86.491	-13.4960
113.800003	86.347	-14.4391
115.000000	86.297	-13.9473
117.199997	86.263	-14.7120
118.000000	86.223	-14.6580
120.599998	86.164	-15.1805
122.000000	86.064	-15.4025
124.099998	85.996	-15.4620
125.000000	85.975	-15.5720
126.500000	85.931	-15.7612
128.000000	85.891	-16.0660
131.500000	85.757	-16.1125
132.000000	85.757	-16.2136
134.000000	85.654	-16.7463
136.000000	85.562	-16.4697
138.000000	85.521	-16.7670
140.000000	85.499	-17.0680
143.000000	85.378	-16.9173
145.000000	85.282	-16.9989
147.500000	85.174	-17.1387
150.000000	85.084	-17.4871
152.500000	85.040	-17.4001
155.000000	84.943	-17.3159
157.500000	84.820	-17.0823
160.000000	84.728	-16.8815
162.500000	84.645	-16.2976
165.000000	84.630	-15.8511
167.500000	84.602	-15.2996
170.000000	84.630	-15.2629
172.500000	84.705	-15.3008
175.000000	84.709	-15.6055
177.500000	84.701	-15.9249
180.000000	84.666	-16.3759
182.500000	84.624	-16.6618
185.000000	84.569	-16.8671
187.500000	84.518	-17.1735
190.000000	84.460	-17.3130
192.500000	84.390	-17.4257
195.000000	84.329	-17.3685
197.500000	84.251	-17.5496
200.000000	84.194	-17.6543
203.000000	84.130	-17.6725
206.000000	84.046	-17.7418
209.000000	83.983	-17.7025
212.000000	83.925	-17.6733
214.000000	83.884	-17.5762
218.000000	83.788	-17.5497
220.000000	83.768	-17.5229
224.000000	83.676	-17.4219
227.000000	83.612	-17.3621
230.000000	83.550	-17.3368
233.000000	83.490	-17.2548
236.000000	83.428	-17.0548
240.000000	83.358	-16.9443
243.000000	83.301	-16.9041
247.000000	83.240	-16.7879
250.000000	83.183	-16.6038
254.000000	83.103	-16.5164
258.000000	83.036	-16.3332
262.000000	82.984	-16.1143
265.000000	82.966	-15.8586
269.000000	82.876	-15.8092
272.000000	82.854	-15.5454
276.000000	82.779	-15.3944
280.000000	82.725	-15.2242
285.000000	82.644	-14.9037
290.000000	82.577	-14.7497
295.000000	82.519	-14.4301
300.000000	82.446	-14.2130
304.000000	82.395	-14.0007
307.000000	82.364	-13.7954
311.000000	82.323	-13.5797
315.000000	82.265	-13.4112
320.000000	82.205	-13.0046
325.000000	82.157	-12.8412
330.000000	82.109	-12.6688
335.000000	82.067	-12.1657
340.000000	82.000	-11.8005
345.000000	81.970	-11.5331
350.000000	81.905	-11.2643
355.000000	81.851	-11.0331
360.000000	81.851	-10.7480
365.000000	81.770	-10.3737
370.000000	81.736	-10.0744
375.000000	81.697	-9.8097
382.000000	81.645	-9.2936
387.000000	81.586	-9.1367
395.000000	81.517	-8.4767
400.000000	81.498	-8.1935
406.000000	81.455	-7.9246
412.000000	81.407	-7.4643
418.000000	81.372	-7.0673
425.000000	81.323	-6.5860
431.000000	81.296	-6.1639
437.000000	81.251	-5.9020
444.000000	81.218	-5.3693
450.000000	81.177	-4.9943
455.000000	81.147	-4.7058
462.000000	81.118	-4.2183
468.000000	81.079	-3.8264
475.000000	81.059	-3.3321
482.000000	81.013	-2.9557
487.000000	80.998	-2.5664
494.000000	80.947	-2.2186
500.000000	80.925	-1.7289
508.000000	80.902	-1.2896
515.000000	80.880	-0.7874
522.000000	80.847	-0.3524
530.000000	80.824	0.1919
538.000000	80.808	0.7236
545.000000	80.776	1.1803
552.000000	80.764	1.6556
560.000000	80.735	2.1324
570.000000	80.694	2.7701
580.000000	80.673	3.4477
590.000000	80.658	4.1368
600.000000	80.640	4.8616
608.000000	80.606	5.2770
615.000000	80.601	5.8086
622.000000	80.575	6.2115
630.000000	80.570	6.7280
640.000000	80.569	7.3622
650.000000	80.558	8.0226
660.000000	80.546	8.7108
670.000000	80.538	9.4172
680.000000	80.533	10.0311
690.000000	80.520	10.7163
700.000000	80.529	11.4206
710.000000	80.526	12.0225
720.000000	80.530	12.7937
730.000000	80.529	13.3770
740.000000	80.541	14.0317
750.000000	80.537	14.7091
762.000000	80.565	15.6036
775.000000	80.576	16.4388
788.000000	80.601	17.3308
800.000000	80.622	18.1177
812.000000	80.655	18.9830
825.000000	80.678	19.8215
838.000000	80.714	20.6748
850.000000	80.759	21.5140
862.000000	80.804	22.2223
875.000000	80.841	23.0984
885.000000	80.879	23.7766
900.000000	80.922	24.7191
912.000000	80.955	25.5085
925.000000	80.984	26.4485
938.000000	80.994	27.9180
950.000000	81.232	29.7399
962.000000	81.444	29.4564
975.000000	81.505	29.6159
988.000000	81.567	30.1337
1000.000000	81.639	30.6426
1015.000000	81.729	31.2859
1030.000000	81.841	31.9227
1044.000000	81.930	32.5429
1060.000000	82.041	33.1076
1075.000000	82.137	33.7304
1090.000000	82.237	34.3015
1106.000000	82.323	34.9087
1120.000000	82.413	35.7672
1138.000000	82.636	37.1810
1150.000000	82.871	37.2916
1172.000000	83.079	36.7398
1180.000000	83.125	36.6945
1206.000000	83.269	36.8528
1220.000000	83.347	37.0215
1241.000000	83.471	37.2754
1250.000000	83.524	37.3541
1265.000000	83.609	37.5352
1280.000000	83.696	37.6512
1315.000000	83.886	38.0428
1320.000000	83.912	38.0687
1340.000000	84.020	38.2481
1360.000000	84.121	38.4980
1380.000000	84.224	38.6651
1400.000000	84.323	38.8454
1430.000000	84.470	39.0344
1450.000000	84.571	39.2620
1475.000000	84.689	39.4840
1500.000000	84.807	39.7015
1525.000000	84.931	39.9247
1550.000000	85.050	40.1418
1575.000000	85.168	40.3731
1600.000000	85.292	40.5435
1625.000000	85.412	40.7491
1650.000000	85.536	40.9176
1675.000000	85.656	41.1540
1700.000000	85.776	41.2765
1725.000000	85.905	41.4647
1750.000000	86.032	41.6017
1775.000000	86.152	41.7507
1800.000000	86.282	41.8729
1825.000000	86.398	41.9658
1850.000000	86.519	42.0790
1875.000000	86.652	42.1125
1900.000000	86.775	42.1794
1925.000000	86.892	42.1844
1950.000000	87.011	42.2495
1975.000000	87.137	42.2791
2000.000000	87.252	42.2911
2030.000000	87.379	42.4073
2060.000000	87.505	42.5777
2090.000000	87.637	42.8955
2120.000000	87.789	43.3389
2140.000000	87.920	43.8070
2180.000000	88.280	44.5741
2200.000000	88.506	44.6683
2240.000000	88.945	43.9213
2270.000000	89.221	42.9452
2300.000000	89.450	41.8257
2330.000000	89.632	40.6680
2360.000000	89.792	39.5809
2400.000000	89.981	38.1722
2430.000000	90.097	37.1875
2470.000000	90.239	35.9766
2500.000000	90.345	35.1856
2540.000000	90.505	34.1776
2580.000000	90.698	33.0890
2620.000000	90.894	31.6559
2650.000000	91.027	30.3703
2690.000000	91.150	28.5062
2720.000000	91.219	27.0896
2760.000000	91.266	25.2659
2800.000000	91.293	23.5279
2850.000000	91.290	21.4736
2900.000000	91.256	19.5543
2950.000000	91.202	17.7731
3000.000000	91.127	16.1443
3040.000000	91.054	14.9836
3070.000000	90.996	14.1752
3110.000000	90.916	13.1278
3150.000000	90.827	12.1949
3200.000000	90.712	11.1117
3250.000000	90.590	10.1619
3300.000000	90.463	9.3483
3350.000000	90.329	8.6362
3400.000000	90.197	8.0939
3450.000000	90.075	7.6337
3500.000000	89.957	7.2965
3550.000000	89.851	7.0128
3600.000000	89.749	6.7800
3650.000000	89.655	6.5792
3700.000000	89.559	6.4193
3750.000000	89.474	6.3374
3820.000000	89.349	6.2695
3870.000000	89.268	6.2576
3950.000000	89.149	6.3860
4000.000000	89.082	6.5015
4060.000000	89.014	6.6937
4120.000000	88.957	6.9236
4180.000000	88.915	7.1947
4250.000000	88.872	7.4744
4310.000000	88.851	7.7460
4370.000000	88.838	7.9579
4440.000000	88.834	8.2217
4500.000000	88.837	8.4138
4550.000000	88.847	8.5634
4620.000000	88.865	8.7297
4680.000000	88.888	8.8280
4750.000000	88.920	8.9074
4820.000000	88.957	8.9509
4870.000000	88.992	8.9164
4940.000000	89.036	8.8426
5000.000000	89.080	8.7146
5080.000000	89.140	8.4758
5150.000000	89.194	8.1564
5220.000000	89.241	7.7451
5300.000000	89.289	7.2413
5380.000000	89.332	6.6288
5450.000000	89.353	6.0382
5520.000000	89.368	5.4308
5600.000000	89.370	4.6967
5700.000000	89.355	3.7837
5800.000000	89.319	2.8496
5900.000000	89.264	2.0057
6000.000000	89.192	1.1998
6080.000000	89.125	0.6234
6150.000000	89.050	0.2285
6220.000000	88.964	-0.0354
6300.000000	88.912	-0.0047
6400.000000	88.850	-0.4993
6500.000000	88.819	-0.3757
6600.000000	88.800	-0.8163
6700.000000	88.760	-1.0457
6800.000000	88.752	-1.1667
6900.000000	88.765	-1.2890
7000.000000	88.807	-1.4471
7100.000000	88.876	-1.7266
7200.000000	88.978	-2.0836
7300.000000	89.109	-2.6993
7400.000000	89.273	-3.6183
7500.000000	89.453	-4.9855
7620.000000	89.670	-7.2518
7750.000000	89.860	-10.5729
7880.000000	89.960	-14.7657
8000.000000	89.921	-19.2701
8120.000000	89.727	-24.0778
8250.000000	89.338	-29.3071
8380.000000	88.751	-34.1901
8500.000000	88.065	-38.1097
8620.000000	87.273	-41.1155
8750.000000	86.335	-43.3597
8850.000000	85.596	-44.2974
9000.000000	84.502	-44.6841
9120.000000	83.652	-44.1290
9250.000000	82.769	-42.8760
9380.000000	81.941	-41.0587
9500.000000	81.242	-38.8853
9620.000000	80.577	-36.4941
9750.000000	79.933	-33.5150
9880.000000	79.346	-30.2887
10000.000000	78.827	-27.0911
10150.000000	78.260	-22.9917
10300.000000	77.773	-18.7919
10440.000000	77.361	-14.2704
10600.000000	76.960	-9.4300
10750.000000	76.657	-4.7069
10900.000000	76.419	0.0587
11060.000000	76.213	5.1749
11200.000000	76.100	9.7488
11380.000000	76.007	15.5553
11500.000000	76.023	19.5345
11720.000000	76.145	26.5421
11800.000000	76.209	29.0720
12060.000000	76.636	37.1306
12200.000000	76.911	41.3827
12410.000000	77.485	47.4344
12500.000000	77.775	49.9426
12650.000000	78.360	53.9183
12800.000000	79.054	57.6055
13150.000000	81.151	63.6792
13200.000000	81.502	64.1751
13400.000000	83.027	64.7374
13600.000000	84.648	63.0348
13800.000000	86.454	59.6284
14000.000000	88.835	51.0498
14300.000000	90.595	15.2095
14500.000000	88.794	-4.3468
14750.000000	86.239	-13.9996
15000.000000	84.389	-16.3828
15250.000000	83.183	-16.2753
15500.000000	82.452	-16.0854
15750.000000	82.095	-17.1932
16000.000000	81.893	-20.8981
16250.000000	81.484	-27.7031
16500.000000	80.541	-36.3990
16750.000000	78.779	-44.8531
17000.000000	76.498	-47.3211
17250.000000	74.334	-46.9503
17500.000000	72.037	-43.4089
17750.000000	69.523	-34.7934
18000.000000	68.410	-10.6217
18250.000000	70.397	-9.5719
18500.000000	69.342	-12.3203
18750.000000	68.228	-8.7432
19000.000000	67.523	-2.7717
19250.000000	67.173	2.9409
19500.000000	67.301	6.4797
19750.000000	67.477	6.1521
