* Measurement data measured by REW V5.30.9
* Source: Headset (Odo By VECLAN.COM), no input selected, L, volume: no control
* Format: 512k Log Swept Sine, 1 sweep at -12.0 dBFS with no timing reference
* Dated: 09 30, 24 3:02:38 PM
* REW Settings:
*  C-weighting compensation: Off
*  Target level: 75.0 dB
* Note: ; 
* Measurement: ea1000 g L
* Smoothing: None
* Frequency Step: 1/48 octave
* Start Frequency: 1.000 Hz
*
* Freq(Hz)	SPL(dB)	Phase(degrees)
1.000000	42.353	-58.0871
1.015000	42.449	-60.2813
1.030000	42.553	-62.4442
1.044000	42.658	-64.4283
1.060000	42.787	-66.6467
1.075000	42.918	-68.6713
1.090000	43.059	-70.6349
1.106000	43.222	-72.6637
1.120000	43.376	-74.4345
1.138000	43.591	-76.7178
1.150000	43.744	-78.2420
1.172000	44.042	-81.0357
1.180000	44.156	-82.0501
1.206000	44.543	-85.3346
1.220000	44.761	-87.0922
1.241000	45.100	-89.7082
1.250000	45.248	-90.8204
1.265000	45.500	-92.6599
1.280000	45.755	-94.4796
1.315000	46.363	-98.6338
1.320000	46.450	-99.2154
1.340000	46.801	-101.5080
1.360000	47.151	-103.7423
1.380000	47.499	-105.9119
1.400000	47.841	-108.0109
1.430000	48.341	-111.0132
1.450000	48.662	-112.9083
1.475000	49.047	-115.1473
1.500000	49.431	-117.2450
1.525000	49.816	-119.2125
1.550000	50.201	-121.0606
1.575000	50.587	-122.8000
1.600000	50.971	-124.4417
1.625000	51.354	-125.9965
1.650000	51.733	-127.4753
1.675000	52.109	-128.8888
1.700000	52.481	-130.2479
1.725000	52.847	-131.5634
1.750000	53.207	-132.8462
1.775000	53.560	-134.1071
1.800000	53.904	-135.3570
1.825000	54.240	-136.6066
1.850000	54.568	-137.8451
1.875000	54.888	-139.0281
1.900000	55.201	-140.1579
1.925000	55.508	-141.2387
1.950000	55.808	-142.2750
1.975000	56.103	-143.2710
2.000000	56.393	-144.2312
2.030000	56.734	-145.3423
2.060000	57.068	-146.4154
2.090000	57.396	-147.4583
2.120000	57.719	-148.4783
2.140000	57.931	-149.1494
2.180000	58.350	-150.4800
2.200000	58.557	-151.1439
2.240000	58.962	-152.4348
2.270000	59.257	-153.3622
2.300000	59.546	-154.2580
2.330000	59.828	-155.1254
2.360000	60.105	-155.9673
2.400000	60.466	-157.0555
2.430000	60.732	-157.8500
2.470000	61.080	-158.8863
2.500000	61.338	-159.6501
2.540000	61.677	-160.6566
2.580000	62.012	-161.6530
2.620000	62.339	-162.6192
2.650000	62.580	-163.3225
2.690000	62.894	-164.2355
2.720000	63.126	-164.9039
2.760000	63.430	-165.7769
2.800000	63.728	-166.6330
2.850000	64.094	-167.6859
2.900000	64.455	-168.7277
2.950000	64.811	-169.7639
3.000000	65.160	-170.7770
3.040000	65.433	-171.5701
3.070000	65.635	-172.1567
3.110000	65.901	-172.9297
3.150000	66.162	-173.6947
3.200000	66.484	-174.6440
3.250000	66.801	-175.5900
3.300000	67.113	-176.5382
3.350000	67.419	-177.4828
3.400000	67.720	-178.4189
3.450000	68.015	-179.3486
3.500000	68.304	179.7263
3.550000	68.589	178.8038
3.600000	68.868	177.8819
3.650000	69.141	176.9588
3.700000	69.410	176.0336
3.750000	69.673	175.1083
3.820000	70.033	173.8143
3.870000	70.284	172.8916
3.950000	70.674	171.4199
4.000000	70.912	170.5037
4.060000	71.190	169.4080
4.120000	71.460	168.3121
4.180000	71.723	167.2183
4.250000	72.021	165.9487
4.310000	72.269	164.8696
4.370000	72.510	163.8022
4.440000	72.784	162.5721
4.500000	73.010	161.5253
4.550000	73.194	160.6596
4.620000	73.443	159.4612
4.680000	73.651	158.4494
4.750000	73.888	157.2908
4.820000	74.117	156.1561
4.870000	74.276	155.3577
4.940000	74.492	154.2577
5.000000	74.672	153.3320
5.080000	74.907	152.1239
5.150000	75.108	151.0927
5.220000	75.304	150.0873
5.300000	75.520	148.9674
5.380000	75.732	147.8748
5.450000	75.914	146.9379
5.520000	76.093	146.0172
5.600000	76.295	144.9921
5.700000	76.541	143.7451
5.800000	76.782	142.5232
5.900000	77.020	141.3152
6.000000	77.253	140.1311
6.080000	77.437	139.1972
6.150000	77.596	138.3847
6.220000	77.752	137.5724
6.300000	77.928	136.6449
6.400000	78.145	135.4918
6.500000	78.357	134.3429
6.600000	78.563	133.1949
6.700000	78.763	132.0453
6.800000	78.958	130.8970
6.900000	79.147	129.7546
7.000000	79.329	128.6214
7.100000	79.505	127.4925
7.200000	79.674	126.3725
7.300000	79.838	125.2689
7.400000	79.996	124.1845
7.500000	80.147	123.1149
7.620000	80.322	121.8567
7.750000	80.504	120.5324
7.880000	80.678	119.2469
8.000000	80.834	118.0926
8.120000	80.986	116.9692
8.250000	81.145	115.7893
8.380000	81.300	114.6397
8.500000	81.441	113.6003
8.620000	81.579	112.5854
8.750000	81.726	111.5053
8.850000	81.837	110.6837
9.000000	82.000	109.4706
9.120000	82.127	108.5133
9.250000	82.262	107.4859
9.380000	82.393	106.4703
9.500000	82.511	105.5436
9.620000	82.626	104.6271
9.750000	82.747	103.6458
9.880000	82.865	102.6780
10.000000	82.970	101.7974
10.150000	83.097	100.7132
10.300000	83.220	99.6477
10.440000	83.332	98.6703
10.600000	83.455	97.5726
10.750000	83.566	96.5612
10.900000	83.674	95.5677
11.060000	83.784	94.5282
11.200000	83.878	93.6352
11.380000	83.994	92.5145
11.500000	84.068	91.7851
11.720000	84.200	90.4863
11.800000	84.247	90.0278
12.060000	84.395	88.5845
12.200000	84.475	87.8344
12.410000	84.594	86.7402
12.500000	84.645	86.2760
12.650000	84.731	85.5127
12.800000	84.817	84.7509
13.150000	85.017	82.9522
13.200000	85.045	82.6915
13.400000	85.155	81.6358
13.600000	85.258	80.5712
13.800000	85.354	79.4983
14.000000	85.442	78.4417
14.300000	85.559	76.9032
14.500000	85.629	75.9324
14.750000	85.712	74.7877
15.000000	85.791	73.7202
15.250000	85.873	72.7151
15.500000	85.956	71.7497
15.750000	86.042	70.8106
16.000000	86.128	69.8815
16.250000	86.214	68.9622
16.500000	86.297	68.0537
16.750000	86.379	67.1609
17.000000	86.458	66.2827
17.250000	86.536	65.4158
17.500000	86.612	64.5546
17.750000	86.684	63.6959
18.000000	86.751	62.8468
18.250000	86.811	62.0154
18.500000	86.866	61.2250
18.750000	86.918	60.4834
19.000000	86.970	59.7971
19.250000	87.026	59.1493
19.500000	87.088	58.5078
19.750000	87.156	57.8471
20.000000	87.225	57.1267
20.299999	87.301	56.1846
20.600000	87.360	55.1880
20.900000	87.398	54.2036
21.200001	87.417	53.3201
21.400000	87.425	52.8210
21.799999	87.453	52.0156
22.000000	87.478	51.6700
22.400000	87.561	50.9490
22.700001	87.641	50.2659
23.000000	87.717	49.4098
23.299999	87.773	48.4349
23.600000	87.803	47.4393
24.000000	87.804	46.2532
24.299999	87.794	45.5626
24.700001	87.794	44.9014
25.000000	87.817	44.5055
25.400000	87.881	43.9447
25.799999	87.962	43.2180
26.200001	88.037	42.3272
26.500000	88.078	41.6122
26.900000	88.116	40.6792
27.200001	88.134	40.0322
27.600000	88.152	39.2506
28.000000	88.167	38.5438
28.500000	88.185	37.7387
29.000000	88.202	37.0121
29.500000	88.222	36.3517
30.000000	88.249	35.7160
30.400000	88.276	35.1902
30.700001	88.297	34.7717
31.100000	88.325	34.1714
31.500000	88.347	33.5243
32.000000	88.364	32.6831
32.500000	88.367	31.8777
33.000000	88.370	31.1577
33.500000	88.386	30.4703
34.000000	88.412	29.6993
34.500000	88.426	28.8290
35.000000	88.416	28.0110
35.500000	88.398	27.4181
36.000000	88.408	27.0076
36.500000	88.452	26.5529
37.000000	88.501	25.9169
37.500000	88.530	25.2128
38.200001	88.555	24.3787
38.700001	88.584	23.7896
39.500000	88.593	22.6342
40.000000	88.556	22.0906
40.599998	88.529	21.8331
41.200001	88.566	21.5507
41.799999	88.606	20.8829
42.500000	88.589	20.0922
43.099998	88.585	19.7244
43.700001	88.621	19.1982
44.400002	88.619	18.2747
45.000000	88.572	17.8373
45.500000	88.579	17.7533
46.200001	88.667	17.2076
46.799999	88.689	16.1603
47.500000	88.605	15.3009
48.200001	88.558	15.1158
48.700001	88.573	14.8844
49.400002	88.567	14.2411
50.000000	88.526	13.9031
50.799999	88.532	13.7653
51.500000	88.583	13.2637
52.200001	88.590	12.5277
53.000000	88.571	11.9147
53.799999	88.573	11.3383
54.500000	88.563	10.7659
55.200001	88.544	10.2882
56.000000	88.528	9.7618
57.000000	88.482	9.1311
58.000000	88.459	8.8138
59.000000	88.478	8.1383
60.000000	88.433	7.3708
60.799999	88.414	7.0142
61.500000	88.420	6.5743
62.200001	88.407	6.0576
63.000000	88.385	5.6034
64.000000	88.368	5.0836
65.000000	88.345	4.6831
66.000000	88.338	4.2884
67.000000	88.315	3.9102
68.000000	88.323	3.5389
69.000000	88.303	2.7836
70.000000	88.235	2.2817
71.000000	88.201	1.9135
72.000000	88.171	1.4786
73.000000	88.145	1.0637
74.000000	88.116	0.6798
75.000000	88.094	0.3457
76.199997	88.065	-0.0681
77.500000	88.034	-0.5676
78.800003	87.986	-1.0112
80.000000	87.954	-1.3901
81.199997	87.941	-1.7756
82.500000	87.900	-2.4499
83.800003	87.842	-2.5419
85.000000	87.868	-2.9426
86.199997	87.784	-3.5521
87.500000	87.735	-3.4951
88.500000	87.728	-3.9280
90.000000	87.664	-4.4309
91.199997	87.615	-5.0307
92.500000	87.542	-5.2281
93.800003	87.527	-5.5511
95.000000	87.478	-5.8071
96.199997	87.450	-5.8033
97.500000	87.439	-6.0485
98.800003	87.389	-6.2288
100.000000	87.351	-6.3954
101.500000	87.326	-6.4964
103.000000	87.307	-6.8621
104.400002	87.306	-7.3097
106.000000	87.237	-7.7698
107.500000	87.205	-7.8406
109.000000	87.180	-8.4069
110.599998	87.106	-8.5511
112.000000	87.073	-8.8961
113.800003	87.010	-9.2980
115.000000	86.973	-9.3989
117.199997	86.897	-9.7338
118.000000	86.894	-9.7004
120.599998	86.810	-10.1870
122.000000	86.770	-10.2827
124.099998	86.731	-10.4478
125.000000	86.721	-10.6772
126.500000	86.645	-10.7782
128.000000	86.656	-11.1793
131.500000	86.493	-11.5506
132.000000	86.456	-11.4064
134.000000	86.473	-11.5939
136.000000	86.359	-11.8217
138.000000	86.346	-12.0444
140.000000	86.272	-12.1174
143.000000	86.199	-12.3908
145.000000	86.188	-12.4274
147.500000	86.088	-12.2207
150.000000	86.021	-12.6161
152.500000	85.946	-12.6049
155.000000	85.944	-12.8187
157.500000	85.785	-13.2278
160.000000	85.828	-12.9672
162.500000	85.774	-13.0222
165.000000	85.672	-13.3853
167.500000	85.611	-13.5802
170.000000	85.548	-13.1845
172.500000	85.479	-13.4766
175.000000	85.441	-13.3887
177.500000	85.394	-13.6875
180.000000	85.310	-13.2828
182.500000	85.260	-13.3185
185.000000	85.201	-13.4897
187.500000	85.155	-13.5203
190.000000	85.110	-13.3574
192.500000	85.096	-13.3457
195.000000	84.978	-13.6235
197.500000	84.965	-13.5912
200.000000	84.933	-13.6488
203.000000	84.896	-13.2262
206.000000	84.799	-13.4999
209.000000	84.754	-13.1199
212.000000	84.691	-13.0658
214.000000	84.690	-13.1447
218.000000	84.604	-13.0432
220.000000	84.547	-12.9843
224.000000	84.489	-12.8456
227.000000	84.432	-12.8835
230.000000	84.381	-12.6038
233.000000	84.333	-12.4850
236.000000	84.297	-12.4036
240.000000	84.254	-12.3695
243.000000	84.192	-12.2815
247.000000	84.119	-12.1379
250.000000	84.076	-12.0200
254.000000	84.043	-11.7566
258.000000	83.950	-11.5810
262.000000	83.917	-11.3618
265.000000	83.875	-11.1017
269.000000	83.815	-11.0326
272.000000	83.768	-10.8333
276.000000	83.739	-10.7132
280.000000	83.658	-10.5273
285.000000	83.609	-10.2772
290.000000	83.539	-10.0255
295.000000	83.487	-9.7621
300.000000	83.436	-9.5305
304.000000	83.390	-9.2000
307.000000	83.358	-9.0618
311.000000	83.328	-8.8713
315.000000	83.287	-8.5935
320.000000	83.240	-8.2147
325.000000	83.186	-8.0176
330.000000	83.140	-7.6407
335.000000	83.098	-7.4576
340.000000	83.055	-6.9373
345.000000	83.015	-6.6763
350.000000	82.984	-6.3681
355.000000	82.923	-6.1676
360.000000	82.895	-5.8340
365.000000	82.831	-5.5032
370.000000	82.818	-5.2906
375.000000	82.787	-4.9412
382.000000	82.754	-4.4583
387.000000	82.697	-4.0849
395.000000	82.643	-3.4468
400.000000	82.579	-3.1870
406.000000	82.590	-2.7227
412.000000	82.551	-2.3108
418.000000	82.515	-1.9240
425.000000	82.477	-1.4315
431.000000	82.451	-1.0865
437.000000	82.425	-0.6553
444.000000	82.382	-0.1995
450.000000	82.360	0.1967
455.000000	82.344	0.6188
462.000000	82.312	1.0801
468.000000	82.294	1.4635
475.000000	82.266	1.9264
482.000000	82.231	2.4637
487.000000	82.227	2.7910
494.000000	82.207	3.2043
500.000000	82.163	3.6666
508.000000	82.163	4.2972
515.000000	82.132	4.7864
522.000000	82.109	5.0704
530.000000	82.116	5.7131
538.000000	82.104	6.3668
545.000000	82.077	6.7910
552.000000	82.071	7.2802
560.000000	82.070	7.9320
570.000000	82.041	8.6306
580.000000	82.024	9.2094
590.000000	82.032	9.9048
600.000000	82.037	10.7164
608.000000	82.020	11.2710
615.000000	82.035	11.5499
622.000000	82.025	12.0439
630.000000	82.023	12.6748
640.000000	82.035	13.2499
650.000000	82.037	14.0533
660.000000	82.052	14.8000
670.000000	82.066	15.4375
680.000000	82.063	16.0686
690.000000	82.082	16.7401
700.000000	82.102	17.3965
710.000000	82.121	18.0455
720.000000	82.149	18.7350
730.000000	82.161	19.4185
740.000000	82.183	20.0460
750.000000	82.223	20.7483
762.000000	82.247	21.5485
775.000000	82.295	22.3431
788.000000	82.335	23.1877
800.000000	82.365	23.9501
812.000000	82.425	24.8498
825.000000	82.474	25.6984
838.000000	82.524	26.5571
850.000000	82.584	27.3528
862.000000	82.636	28.0679
875.000000	82.708	28.8377
885.000000	82.763	29.5098
900.000000	82.863	30.4392
912.000000	82.933	31.1767
925.000000	83.019	31.9069
938.000000	83.123	32.4814
950.000000	83.216	33.2093
962.000000	83.313	33.6590
975.000000	83.437	34.1559
988.000000	83.515	34.1851
1000.000000	83.405	34.5762
1015.000000	83.539	36.4500
1030.000000	83.711	37.2138
1044.000000	83.860	37.8431
1060.000000	84.007	38.3800
1075.000000	84.112	38.8184
1090.000000	84.238	39.7121
1106.000000	84.408	40.2448
1120.000000	84.541	40.6222
1138.000000	84.713	41.0841
1150.000000	84.827	41.4054
1172.000000	85.004	41.7781
1180.000000	85.087	41.9508
1206.000000	85.313	42.4060
1220.000000	85.424	42.6310
1241.000000	85.600	42.8563
1250.000000	85.667	43.0737
1265.000000	85.791	43.2554
1280.000000	85.910	43.4501
1315.000000	86.177	43.8456
1320.000000	86.215	43.8610
1340.000000	86.372	44.1173
1360.000000	86.525	44.3004
1380.000000	86.674	44.4302
1400.000000	86.824	44.5369
1430.000000	87.037	44.7585
1450.000000	87.187	44.8668
1475.000000	87.367	45.0020
1500.000000	87.536	45.1061
1525.000000	87.717	45.2214
1550.000000	87.907	45.3044
1575.000000	88.086	45.3688
1600.000000	88.277	45.4586
1625.000000	88.462	45.4460
1650.000000	88.645	45.3973
1675.000000	88.842	45.4132
1700.000000	89.035	45.3330
1725.000000	89.229	45.2101
1750.000000	89.421	45.0691
1775.000000	89.626	44.9212
1800.000000	89.826	44.6783
1825.000000	90.028	44.4203
1850.000000	90.250	44.1354
1875.000000	90.456	43.7076
1900.000000	90.682	43.2747
1925.000000	90.895	42.7250
1950.000000	91.120	42.0447
1975.000000	91.337	41.3257
2000.000000	91.552	40.4467
2030.000000	91.808	39.2300
2060.000000	92.038	37.8394
2090.000000	92.242	36.3205
2120.000000	92.421	34.7167
2140.000000	92.523	33.6016
2180.000000	92.688	31.3592
2200.000000	92.745	30.2866
2240.000000	92.839	28.3060
2270.000000	92.897	26.9736
2300.000000	92.966	25.7786
2330.000000	93.059	24.5548
2360.000000	93.158	23.1647
2400.000000	93.272	21.1108
2430.000000	93.327	19.4225
2470.000000	93.374	17.1754
2500.000000	93.386	15.4031
2540.000000	93.356	13.0336
2580.000000	93.270	10.7659
2620.000000	93.145	8.7213
2650.000000	93.030	7.3347
2690.000000	92.867	5.7510
2720.000000	92.742	4.6816
2760.000000	92.574	3.3488
2800.000000	92.395	2.2045
2850.000000	92.157	0.9984
2900.000000	91.922	0.0483
2950.000000	91.696	-0.6267
3000.000000	91.479	-1.1500
3040.000000	91.301	-1.4158
3070.000000	91.182	-1.5355
3110.000000	91.027	-1.5497
3150.000000	90.890	-1.4581
3200.000000	90.767	-1.2407
3250.000000	90.678	-1.1601
3300.000000	90.579	-1.2094
3350.000000	90.486	-1.2918
3400.000000	90.386	-1.3307
3450.000000	90.281	-1.3459
3500.000000	90.175	-1.2118
3550.000000	90.082	-1.0294
3600.000000	90.001	-0.8357
3650.000000	89.932	-0.5555
3700.000000	89.871	-0.3240
3750.000000	89.825	-0.0342
3820.000000	89.768	0.2927
3870.000000	89.740	0.5281
3950.000000	89.703	0.9585
4000.000000	89.693	1.1885
4060.000000	89.690	1.4367
4120.000000	89.694	1.6297
4180.000000	89.712	1.7942
4250.000000	89.735	1.9034
4310.000000	89.767	1.9688
4370.000000	89.801	1.9423
4440.000000	89.845	1.8320
4500.000000	89.883	1.6492
4550.000000	89.916	1.4655
4620.000000	89.964	1.1094
4680.000000	89.996	0.7167
4750.000000	90.028	0.1827
4820.000000	90.056	-0.4611
4870.000000	90.067	-0.9348
4940.000000	90.067	-1.6913
5000.000000	90.060	-2.3701
5080.000000	90.026	-3.3248
5150.000000	89.986	-4.1956
5220.000000	89.926	-5.0435
5300.000000	89.834	-6.0305
5380.000000	89.722	-6.9250
5450.000000	89.604	-7.6561
5520.000000	89.474	-8.3067
5600.000000	89.312	-8.9512
5700.000000	89.095	-9.5674
5800.000000	88.866	-9.9203
5900.000000	88.634	-10.0486
6000.000000	88.387	-9.9562
6080.000000	88.184	-9.5992
6150.000000	88.004	-8.8488
6220.000000	87.966	-7.7136
6300.000000	87.967	-7.4732
6400.000000	87.851	-7.2378
6500.000000	87.734	-6.5923
6600.000000	87.661	-5.7902
6700.000000	87.625	-4.8657
6800.000000	87.633	-3.9868
6900.000000	87.680	-3.1327
7000.000000	87.773	-2.3725
7100.000000	87.913	-1.7631
7200.000000	88.104	-1.3777
7300.000000	88.335	-1.2703
7400.000000	88.609	-1.6385
7500.000000	88.910	-2.5300
7620.000000	89.288	-4.4484
7750.000000	89.672	-7.7079
7880.000000	89.952	-12.2839
8000.000000	90.058	-17.5524
8120.000000	89.941	-23.4535
8250.000000	89.527	-29.8018
8380.000000	88.860	-35.4860
8500.000000	88.072	-39.7040
8620.000000	87.171	-42.7417
8750.000000	86.150	-44.7820
8850.000000	85.354	-45.5040
9000.000000	84.197	-45.3271
9120.000000	83.325	-44.3210
9250.000000	82.443	-42.6279
9380.000000	81.630	-40.3380
9500.000000	80.947	-37.8028
9620.000000	80.312	-35.0759
9750.000000	79.688	-31.8868
9880.000000	79.117	-28.4200
10000.000000	78.671	-25.1373
10150.000000	78.132	-20.9225
10300.000000	77.641	-16.4257
10440.000000	77.288	-12.3466
10600.000000	76.866	-7.3040
10750.000000	76.573	-2.4053
10900.000000	76.363	2.5867
11060.000000	76.178	7.9531
11200.000000	76.104	12.7400
11380.000000	76.082	18.7455
11500.000000	76.122	22.7111
11720.000000	76.330	29.6108
11800.000000	76.439	32.2082
12060.000000	76.919	39.9997
12200.000000	77.233	44.1044
12410.000000	77.865	49.7650
12500.000000	78.201	52.0670
12650.000000	78.818	55.7183
12800.000000	79.534	58.9240
13150.000000	81.679	64.1708
13200.000000	82.048	64.5788
13400.000000	83.642	64.8824
13600.000000	85.500	62.7247
13800.000000	87.754	56.0408
14000.000000	90.031	39.0073
14300.000000	89.399	0.6345
14500.000000	87.062	-12.5277
14750.000000	84.503	-17.9290
15000.000000	82.635	-18.1406
15250.000000	81.329	-16.6175
15500.000000	80.434	-14.6741
15750.000000	79.850	-13.4138
16000.000000	79.429	-13.3422
16250.000000	79.069	-14.5857
16500.000000	78.577	-17.9369
16750.000000	77.765	-21.9178
17000.000000	76.614	-25.2203
17250.000000	75.197	-27.0450
17500.000000	73.683	-26.7228
17750.000000	72.156	-24.4520
18000.000000	70.690	-20.6290
18250.000000	69.320	-15.4447
18500.000000	68.027	-8.5618
18750.000000	67.096	1.1548
19000.000000	67.087	11.6075
19250.000000	67.521	15.2740
19500.000000	67.752	16.0554
19750.000000	67.836	14.1564
