* Measurement data measured by REW V5.30.9
* Source: Microphone (Realtek USB2.0 Audio), MICROPHONE (Master Volume), L, volume: 0.500
* Format: 512k Log Swept Sine, 1 sweep at -12.0 dBFS with no timing reference
* Dated: 04 30, 24 8:14:24 PM
* REW Settings:
*  C-weighting compensation: Off
*  Target level: 75.0 dB
* Note: ; 
* Measurement: ea500lm b R
* Smoothing: None
* Frequency Step: 1/48 octave
* Start Frequency: 1.000 Hz
*
* Freq(Hz)	SPL(dB)	Phase(degrees)
1.000000	48.398	-57.5938
1.015000	48.090	-57.7135
1.030000	47.746	-57.6474
1.044000	47.391	-57.5231
1.060000	46.950	-57.3144
1.075000	46.508	-57.0616
1.090000	46.042	-56.7607
1.106000	45.523	-56.3946
1.120000	45.055	-56.0425
1.138000	44.440	-55.5561
1.150000	44.025	-55.2162
1.172000	43.262	-54.5742
1.180000	42.986	-54.3382
1.206000	42.106	-53.5788
1.220000	41.648	-53.1841
1.241000	40.992	-52.6264
1.250000	40.724	-52.4042
1.265000	40.301	-52.0616
1.280000	39.908	-51.7601
1.315000	39.139	-51.2556
1.320000	39.048	-51.2101
1.340000	38.739	-51.1050
1.360000	38.514	-48.5239
1.380000	38.348	-44.0771
1.400000	38.236	-38.7929
1.430000	38.162	-29.5745
1.450000	38.169	-22.7527
1.475000	38.235	-13.6882
1.500000	38.357	-4.2583
1.525000	38.529	5.2891
1.550000	38.742	14.7057
1.575000	38.989	23.7434
1.600000	39.264	32.1541
1.625000	39.558	39.6897
1.650000	39.864	46.1021
1.675000	40.175	51.1432
1.700000	40.504	54.7380
1.725000	40.899	57.3017
1.750000	41.353	58.9718
1.775000	41.855	59.8618
1.800000	42.394	60.0850
1.825000	42.959	59.7547
1.850000	43.539	58.9845
1.875000	44.123	57.8876
1.900000	44.700	56.5775
1.925000	45.259	55.1675
1.950000	45.788	53.7710
1.975000	46.278	52.5014
2.000000	46.716	51.4722
2.030000	47.163	50.6543
2.060000	47.551	49.8071
2.090000	47.896	48.8011
2.120000	48.202	47.6609
2.140000	48.387	46.8383
2.180000	48.722	45.0759
2.200000	48.875	44.1507
2.240000	49.161	42.2484
2.270000	49.365	40.8050
2.300000	49.565	39.3744
2.330000	49.769	37.9813
2.360000	49.982	36.6485
2.400000	50.254	34.8639
2.430000	50.443	33.4888
2.470000	50.678	31.6245
2.500000	50.845	30.2153
2.540000	51.060	28.3399
2.580000	51.269	26.4890
2.620000	51.480	24.6851
2.650000	51.642	23.3763
2.690000	51.868	21.7084
2.720000	52.042	20.4958
2.760000	52.271	18.8803
2.800000	52.499	17.2866
2.850000	52.785	15.3597
2.900000	53.076	13.5464
2.950000	53.376	11.8910
3.000000	53.689	10.4374
3.040000	53.951	9.4449
3.070000	54.152	8.7660
3.110000	54.428	7.9349
3.150000	54.710	7.2021
3.200000	55.072	6.4479
3.250000	55.443	5.9011
3.300000	55.822	5.5915
3.350000	56.210	5.5490
3.400000	56.607	5.7923
3.450000	57.015	6.2982
3.500000	57.434	7.0508
3.550000	57.860	8.0352
3.600000	58.291	9.2365
3.650000	58.725	10.6398
3.700000	59.160	12.2302
3.750000	59.598	14.0935
3.820000	60.221	17.2165
3.870000	60.670	19.6933
3.950000	61.389	23.8350
4.000000	61.835	26.3959
4.060000	62.365	29.3279
4.120000	62.894	32.3466
4.180000	63.421	35.4311
4.250000	64.032	38.9544
4.310000	64.547	41.7738
4.370000	65.054	44.2826
4.440000	65.633	46.8142
4.500000	66.122	48.7458
4.550000	66.525	50.1919
4.620000	67.077	51.9733
4.680000	67.539	53.2804
4.750000	68.064	54.5367
4.820000	68.576	55.4481
4.870000	68.933	55.9224
4.940000	69.421	56.3992
5.000000	69.828	56.6872
5.080000	70.354	56.9624
5.150000	70.799	57.0104
5.220000	71.229	56.8975
5.300000	71.705	56.6409
5.380000	72.164	56.3258
5.450000	72.551	55.9943
5.520000	72.925	55.5693
5.600000	73.337	55.0212
5.700000	73.832	54.3323
5.800000	74.307	53.6811
5.900000	74.758	53.0119
6.000000	75.192	52.3798
6.080000	75.531	51.9387
6.150000	75.818	51.5947
6.220000	76.098	51.2820
6.300000	76.411	50.9614
6.400000	76.798	50.6132
6.500000	77.179	50.3405
6.600000	77.552	50.1290
6.700000	77.924	49.9378
6.800000	78.297	49.7473
6.900000	78.670	49.5805
7.000000	79.044	49.4073
7.100000	79.421	49.1983
7.200000	79.801	48.9724
7.300000	80.184	48.7157
7.400000	80.567	48.3999
7.500000	80.951	48.0132
7.620000	81.413	47.4741
7.750000	81.909	46.8116
7.880000	82.398	46.0612
8.000000	82.842	45.3032
8.120000	83.274	44.5078
8.250000	83.730	43.5899
8.380000	84.170	42.6455
8.500000	84.560	41.7727
8.620000	84.935	40.8880
8.750000	85.326	39.9531
8.850000	85.616	39.2593
9.000000	86.031	38.2510
9.120000	86.353	37.4841
9.250000	86.688	36.6923
9.380000	87.014	35.9435
9.500000	87.309	35.2974
9.620000	87.598	34.6945
9.750000	87.908	34.0696
9.880000	88.216	33.4709
10.000000	88.498	32.9393
10.150000	88.848	32.2696
10.300000	89.196	31.5973
10.440000	89.516	30.9591
10.600000	89.877	30.2109
10.750000	90.206	29.4946
10.900000	90.524	28.7580
11.060000	90.851	27.9624
11.200000	91.123	27.2756
11.380000	91.455	26.4075
11.500000	91.666	25.8704
11.720000	92.028	24.9668
11.800000	92.155	24.6769
12.060000	92.549	23.8789
12.200000	92.757	23.5392
12.410000	93.065	23.1433
12.500000	93.199	23.0061
12.650000	93.424	22.8309
12.800000	93.653	22.6681
13.150000	94.187	22.2526
13.200000	94.233	22.1731
13.400000	94.352	21.8077
13.600000	94.418	21.3733
13.800000	94.448	20.8691
14.000000	94.476	20.2868
14.300000	94.502	19.3264
14.500000	94.503	18.6874
14.750000	94.479	17.9823
15.000000	94.449	17.3741
15.250000	94.424	16.8416
15.500000	94.410	16.3681
15.750000	94.400	15.9513
16.000000	94.406	15.4799
16.250000	94.425	14.9113
16.500000	94.447	14.2339
16.750000	94.450	13.5017
17.000000	94.439	12.7469
17.250000	94.416	12.0272
17.500000	94.382	11.4047
17.750000	94.337	10.9667
18.000000	94.306	10.6837
18.250000	94.300	10.5058
18.500000	94.324	10.3709
18.750000	94.372	10.1915
19.000000	94.440	9.8599
19.250000	94.517	9.3438
19.500000	94.587	8.6425
19.750000	94.627	7.8400
20.000000	94.638	7.0217
20.299999	94.618	6.1432
20.600000	94.572	5.5253
20.900000	94.524	5.2359
21.200001	94.507	5.1835
21.400000	94.522	5.1988
21.799999	94.598	5.1078
22.000000	94.650	4.8986
22.400000	94.748	4.1075
22.700001	94.781	3.3073
23.000000	94.771	2.4836
23.299999	94.726	1.7686
23.600000	94.660	1.2799
24.000000	94.578	1.0000
24.299999	94.547	0.9154
24.700001	94.544	0.7439
25.000000	94.554	0.4452
25.400000	94.556	-0.2192
25.799999	94.511	-0.9616
26.200001	94.432	-1.5482
26.500000	94.370	-1.7910
26.900000	94.310	-1.8880
27.200001	94.300	-1.9413
27.600000	94.323	-2.1907
28.000000	94.352	-2.7530
28.500000	94.351	-3.8106
29.000000	94.279	-4.7976
29.500000	94.184	-5.4422
30.000000	94.111	-5.8031
30.400000	94.077	-6.1099
30.700001	94.053	-6.3795
31.100000	94.009	-6.7478
31.500000	93.958	-7.0264
32.000000	93.906	-7.1544
32.500000	93.901	-7.2636
33.000000	93.918	-7.5908
33.500000	93.923	-8.1976
34.000000	93.891	-8.8245
34.500000	93.848	-9.3543
35.000000	93.805	-9.8052
35.500000	93.765	-10.2853
36.000000	93.713	-10.6912
36.500000	93.670	-10.9815
37.000000	93.652	-11.2173
37.500000	93.658	-11.6332
38.200001	93.629	-12.5049
38.700001	93.566	-13.0325
39.500000	93.470	-13.3506
40.000000	93.451	-13.4895
40.599998	93.438	-13.8935
41.200001	93.393	-14.3564
41.799999	93.340	-14.6515
42.500000	93.312	-14.9917
43.099998	93.283	-15.5299
43.700001	93.209	-16.0664
44.400002	93.123	-16.2624
45.000000	93.109	-16.3774
45.500000	93.110	-16.7481
46.200001	93.064	-17.4236
46.799999	93.003	-17.7490
47.500000	92.969	-18.0164
48.200001	92.935	-18.4740
48.700001	92.891	-18.7280
49.400002	92.854	-18.9184
50.000000	92.839	-19.2776
50.799999	92.757	-19.8561
51.500000	92.681	-19.9318
52.200001	92.668	-20.1378
53.000000	92.599	-20.8364
53.799999	92.482	-21.0145
54.500000	92.461	-21.0379
55.200001	92.447	-21.5596
56.000000	92.359	-22.2106
57.000000	92.234	-22.5707
58.000000	92.167	-22.5240
59.000000	92.204	-23.1605
60.000000	92.039	-24.3128
60.799999	91.888	-23.8458
61.500000	91.926	-23.4208
62.200001	91.977	-23.9018
63.000000	91.916	-24.7287
64.000000	91.756	-25.2273
65.000000	91.585	-24.9854
66.000000	91.576	-24.5504
67.000000	91.555	-25.3733
68.000000	91.423	-25.7991
69.000000	91.351	-26.5724
70.000000	91.019	-26.7726
71.000000	90.988	-24.2028
72.000000	91.344	-24.5518
73.000000	91.240	-26.7000
74.000000	90.937	-26.6544
75.000000	90.816	-25.9499
76.199997	90.792	-25.8766
77.500000	90.687	-27.9566
78.800003	90.218	-26.3085
80.000000	90.770	-25.3527
81.199997	90.583	-27.1698
82.500000	90.770	-24.5033
83.800003	90.723	-25.7743
85.000000	90.543	-24.3863
86.199997	90.455	-24.7010
87.500000	90.262	-25.0573
88.500000	90.157	-25.8988
90.000000	90.132	-25.2704
91.199997	90.384	-26.6200
92.500000	90.439	-26.9713
93.800003	90.397	-28.6656
95.000000	90.218	-27.6440
96.199997	90.146	-28.5576
97.500000	90.037	-27.5930
98.800003	90.059	-29.0212
100.000000	90.017	-28.6121
101.500000	89.991	-29.3433
103.000000	89.839	-28.7916
104.400002	89.648	-28.3581
106.000000	89.553	-29.2679
107.500000	89.182	-29.2267
109.000000	89.394	-30.2470
110.599998	89.383	-30.0583
112.000000	89.127	-30.7035
113.800003	89.417	-28.8799
115.000000	89.032	-31.0399
117.199997	88.918	-26.6258
118.000000	89.096	-29.0361
120.599998	88.667	-30.5688
122.000000	88.565	-27.1096
124.099998	88.845	-27.9916
125.000000	88.965	-28.0475
126.500000	88.766	-30.8964
128.000000	88.566	-29.4258
131.500000	88.582	-27.2092
132.000000	88.633	-27.4578
134.000000	88.634	-27.6903
136.000000	88.459	-30.1176
138.000000	88.412	-29.1135
140.000000	88.169	-29.7050
143.000000	88.316	-30.0203
145.000000	87.692	-30.2252
147.500000	87.853	-29.3056
150.000000	87.576	-30.7037
152.500000	87.820	-26.8693
155.000000	87.758	-27.0226
157.500000	87.430	-25.4013
160.000000	87.711	-26.3203
162.500000	87.507	-26.7136
165.000000	87.531	-27.9238
167.500000	87.645	-26.3546
170.000000	87.456	-27.0477
172.500000	87.462	-27.0997
175.000000	87.425	-27.3032
177.500000	87.299	-27.3160
180.000000	87.297	-27.0477
182.500000	87.142	-27.1937
185.000000	87.068	-26.7579
187.500000	87.006	-26.6736
190.000000	86.916	-26.8476
192.500000	86.805	-26.9824
195.000000	86.770	-26.7399
197.500000	86.710	-26.6631
200.000000	86.625	-26.5015
203.000000	86.545	-26.3809
206.000000	86.475	-26.2044
209.000000	86.400	-26.0492
212.000000	86.321	-25.7940
214.000000	86.276	-25.7138
218.000000	86.201	-25.4584
220.000000	86.159	-25.3123
224.000000	86.079	-25.0473
227.000000	86.022	-24.7727
230.000000	85.961	-24.5500
233.000000	85.900	-24.3440
236.000000	85.839	-24.0945
240.000000	85.771	-23.8136
243.000000	85.714	-23.4927
247.000000	85.645	-23.2143
250.000000	85.602	-22.9612
254.000000	85.533	-22.6265
258.000000	85.467	-22.3199
262.000000	85.411	-21.9662
265.000000	85.371	-21.8177
269.000000	85.300	-21.4325
272.000000	85.248	-21.1694
276.000000	85.200	-20.8645
280.000000	85.133	-20.4781
285.000000	85.049	-20.0148
290.000000	84.986	-19.5857
295.000000	84.906	-19.1592
300.000000	84.853	-18.7999
304.000000	84.799	-18.3478
307.000000	84.767	-18.1377
311.000000	84.721	-17.7930
315.000000	84.681	-17.4009
320.000000	84.627	-17.0054
325.000000	84.581	-16.6136
330.000000	84.525	-16.1964
335.000000	84.479	-15.7395
340.000000	84.419	-15.3014
345.000000	84.371	-14.8496
350.000000	84.318	-14.4230
355.000000	84.275	-13.9630
360.000000	84.228	-13.4567
365.000000	84.217	-13.1104
370.000000	84.163	-12.7792
375.000000	84.127	-12.3751
382.000000	84.073	-11.7169
387.000000	84.046	-11.2801
395.000000	83.981	-10.6626
400.000000	83.947	-10.2671
406.000000	83.913	-9.7043
412.000000	83.866	-9.1935
418.000000	83.837	-8.7604
425.000000	83.798	-8.1816
431.000000	83.757	-7.6955
437.000000	83.716	-7.1525
444.000000	83.672	-6.5818
450.000000	83.653	-6.1099
455.000000	83.648	-5.7757
462.000000	83.619	-5.1494
468.000000	83.593	-4.7044
475.000000	83.559	-4.1363
482.000000	83.541	-3.5345
487.000000	83.532	-3.1746
494.000000	83.502	-2.6706
500.000000	83.488	-2.1746
508.000000	83.467	-1.5079
515.000000	83.440	-0.9527
522.000000	83.422	-0.3930
530.000000	83.411	0.1854
538.000000	83.383	0.7641
545.000000	83.374	1.3170
552.000000	83.356	1.9362
560.000000	83.334	2.5469
570.000000	83.316	3.2598
580.000000	83.302	4.0120
590.000000	83.291	4.7997
600.000000	83.271	5.5536
608.000000	83.263	6.2607
615.000000	83.255	6.7169
622.000000	83.252	7.2098
630.000000	83.252	7.8555
640.000000	83.247	8.5967
650.000000	83.240	9.4009
660.000000	83.231	10.1223
670.000000	83.237	10.8832
680.000000	83.237	11.6306
690.000000	83.238	12.3817
700.000000	83.257	13.1156
710.000000	83.276	13.9086
720.000000	83.283	14.6566
730.000000	83.305	15.4550
740.000000	83.324	16.1280
750.000000	83.348	16.9078
762.000000	83.374	17.7879
775.000000	83.393	18.8485
788.000000	83.431	19.7767
800.000000	83.460	20.6261
812.000000	83.498	21.5955
825.000000	83.527	22.5299
838.000000	83.595	23.4480
850.000000	83.657	24.3213
862.000000	83.708	25.1716
875.000000	83.760	26.0993
885.000000	83.798	26.8364
900.000000	83.893	27.8544
912.000000	83.961	28.6244
925.000000	84.047	29.4471
938.000000	84.118	30.3527
950.000000	84.183	31.1341
962.000000	84.262	31.8544
975.000000	84.364	32.6143
988.000000	84.460	33.3248
1000.000000	84.551	34.0459
1015.000000	84.657	34.8685
1030.000000	84.784	35.6184
1044.000000	84.898	36.2940
1060.000000	85.034	37.0490
1075.000000	85.155	37.7152
1090.000000	85.287	38.3386
1106.000000	85.423	38.8937
1120.000000	85.553	39.4341
1138.000000	85.704	39.9919
1150.000000	85.801	40.3773
1172.000000	85.970	40.9871
1180.000000	86.032	41.1833
1206.000000	86.233	41.8532
1220.000000	86.336	42.1158
1241.000000	86.490	42.5769
1250.000000	86.558	42.7598
1265.000000	86.675	43.0863
1280.000000	86.787	43.3289
1315.000000	87.047	44.0098
1320.000000	87.081	44.1372
1340.000000	87.225	44.4137
1360.000000	87.354	44.8133
1380.000000	87.496	45.1037
1400.000000	87.633	45.4609
1430.000000	87.836	45.8657
1450.000000	87.963	46.2278
1475.000000	88.116	46.5919
1500.000000	88.293	46.9897
1525.000000	88.468	47.3062
1550.000000	88.631	47.6920
1575.000000	88.798	48.0211
1600.000000	88.963	48.3888
1625.000000	89.132	48.7170
1650.000000	89.304	49.0275
1675.000000	89.481	49.2827
1700.000000	89.656	49.5412
1725.000000	89.825	49.8265
1750.000000	89.997	50.0686
1775.000000	90.179	50.2961
1800.000000	90.371	50.4498
1825.000000	90.566	50.6499
1850.000000	90.758	50.7425
1875.000000	90.949	50.8622
1900.000000	91.133	50.9348
1925.000000	91.318	50.9719
1950.000000	91.514	50.9854
1975.000000	91.720	50.9124
2000.000000	91.915	50.8291
2030.000000	92.155	50.6939
2060.000000	92.386	50.5015
2090.000000	92.621	50.2561
2120.000000	92.871	49.8899
2140.000000	93.030	49.6069
2180.000000	93.351	48.9914
2200.000000	93.497	48.6368
2240.000000	93.777	47.9745
2270.000000	93.998	47.3154
2300.000000	94.213	46.8177
2330.000000	94.449	46.3167
2360.000000	94.698	45.6972
2400.000000	95.086	44.3931
2430.000000	95.354	43.1462
2470.000000	95.615	41.1821
2500.000000	95.765	39.8303
2540.000000	95.959	37.9478
2580.000000	96.163	36.0657
2620.000000	96.360	34.3197
2650.000000	96.501	32.7986
2690.000000	96.671	30.6214
2720.000000	96.779	28.7466
2760.000000	96.854	26.5263
2800.000000	96.894	23.9488
2850.000000	96.855	21.4011
2900.000000	96.780	18.6191
2950.000000	96.693	16.5799
3000.000000	96.519	14.3588
3040.000000	96.379	13.2011
3070.000000	96.323	12.1110
3110.000000	96.160	11.1759
3150.000000	96.010	9.8069
3200.000000	95.729	9.0138
3250.000000	95.541	8.2033
3300.000000	95.369	8.2832
3350.000000	95.123	7.8921
3400.000000	94.975	7.2311
3450.000000	94.830	6.9858
3500.000000	94.742	7.7385
3550.000000	94.654	7.1016
3600.000000	94.504	8.0499
3650.000000	94.349	7.3770
3700.000000	94.311	7.1411
3750.000000	94.140	8.3125
3820.000000	94.079	8.2139
3870.000000	94.031	9.1672
3950.000000	94.003	9.5977
4000.000000	93.781	9.6168
4060.000000	93.671	10.4839
4120.000000	93.835	10.3351
4180.000000	93.811	11.4604
4250.000000	93.818	12.2165
4310.000000	93.890	13.3564
4370.000000	93.878	12.4249
4440.000000	93.917	13.1648
4500.000000	93.966	13.6567
4550.000000	94.050	13.6136
4620.000000	94.259	14.4731
4680.000000	94.247	14.1253
4750.000000	94.429	14.7673
4820.000000	94.468	13.5767
4870.000000	94.635	13.5181
4940.000000	94.815	13.4576
5000.000000	95.012	12.5563
5080.000000	95.020	12.0672
5150.000000	95.100	11.3791
5220.000000	95.178	9.9086
5300.000000	95.162	8.6866
5380.000000	95.087	7.1794
5450.000000	95.287	6.2826
5520.000000	95.221	5.0294
5600.000000	95.260	3.1267
5700.000000	94.998	0.5753
5800.000000	94.802	-0.6134
5900.000000	94.683	-2.0511
6000.000000	94.513	-3.7817
6080.000000	94.208	-4.8230
6150.000000	93.912	-4.8401
6220.000000	93.727	-5.7073
6300.000000	93.632	-5.5169
6400.000000	93.534	-6.1229
6500.000000	93.263	-6.7553
6600.000000	93.199	-5.0859
6700.000000	93.215	-5.7348
6800.000000	93.247	-5.5258
6900.000000	93.162	-4.4746
7000.000000	93.064	-4.8033
7100.000000	93.259	-4.9271
7200.000000	93.485	-4.5752
7300.000000	93.729	-5.4964
7400.000000	93.867	-4.9544
7500.000000	94.268	-7.4115
7620.000000	94.733	-8.2371
7750.000000	95.061	-12.4781
7880.000000	95.513	-18.5384
8000.000000	95.956	-23.8547
8120.000000	95.585	-31.2158
8250.000000	94.940	-38.7057
8380.000000	93.987	-45.3240
8500.000000	93.069	-50.4191
8620.000000	91.752	-53.0151
8750.000000	90.693	-54.4940
8850.000000	89.708	-54.9339
9000.000000	88.408	-54.7801
9120.000000	87.515	-52.2641
9250.000000	86.531	-50.4519
9380.000000	85.629	-47.4575
9500.000000	84.935	-45.4104
9620.000000	84.081	-41.7366
9750.000000	83.425	-38.4920
9880.000000	82.815	-35.1553
10000.000000	82.390	-30.5268
10150.000000	81.829	-25.1781
10300.000000	81.234	-20.9795
10440.000000	80.977	-15.1952
10600.000000	80.531	-9.5455
10750.000000	80.231	-5.3072
10900.000000	80.114	0.8681
11060.000000	79.819	5.7690
11200.000000	79.947	10.8396
11380.000000	79.805	17.3849
11500.000000	79.753	20.2539
11720.000000	80.033	27.7864
11800.000000	80.131	30.1510
12060.000000	80.505	36.9652
12200.000000	80.651	40.9133
12410.000000	81.198	46.2352
12500.000000	81.463	48.7692
12650.000000	81.941	51.3573
12800.000000	82.517	53.4720
13150.000000	84.219	57.1336
13200.000000	84.569	57.9821
13400.000000	85.831	57.1550
13600.000000	87.304	53.8674
13800.000000	88.986	46.1755
14000.000000	89.992	33.7206
14300.000000	90.272	9.0835
14500.000000	89.130	-3.2717
14750.000000	87.543	-13.8663
15000.000000	85.852	-18.3959
15250.000000	84.268	-18.1966
15500.000000	83.120	-16.2791
15750.000000	82.264	-12.8972
16000.000000	81.858	-9.6499
16250.000000	82.360	-7.4074
16500.000000	82.495	-9.1554
16750.000000	82.487	-11.4485
17000.000000	82.074	-14.6320
17250.000000	81.333	-16.3630
17500.000000	80.225	-17.1885
17750.000000	79.198	-17.6443
18000.000000	77.989	-14.8384
18250.000000	76.665	-12.9914
18500.000000	75.168	-6.0216
18750.000000	74.659	1.8218
19000.000000	74.069	4.1504
19250.000000	73.170	7.2610
19500.000000	72.627	8.7240
19750.000000	71.731	9.0307
