* Measurement data measured by REW V5.30.9
* Source: Headset (Odo By VECLAN.COM), MICROPHONE (Master Volume), L, volume: 0.300
* Format: 512k Log Swept Sine, 1 sweep at -12.0 dBFS with no timing reference
* Dated: 09 7, 24 7:30:18 PM
* REW Settings:
*  C-weighting compensation: Off
*  Target level: 75.0 dB
* Note: ; 
* Measurement: ea500 rn R
* Smoothing: None
* Frequency Step: 1/48 octave
* Start Frequency: 1.000 Hz
*
* Freq(Hz)	SPL(dB)	Phase(degrees)
1.000000	70.246	-95.4166
1.015000	70.402	-95.1416
1.030000	70.555	-94.8763
1.044000	70.695	-94.6379
1.060000	70.851	-94.3766
1.075000	70.994	-94.1427
1.090000	71.134	-93.9201
1.106000	71.278	-93.6956
1.120000	71.405	-93.5113
1.138000	71.570	-93.2905
1.150000	71.679	-93.1530
1.172000	71.880	-92.9200
1.180000	71.953	-92.8411
1.206000	72.187	-92.6045
1.220000	72.311	-92.4890
1.241000	72.493	-92.3301
1.250000	72.570	-92.2669
1.265000	72.696	-92.1677
1.280000	72.818	-92.0755
1.315000	73.088	-91.8849
1.320000	73.124	-91.8601
1.340000	73.265	-91.7664
1.360000	73.396	-91.6801
1.380000	73.516	-91.5999
1.400000	73.625	-91.5243
1.430000	73.764	-91.4168
1.450000	73.839	-91.3470
1.475000	73.910	-91.2611
1.500000	73.953	-91.1904
1.525000	73.968	-91.1371
1.550000	73.959	-91.0992
1.575000	73.930	-91.0753
1.600000	73.884	-91.0635
1.625000	73.824	-91.0621
1.650000	73.754	-91.0696
1.675000	73.678	-91.0840
1.700000	73.598	-91.1038
1.725000	73.518	-91.1273
1.750000	73.442	-91.1527
1.775000	73.373	-91.1783
1.800000	73.315	-91.2025
1.825000	73.270	-91.2235
1.850000	73.238	-91.2432
1.875000	73.207	-91.2689
1.900000	73.179	-91.3002
1.925000	73.151	-91.3363
1.950000	73.125	-91.3763
1.975000	73.100	-91.4194
2.000000	73.077	-91.4649
2.030000	73.051	-91.5214
2.060000	73.027	-91.5786
2.090000	73.005	-91.6352
2.120000	72.984	-91.6898
2.140000	72.971	-91.7243
2.180000	72.948	-91.7871
2.200000	72.938	-91.8146
2.240000	72.919	-91.8651
2.270000	72.907	-91.9006
2.300000	72.897	-91.9344
2.330000	72.889	-91.9668
2.360000	72.882	-91.9978
2.400000	72.876	-92.0377
2.430000	72.874	-92.0667
2.470000	72.874	-92.1045
2.500000	72.877	-92.1327
2.540000	72.883	-92.1703
2.580000	72.893	-92.2079
2.620000	72.907	-92.2418
2.650000	72.920	-92.2649
2.690000	72.940	-92.2940
2.720000	72.957	-92.3154
2.760000	72.983	-92.3445
2.800000	73.012	-92.3758
2.850000	73.053	-92.4203
2.900000	73.097	-92.4738
2.950000	73.145	-92.5379
3.000000	73.199	-92.6044
3.040000	73.245	-92.6594
3.070000	73.281	-92.7030
3.110000	73.332	-92.7654
3.150000	73.386	-92.8342
3.200000	73.455	-92.9322
3.250000	73.528	-93.0463
3.300000	73.602	-93.1800
3.350000	73.679	-93.3301
3.400000	73.761	-93.4933
3.450000	73.846	-93.6707
3.500000	73.933	-93.8631
3.550000	74.021	-94.0716
3.600000	74.111	-94.2970
3.650000	74.200	-94.5403
3.700000	74.288	-94.8031
3.750000	74.379	-95.0864
3.820000	74.508	-95.5133
3.870000	74.601	-95.8367
3.950000	74.747	-96.3801
4.000000	74.837	-96.7325
4.060000	74.943	-97.1672
4.120000	75.048	-97.6251
4.180000	75.151	-98.1022
4.250000	75.270	-98.6752
4.310000	75.369	-99.1735
4.370000	75.466	-99.6718
4.440000	75.575	-100.2520
4.500000	75.665	-100.7595
4.550000	75.739	-101.1867
4.620000	75.839	-101.7853
4.680000	75.923	-102.2930
4.750000	76.018	-102.8715
4.820000	76.111	-103.4354
4.870000	76.175	-103.8345
4.940000	76.262	-104.3854
5.000000	76.335	-104.8478
5.080000	76.431	-105.4460
5.150000	76.514	-105.9483
5.220000	76.596	-106.4305
5.300000	76.688	-106.9608
5.380000	76.779	-107.4730
5.450000	76.859	-107.9095
5.520000	76.940	-108.3371
5.600000	77.032	-108.8071
5.700000	77.148	-109.3730
5.800000	77.265	-109.9295
5.900000	77.382	-110.4895
6.000000	77.501	-111.0432
6.080000	77.596	-111.4843
6.150000	77.679	-111.8732
6.220000	77.761	-112.2684
6.300000	77.854	-112.7291
6.400000	77.969	-113.3139
6.500000	78.081	-113.9048
6.600000	78.189	-114.4981
6.700000	78.291	-115.1006
6.800000	78.390	-115.7086
6.900000	78.484	-116.3075
7.000000	78.572	-116.8859
7.100000	78.654	-117.4562
7.200000	78.731	-118.0091
7.300000	78.804	-118.5287
7.400000	78.873	-119.0069
7.500000	78.938	-119.4525
7.620000	79.012	-119.9401
7.750000	79.095	-120.4023
7.880000	79.177	-120.7908
8.000000	79.255	-121.1051
8.120000	79.339	-121.3906
8.250000	79.436	-121.6496
8.380000	79.539	-121.9014
8.500000	79.642	-122.1589
8.620000	79.752	-122.4215
8.750000	79.874	-122.7432
8.850000	79.968	-123.0365
9.000000	80.112	-123.5363
9.120000	80.224	-123.9867
9.250000	80.338	-124.5321
9.380000	80.448	-125.1363
9.500000	80.541	-125.7184
9.620000	80.622	-126.3169
9.750000	80.701	-126.9914
9.880000	80.763	-127.6513
10.000000	80.802	-128.2412
10.150000	80.829	-128.9543
10.300000	80.841	-129.5741
10.440000	80.840	-130.0669
10.600000	80.839	-130.5287
10.750000	80.835	-130.8378
10.900000	80.832	-131.0517
11.060000	80.841	-131.2565
11.200000	80.859	-131.4075
11.380000	80.893	-131.5887
11.500000	80.923	-131.6994
11.720000	80.988	-131.9263
11.800000	81.013	-132.0327
12.060000	81.101	-132.4530
12.200000	81.146	-132.7537
12.410000	81.213	-133.2764
12.500000	81.242	-133.4984
12.650000	81.291	-133.8747
12.800000	81.339	-134.2481
13.150000	81.437	-135.0784
13.200000	81.451	-135.1905
13.400000	81.506	-135.6202
13.600000	81.562	-136.0249
13.800000	81.621	-136.3966
14.000000	81.684	-136.8047
14.300000	81.785	-137.5032
14.500000	81.849	-138.0259
14.750000	81.918	-138.7108
15.000000	81.973	-139.4157
15.250000	82.014	-140.1331
15.500000	82.043	-140.7690
15.750000	82.065	-141.2903
16.000000	82.090	-141.6933
16.250000	82.130	-142.0343
16.500000	82.186	-142.3461
16.750000	82.256	-142.6672
17.000000	82.335	-143.0738
17.250000	82.415	-143.5764
17.500000	82.490	-144.1802
17.750000	82.549	-144.8254
18.000000	82.594	-145.4852
18.250000	82.623	-146.1324
18.500000	82.641	-146.6919
18.750000	82.653	-147.1529
19.000000	82.665	-147.5065
19.250000	82.685	-147.7944
19.500000	82.715	-148.0399
19.750000	82.757	-148.2668
20.000000	82.808	-148.5331
20.299999	82.878	-148.9404
20.600000	82.947	-149.4530
20.900000	83.005	-150.0523
21.200001	83.047	-150.7165
21.400000	83.063	-151.1534
21.799999	83.070	-151.9265
22.000000	83.066	-152.2294
22.400000	83.059	-152.6431
22.700001	83.068	-152.7970
23.000000	83.101	-152.9030
23.299999	83.157	-153.0819
23.600000	83.225	-153.3972
24.000000	83.310	-154.0747
24.299999	83.351	-154.7272
24.700001	83.359	-155.6113
25.000000	83.337	-156.1375
25.400000	83.292	-156.5362
25.799999	83.269	-156.5990
26.200001	83.296	-156.5477
26.500000	83.345	-156.6050
26.900000	83.427	-156.9302
27.200001	83.478	-157.3604
27.600000	83.510	-158.0501
28.000000	83.499	-158.6338
28.500000	83.470	-158.9774
29.000000	83.491	-159.0137
29.500000	83.578	-159.2362
30.000000	83.669	-159.9708
30.400000	83.694	-160.8031
30.700001	83.675	-161.3841
31.100000	83.621	-161.8888
31.500000	83.574	-162.0381
32.000000	83.580	-161.9833
32.500000	83.651	-162.1622
33.000000	83.717	-162.7620
33.500000	83.729	-163.5077
34.000000	83.704	-164.0124
34.500000	83.697	-164.2365
35.000000	83.731	-164.4401
35.500000	83.780	-164.8783
36.000000	83.800	-165.4799
36.500000	83.786	-165.9874
37.000000	83.771	-166.2443
37.500000	83.789	-166.4058
38.200001	83.844	-166.9414
38.700001	83.850	-167.5257
39.500000	83.801	-168.0401
40.000000	83.807	-168.0643
40.599998	83.870	-168.3095
41.200001	83.914	-169.0154
41.799999	83.887	-169.7160
42.500000	83.837	-169.9959
43.099998	83.851	-170.0793
43.700001	83.885	-170.4131
44.400002	83.890	-170.9368
45.000000	83.884	-171.2291
45.500000	83.895	-171.4415
46.200001	83.920	-171.9049
46.799999	83.919	-172.4255
47.500000	83.890	-172.9291
48.200001	83.866	-173.2514
48.700001	83.864	-173.4757
49.400002	83.865	-173.9061
50.000000	83.850	-174.2935
50.799999	83.827	-174.6122
51.500000	83.838	-174.8141
52.200001	83.865	-175.1506
53.000000	83.884	-175.6707
53.799999	83.877	-176.1973
54.500000	83.854	-176.5264
55.200001	83.841	-176.7009
56.000000	83.844	-176.9763
57.000000	83.820	-177.3794
58.000000	83.818	-177.6448
59.000000	83.804	-178.2099
60.000000	83.772	-178.4695
60.799999	83.800	-178.8033
61.500000	83.803	-179.3375
62.200001	83.779	-179.7677
63.000000	83.758	179.9389
64.000000	83.765	179.6765
65.000000	83.787	179.0825
66.000000	83.715	178.6636
67.000000	83.723	178.7612
68.000000	83.702	178.0255
69.000000	83.584	178.0971
70.000000	83.614	178.2067
71.000000	83.590	177.6097
72.000000	83.543	177.3497
73.000000	83.524	176.9886
74.000000	83.506	176.6271
75.000000	83.510	176.1916
76.199997	83.471	175.4940
77.500000	83.433	175.5663
78.800003	83.435	175.2127
80.000000	83.489	175.6510
81.199997	83.539	174.3576
82.500000	83.425	174.4879
83.800003	83.392	173.7913
85.000000	83.398	174.2253
86.199997	83.379	172.8472
87.500000	83.315	173.7133
88.500000	83.435	172.6229
90.000000	83.259	172.6225
91.199997	83.340	171.9969
92.500000	83.211	172.0527
93.800003	83.261	171.6849
95.000000	83.174	171.5336
96.199997	83.184	171.4245
97.500000	83.175	170.9156
98.800003	83.076	170.8462
100.000000	83.203	170.8543
101.500000	83.067	169.6395
103.000000	83.080	170.0476
104.400002	83.033	169.9070
106.000000	83.070	169.7206
107.500000	83.004	169.1687
109.000000	82.975	169.1789
110.599998	82.936	168.3058
112.000000	82.857	168.1888
113.800003	82.903	168.0719
115.000000	82.903	167.3629
117.199997	82.809	167.2936
118.000000	82.764	167.1616
120.599998	82.751	166.9438
122.000000	82.676	166.9773
124.099998	82.633	166.7391
125.000000	82.640	166.3735
126.500000	82.559	166.0549
128.000000	82.529	165.9022
131.500000	82.455	165.6225
132.000000	82.452	165.5726
134.000000	82.386	165.4557
136.000000	82.363	165.0654
138.000000	82.342	164.8763
140.000000	82.279	164.7159
143.000000	82.243	164.4361
145.000000	82.200	164.3011
147.500000	82.119	164.3728
150.000000	82.088	164.2405
152.500000	82.022	164.0269
155.000000	81.993	163.9357
157.500000	81.967	163.8412
160.000000	81.961	163.5294
162.500000	81.903	163.4824
165.000000	81.826	163.1542
167.500000	81.761	162.9576
170.000000	81.712	162.8421
172.500000	81.653	162.8094
175.000000	81.598	162.5604
177.500000	81.518	162.4512
180.000000	81.458	162.3422
182.500000	81.398	162.2602
185.000000	81.331	162.2287
187.500000	81.286	161.9834
190.000000	81.200	162.0674
192.500000	81.135	161.9207
195.000000	81.092	161.7717
197.500000	81.035	161.8808
200.000000	81.012	161.8205
203.000000	80.923	161.6813
206.000000	80.856	161.5991
209.000000	80.805	161.4943
212.000000	80.760	161.6309
214.000000	80.732	161.5988
218.000000	80.663	161.5345
220.000000	80.635	161.5460
224.000000	80.548	161.7364
227.000000	80.512	161.5234
230.000000	80.459	161.6321
233.000000	80.414	161.7310
236.000000	80.362	161.8383
240.000000	80.304	161.7262
243.000000	80.262	161.6859
247.000000	80.197	161.7219
250.000000	80.183	161.7746
254.000000	80.049	161.8720
258.000000	80.016	162.0660
262.000000	79.951	162.2097
265.000000	79.883	162.0981
269.000000	79.860	162.1468
272.000000	79.788	162.3448
276.000000	79.713	162.3312
280.000000	79.689	162.2927
285.000000	79.612	162.7128
290.000000	79.537	162.7475
295.000000	79.480	163.1613
300.000000	79.392	163.1063
304.000000	79.335	163.3171
307.000000	79.299	163.5028
311.000000	79.248	163.5490
315.000000	79.200	163.6553
320.000000	79.163	163.9147
325.000000	79.060	164.1388
330.000000	79.062	164.3423
335.000000	78.947	164.9034
340.000000	78.916	164.8231
345.000000	78.834	164.8745
350.000000	78.771	164.9860
355.000000	78.715	165.5076
360.000000	78.695	165.4740
365.000000	78.640	165.8435
370.000000	78.601	166.1140
375.000000	78.575	166.3463
382.000000	78.486	166.7684
387.000000	78.406	167.1345
395.000000	78.371	167.6142
400.000000	78.306	167.7706
406.000000	78.259	168.1728
412.000000	78.189	168.7293
418.000000	78.134	168.7162
425.000000	78.070	168.9455
431.000000	78.011	169.5670
437.000000	77.996	169.9258
444.000000	77.954	170.2690
450.000000	77.889	170.4371
455.000000	77.856	170.8571
462.000000	77.838	171.2551
468.000000	77.801	171.7144
475.000000	77.730	172.1302
482.000000	77.709	172.4847
487.000000	77.662	172.7945
494.000000	77.637	173.1692
500.000000	77.600	173.5022
508.000000	77.556	174.0676
515.000000	77.523	174.4760
522.000000	77.485	174.8903
530.000000	77.440	175.4264
538.000000	77.402	175.8949
545.000000	77.366	176.4306
552.000000	77.346	176.7769
560.000000	77.317	177.3334
570.000000	77.275	177.9858
580.000000	77.231	178.5002
590.000000	77.225	179.4256
600.000000	77.179	179.9556
608.000000	77.142	-179.6459
615.000000	77.143	-179.2566
622.000000	77.127	-178.7315
630.000000	77.093	-178.1939
640.000000	77.058	-177.4698
650.000000	77.033	-176.8566
660.000000	77.022	-176.2249
670.000000	77.001	-175.6333
680.000000	76.984	-174.8113
690.000000	76.987	-174.2659
700.000000	76.983	-173.6203
710.000000	76.963	-172.9743
720.000000	76.951	-172.2618
730.000000	76.949	-171.5355
740.000000	76.942	-170.9158
750.000000	76.949	-170.1488
762.000000	76.954	-169.2870
775.000000	76.965	-168.5378
788.000000	76.977	-167.6219
800.000000	76.992	-166.7685
812.000000	77.015	-165.9838
825.000000	77.035	-165.1557
838.000000	77.068	-164.1793
850.000000	77.090	-163.4043
862.000000	77.107	-162.5675
875.000000	77.155	-161.6528
885.000000	77.195	-161.0159
900.000000	77.258	-159.8551
912.000000	77.302	-159.1671
925.000000	77.337	-158.3455
938.000000	77.430	-157.7174
950.000000	77.494	-156.7534
962.000000	77.579	-156.0352
975.000000	77.633	-155.4261
988.000000	77.739	-154.8023
1000.000000	77.812	-154.1015
1015.000000	77.914	-153.2698
1030.000000	78.004	-152.6752
1044.000000	78.121	-151.9779
1060.000000	78.250	-151.2891
1075.000000	78.356	-150.8019
1090.000000	78.472	-150.1955
1106.000000	78.562	-149.6813
1120.000000	78.694	-149.3097
1138.000000	78.830	-148.7588
1150.000000	78.921	-148.4182
1172.000000	79.079	-148.0128
1180.000000	79.146	-147.7634
1206.000000	79.339	-147.1507
1220.000000	79.428	-146.8469
1241.000000	79.586	-146.6857
1250.000000	79.638	-146.4540
1265.000000	79.738	-146.2126
1280.000000	79.854	-146.0095
1315.000000	80.076	-145.5423
1320.000000	80.104	-145.4986
1340.000000	80.227	-145.2708
1360.000000	80.368	-145.1132
1380.000000	80.501	-144.8695
1400.000000	80.629	-144.6199
1430.000000	80.810	-144.2797
1450.000000	80.940	-144.2703
1475.000000	81.091	-144.1468
1500.000000	81.245	-143.9495
1525.000000	81.401	-143.7948
1550.000000	81.555	-143.7013
1575.000000	81.709	-143.6458
1600.000000	81.870	-143.6262
1625.000000	82.027	-143.5808
1650.000000	82.178	-143.6507
1675.000000	82.325	-143.7097
1700.000000	82.469	-143.7783
1725.000000	82.618	-143.9142
1750.000000	82.758	-144.0288
1775.000000	82.902	-144.1606
1800.000000	83.039	-144.3260
1825.000000	83.177	-144.5527
1850.000000	83.320	-144.7468
1875.000000	83.455	-145.0422
1900.000000	83.584	-145.3079
1925.000000	83.719	-145.5963
1950.000000	83.853	-145.9200
1975.000000	83.980	-146.2835
2000.000000	84.102	-146.6876
2030.000000	84.256	-147.1510
2060.000000	84.405	-147.6782
2090.000000	84.554	-148.2127
2120.000000	84.686	-148.8708
2140.000000	84.772	-149.2701
2180.000000	84.926	-150.0159
2200.000000	85.002	-150.3760
2240.000000	85.150	-151.0223
2270.000000	85.266	-151.3616
2300.000000	85.422	-151.6354
2330.000000	85.617	-152.1083
2360.000000	85.816	-152.9056
2400.000000	86.070	-154.5059
2430.000000	86.208	-155.9414
2470.000000	86.335	-157.8250
2500.000000	86.400	-159.1884
2540.000000	86.468	-160.8915
2580.000000	86.529	-162.6106
2620.000000	86.563	-164.2169
2650.000000	86.584	-165.4064
2690.000000	86.598	-166.9685
2720.000000	86.593	-168.1810
2760.000000	86.566	-169.7585
2800.000000	86.519	-171.2980
2850.000000	86.418	-173.0979
2900.000000	86.297	-174.6753
2950.000000	86.147	-176.1165
3000.000000	85.998	-177.3039
3040.000000	85.864	-178.1171
3070.000000	85.767	-178.6696
3110.000000	85.625	-179.3007
3150.000000	85.483	-179.8146
3200.000000	85.292	179.6489
3250.000000	85.099	179.2835
3300.000000	84.905	179.0546
3350.000000	84.727	178.9830
3400.000000	84.559	179.0107
3450.000000	84.389	179.1341
3500.000000	84.246	179.3729
3550.000000	84.124	179.6781
3600.000000	84.016	179.9601
3650.000000	83.900	-179.7014
3700.000000	83.814	-179.3822
3750.000000	83.717	-179.0636
3820.000000	83.603	-178.5508
3870.000000	83.522	-178.1147
3950.000000	83.414	-177.4255
4000.000000	83.354	-176.9927
4060.000000	83.300	-176.3957
4120.000000	83.263	-175.7990
4180.000000	83.230	-175.1979
4250.000000	83.203	-174.4656
4310.000000	83.197	-173.8663
4370.000000	83.202	-173.1975
4440.000000	83.209	-172.4813
4500.000000	83.242	-171.8576
4550.000000	83.261	-171.3955
4620.000000	83.314	-170.7225
4680.000000	83.362	-170.2310
4750.000000	83.432	-169.6532
4820.000000	83.507	-169.1481
4870.000000	83.573	-168.8779
4940.000000	83.676	-168.4941
5000.000000	83.766	-168.2394
5080.000000	83.847	-168.0037
5150.000000	83.931	-167.8443
5220.000000	84.005	-167.8904
5300.000000	84.087	-167.9205
5380.000000	84.141	-168.0211
5450.000000	84.235	-167.5798
5520.000000	84.432	-167.9956
5600.000000	84.549	-168.9149
5700.000000	84.636	-170.0126
5800.000000	84.692	-171.1686
5900.000000	84.731	-172.2654
6000.000000	84.731	-173.4858
6080.000000	84.725	-174.3331
6150.000000	84.698	-175.1733
6220.000000	84.669	-175.8978
6300.000000	84.613	-176.7432
6400.000000	84.603	-177.5666
6500.000000	84.569	-178.3938
6600.000000	84.549	-179.0122
6700.000000	84.532	-179.5244
6800.000000	84.528	-179.9570
6900.000000	84.547	179.7026
7000.000000	84.592	179.3307
7100.000000	84.660	178.9633
7200.000000	84.768	178.5209
7300.000000	84.904	177.9500
7400.000000	85.075	177.0527
7500.000000	85.275	175.8372
7620.000000	85.525	173.7600
7750.000000	85.799	170.8794
7880.000000	86.008	166.9022
8000.000000	86.115	162.4202
8120.000000	86.002	157.2383
8250.000000	85.676	151.2466
8380.000000	85.125	145.4158
8500.000000	84.403	140.4927
8620.000000	83.573	136.6788
8750.000000	82.536	133.5010
8850.000000	81.739	131.9956
9000.000000	80.507	130.7557
9120.000000	79.570	130.7496
9250.000000	78.552	131.3853
9380.000000	77.600	132.6987
9500.000000	76.726	134.4109
9620.000000	75.928	136.6329
9750.000000	75.096	139.4617
9880.000000	74.332	142.7184
10000.000000	73.710	146.0084
10150.000000	73.031	150.4818
10300.000000	72.433	154.9603
10440.000000	71.969	159.7448
10600.000000	71.481	164.9138
10750.000000	71.135	170.0134
10900.000000	70.819	175.2105
11060.000000	70.564	-179.0991
11200.000000	70.408	-174.2469
11380.000000	70.291	-167.9211
11500.000000	70.242	-163.6212
11720.000000	70.277	-155.8463
11800.000000	70.332	-153.0501
12060.000000	70.590	-143.8953
12200.000000	70.846	-139.0164
12410.000000	71.338	-131.4449
12500.000000	71.608	-128.2666
12650.000000	72.101	-123.1437
12800.000000	72.734	-117.7890
13150.000000	74.924	-106.2748
13200.000000	75.338	-104.8368
13400.000000	77.273	-100.4627
13600.000000	79.759	-100.2027
13800.000000	82.555	-105.5576
14000.000000	85.348	-120.0347
14300.000000	86.678	-159.2437
14500.000000	84.946	-179.3996
14750.000000	82.292	169.3152
15000.000000	80.337	166.1536
15250.000000	79.057	165.8482
15500.000000	78.252	165.6522
15750.000000	77.772	164.4125
16000.000000	77.442	161.1590
16250.000000	77.194	155.5958
16500.000000	76.533	148.5122
16750.000000	75.321	142.2383
17000.000000	73.776	138.7144
17250.000000	72.167	138.4162
17500.000000	70.565	140.5746
17750.000000	69.155	144.4557
18000.000000	67.925	149.9220
18250.000000	66.901	155.8794
18500.000000	66.082	162.6853
18750.000000	65.422	169.9308
19000.000000	65.034	177.3155
19250.000000	64.863	-175.5516
19500.000000	64.991	-168.9821
19750.000000	65.420	-163.7069
