* Measurement data measured by REW V5.30.9
* Source: Headset (Odo By VECLAN.COM), MICROPHONE (Master Volume), L, volume: 0.300
* Format: 512k Log Swept Sine, 1 sweep at -12.0 dBFS with no timing reference
* Dated: 09 7, 24 7:36:07 PM
* REW Settings:
*  C-weighting compensation: Off
*  Target level: 75.0 dB
* Note: ; 
* Measurement: ea500 bn L
* Smoothing: None
* Frequency Step: 1/48 octave
* Start Frequency: 1.000 Hz
*
* Freq(Hz)	SPL(dB)	Phase(degrees)
1.000000	63.238	16.3701
1.015000	63.341	15.0574
1.030000	63.446	13.7393
1.044000	63.547	12.5052
1.060000	63.666	11.0916
1.075000	63.781	9.7647
1.090000	63.900	8.4374
1.106000	64.031	7.0185
1.120000	64.151	5.7509
1.138000	64.313	4.0826
1.150000	64.425	2.9487
1.172000	64.638	0.8311
1.180000	64.717	0.0502
1.206000	64.981	-2.5197
1.220000	65.126	-3.9196
1.241000	65.347	-6.0334
1.250000	65.442	-6.9426
1.265000	65.601	-8.4596
1.280000	65.760	-9.9760
1.315000	66.128	-13.4940
1.320000	66.180	-13.9925
1.340000	66.385	-15.9716
1.360000	66.585	-17.9210
1.380000	66.779	-19.8332
1.400000	66.965	-21.7005
1.430000	67.226	-24.4008
1.450000	67.387	-26.1227
1.475000	67.570	-28.1792
1.500000	67.736	-30.1711
1.525000	67.887	-32.1106
1.550000	68.026	-33.9992
1.575000	68.154	-35.8380
1.600000	68.273	-37.6282
1.625000	68.384	-39.3712
1.650000	68.490	-41.0681
1.675000	68.593	-42.7203
1.700000	68.694	-44.3290
1.725000	68.795	-45.8954
1.750000	68.898	-47.4208
1.775000	69.005	-48.9065
1.800000	69.117	-50.3536
1.825000	69.237	-51.7636
1.850000	69.364	-53.1301
1.875000	69.494	-54.4383
1.900000	69.627	-55.6915
1.925000	69.761	-56.8941
1.950000	69.896	-58.0501
1.975000	70.032	-59.1638
2.000000	70.169	-60.2394
2.030000	70.332	-61.4856
2.060000	70.495	-62.6902
2.090000	70.656	-63.8605
2.120000	70.815	-65.0036
2.140000	70.919	-65.7542
2.180000	71.121	-67.2374
2.200000	71.219	-67.9741
2.240000	71.411	-69.4027
2.270000	71.553	-70.4265
2.300000	71.693	-71.4134
2.330000	71.831	-72.3673
2.360000	71.967	-73.2918
2.400000	72.145	-74.4850
2.430000	72.275	-75.3553
2.470000	72.445	-76.4897
2.500000	72.570	-77.3259
2.540000	72.733	-78.4283
2.580000	72.891	-79.5214
2.620000	73.044	-80.5854
2.650000	73.157	-81.3623
2.690000	73.303	-82.3718
2.720000	73.410	-83.1107
2.760000	73.548	-84.0737
2.800000	73.683	-85.0138
2.850000	73.845	-86.1606
2.900000	74.002	-87.2807
2.950000	74.151	-88.3780
3.000000	74.294	-89.4444
3.040000	74.403	-90.2742
3.070000	74.482	-90.8834
3.110000	74.584	-91.6786
3.150000	74.682	-92.4549
3.200000	74.800	-93.3996
3.250000	74.914	-94.3170
3.300000	75.023	-95.2082
3.350000	75.127	-96.0721
3.400000	75.225	-96.9075
3.450000	75.318	-97.7148
3.500000	75.406	-98.4943
3.550000	75.490	-99.2465
3.600000	75.570	-99.9715
3.650000	75.648	-100.6699
3.700000	75.723	-101.3414
3.750000	75.793	-101.9850
3.820000	75.885	-102.8400
3.870000	75.946	-103.4186
3.950000	76.040	-104.2897
4.000000	76.097	-104.8009
4.060000	76.164	-105.3802
4.120000	76.227	-105.9179
4.180000	76.287	-106.4164
4.250000	76.354	-106.9533
4.310000	76.410	-107.3790
4.370000	76.467	-107.7765
4.440000	76.534	-108.2041
4.500000	76.590	-108.5304
4.550000	76.636	-108.7776
4.620000	76.701	-109.0931
4.680000	76.757	-109.3416
4.750000	76.825	-109.6143
4.820000	76.896	-109.8654
4.870000	76.948	-110.0240
4.940000	77.021	-110.2243
5.000000	77.085	-110.3824
5.080000	77.173	-110.5851
5.150000	77.252	-110.7639
5.220000	77.333	-110.9321
5.300000	77.429	-111.1124
5.380000	77.526	-111.2895
5.450000	77.612	-111.4498
5.520000	77.698	-111.6210
5.600000	77.797	-111.8233
5.700000	77.923	-112.0842
5.800000	78.049	-112.3561
5.900000	78.172	-112.6421
6.000000	78.294	-112.9443
6.080000	78.390	-113.1942
6.150000	78.474	-113.4161
6.220000	78.556	-113.6386
6.300000	78.648	-113.8946
6.400000	78.761	-114.2198
6.500000	78.872	-114.5473
6.600000	78.982	-114.8733
6.700000	79.090	-115.1951
6.800000	79.197	-115.5158
6.900000	79.303	-115.8404
7.000000	79.409	-116.1722
7.100000	79.516	-116.5052
7.200000	79.622	-116.8456
7.300000	79.727	-117.2025
7.400000	79.832	-117.5798
7.500000	79.937	-117.9718
7.620000	80.060	-118.4685
7.750000	80.188	-119.0490
7.880000	80.312	-119.6753
8.000000	80.420	-120.2810
8.120000	80.519	-120.9053
8.250000	80.617	-121.6138
8.380000	80.704	-122.3263
8.500000	80.775	-122.9697
8.620000	80.835	-123.6133
8.750000	80.891	-124.2758
8.850000	80.928	-124.7417
9.000000	80.970	-125.3896
9.120000	81.000	-125.8448
9.250000	81.031	-126.2553
9.380000	81.058	-126.5883
9.500000	81.087	-126.8396
9.620000	81.122	-127.0336
9.750000	81.165	-127.1786
9.880000	81.211	-127.3047
10.000000	81.256	-127.4161
10.150000	81.316	-127.5402
10.300000	81.381	-127.6970
10.440000	81.449	-127.8714
10.600000	81.528	-128.1125
10.750000	81.603	-128.3903
10.900000	81.679	-128.7157
11.060000	81.755	-129.1349
11.200000	81.820	-129.5731
11.380000	81.895	-130.1359
11.500000	81.937	-130.4935
11.720000	82.008	-131.1141
11.800000	82.032	-131.3171
12.060000	82.108	-131.9221
12.200000	82.153	-132.2389
12.410000	82.228	-132.7041
12.500000	82.267	-132.9077
12.650000	82.343	-133.2415
12.800000	82.423	-133.6079
13.150000	82.611	-134.6806
13.200000	82.635	-134.8553
13.400000	82.729	-135.6237
13.600000	82.806	-136.4222
13.800000	82.862	-137.2269
14.000000	82.901	-137.9965
14.300000	82.930	-139.0464
14.500000	82.938	-139.6029
14.750000	82.946	-140.1445
15.000000	82.960	-140.5349
15.250000	82.991	-140.9018
15.500000	83.033	-141.2673
15.750000	83.082	-141.6562
16.000000	83.131	-142.1113
16.250000	83.176	-142.6166
16.500000	83.215	-143.1450
16.750000	83.241	-143.6352
17.000000	83.263	-144.0856
17.250000	83.282	-144.4966
17.500000	83.304	-144.8706
17.750000	83.328	-145.2172
18.000000	83.356	-145.5589
18.250000	83.389	-145.9230
18.500000	83.423	-146.2892
18.750000	83.461	-146.6629
19.000000	83.502	-147.0499
19.250000	83.546	-147.4909
19.500000	83.590	-147.9863
19.750000	83.631	-148.5368
20.000000	83.660	-149.1397
20.299999	83.678	-149.8700
20.600000	83.675	-150.5173
20.900000	83.662	-150.9852
21.200001	83.655	-151.2457
21.400000	83.667	-151.3331
21.799999	83.737	-151.4534
22.000000	83.793	-151.5793
22.400000	83.925	-152.1379
22.700001	84.013	-152.8070
23.000000	84.070	-153.5903
23.299999	84.093	-154.3554
23.600000	84.091	-154.9881
24.000000	84.072	-155.5488
24.299999	84.063	-155.7947
24.700001	84.066	-155.9767
25.000000	84.078	-156.0413
25.400000	84.106	-156.0384
25.799999	84.162	-155.9370
26.200001	84.259	-155.9017
26.500000	84.353	-156.0723
26.900000	84.476	-156.6683
27.200001	84.536	-157.3514
27.600000	84.550	-158.3467
28.000000	84.496	-159.0751
28.500000	84.414	-159.3164
29.000000	84.411	-159.1216
29.500000	84.491	-159.1785
30.000000	84.572	-159.7511
30.400000	84.597	-160.3669
30.700001	84.593	-160.7593
31.100000	84.583	-161.1129
31.500000	84.590	-161.3464
32.000000	84.626	-161.6689
32.500000	84.669	-162.1437
33.000000	84.699	-162.6788
33.500000	84.721	-163.2108
34.000000	84.736	-163.7758
34.500000	84.727	-164.3572
35.000000	84.691	-164.7406
35.500000	84.667	-164.7785
36.000000	84.707	-164.7024
36.500000	84.800	-164.9749
37.000000	84.871	-165.7395
37.500000	84.873	-166.6532
38.200001	84.815	-167.4977
38.700001	84.795	-167.9395
39.500000	84.722	-168.8879
40.000000	84.615	-169.0721
40.599998	84.552	-168.4172
41.200001	84.681	-167.8406
41.799999	84.865	-168.4553
42.500000	84.908	-169.9241
43.099998	84.846	-170.5321
43.700001	84.840	-170.7093
44.400002	84.870	-171.2587
45.000000	84.839	-171.7863
45.500000	84.805	-171.9207
46.200001	84.814	-172.0035
46.799999	84.826	-172.3673
47.500000	84.789	-172.6845
48.200001	84.784	-172.6680
48.700001	84.816	-172.8152
49.400002	84.827	-173.3432
50.000000	84.803	-173.6212
50.799999	84.829	-173.8451
51.500000	84.859	-174.5812
52.200001	84.792	-175.3065
53.000000	84.724	-175.3730
53.799999	84.750	-175.6120
54.500000	84.728	-176.0716
55.200001	84.701	-176.0490
56.000000	84.778	-176.1250
57.000000	84.805	-177.0957
58.000000	84.757	-177.3185
59.000000	84.795	-177.6309
60.000000	84.765	-178.2179
60.799999	84.720	-178.4786
61.500000	84.679	-178.5697
62.200001	84.668	-178.5184
63.000000	84.708	-178.7284
64.000000	84.700	-179.5176
65.000000	84.658	-179.7592
66.000000	84.710	179.8509
67.000000	84.693	179.0688
68.000000	84.645	178.8174
69.000000	84.630	178.5942
70.000000	84.599	178.3995
71.000000	84.572	178.1982
72.000000	84.552	178.0026
73.000000	84.541	177.5022
74.000000	84.464	177.0844
75.000000	84.449	177.1102
76.199997	84.470	176.6240
77.500000	84.465	176.3109
78.800003	84.458	175.7563
80.000000	84.430	175.6345
81.199997	84.429	175.0400
82.500000	84.358	174.8342
83.800003	84.351	174.3140
85.000000	84.322	174.3337
86.199997	84.342	173.7529
87.500000	84.291	173.8243
88.500000	84.310	173.4233
90.000000	84.240	173.2751
91.199997	84.218	172.7429
92.500000	84.214	172.4934
93.800003	84.138	171.3384
95.000000	84.027	171.8822
96.199997	84.125	171.9044
97.500000	84.086	171.3478
98.800003	84.049	171.5237
100.000000	84.044	171.0265
101.500000	83.917	170.9232
103.000000	83.947	170.4974
104.400002	83.810	169.7592
106.000000	83.700	170.6042
107.500000	83.849	170.5231
109.000000	83.752	169.6168
110.599998	83.698	170.1644
112.000000	83.768	169.7749
113.800003	83.735	169.5927
115.000000	83.684	169.1506
117.199997	83.614	169.0601
118.000000	83.606	169.0836
120.599998	83.449	168.6617
122.000000	83.507	168.5756
124.099998	83.554	168.0673
125.000000	83.402	168.0495
126.500000	83.438	169.0023
128.000000	83.376	167.9886
131.500000	83.327	167.4808
132.000000	83.370	167.4218
134.000000	83.364	167.1180
136.000000	83.336	167.0412
138.000000	83.273	166.7719
140.000000	83.228	166.2713
143.000000	83.181	165.8135
145.000000	83.125	166.2593
147.500000	83.024	166.2877
150.000000	82.987	166.0504
152.500000	83.002	165.8880
155.000000	82.927	166.1264
157.500000	82.909	166.4235
160.000000	82.903	166.2275
162.500000	82.852	166.0329
165.000000	82.890	165.8153
167.500000	82.818	165.7016
170.000000	82.782	165.5185
172.500000	82.728	165.1595
175.000000	82.696	165.0109
177.500000	82.636	165.0081
180.000000	82.568	164.8549
182.500000	82.527	164.5001
185.000000	82.450	164.6269
187.500000	82.379	164.3945
190.000000	82.329	164.1989
192.500000	82.291	164.1219
195.000000	82.240	164.1069
197.500000	82.172	164.0096
200.000000	82.112	163.7850
203.000000	82.071	163.8243
206.000000	82.019	163.7028
209.000000	81.976	163.6280
212.000000	81.914	163.6729
214.000000	81.883	163.5458
218.000000	81.810	163.5469
220.000000	81.770	163.4635
224.000000	81.722	163.4851
227.000000	81.679	163.5989
230.000000	81.609	163.6838
233.000000	81.548	163.5023
236.000000	81.504	163.4575
240.000000	81.442	163.5810
243.000000	81.413	163.7301
247.000000	81.353	163.6444
250.000000	81.284	163.7276
254.000000	81.223	163.6234
258.000000	81.197	163.9616
262.000000	81.127	163.9537
265.000000	81.085	164.0839
269.000000	80.998	164.1154
272.000000	80.992	164.2130
276.000000	80.889	164.1552
280.000000	80.810	164.6216
285.000000	80.751	164.5436
290.000000	80.699	164.6531
295.000000	80.633	164.9340
300.000000	80.534	165.1985
304.000000	80.518	165.1505
307.000000	80.497	165.3618
311.000000	80.440	165.5691
315.000000	80.400	165.6609
320.000000	80.317	165.9079
325.000000	80.235	165.9725
330.000000	80.215	166.3140
335.000000	80.119	166.7166
340.000000	80.122	166.7135
345.000000	80.047	166.9524
350.000000	79.938	167.3884
355.000000	79.951	167.4921
360.000000	79.857	167.7743
365.000000	79.892	167.9279
370.000000	79.785	167.7237
375.000000	79.794	168.4038
382.000000	79.692	168.9143
387.000000	79.683	169.3151
395.000000	79.592	169.3100
400.000000	79.546	169.6549
406.000000	79.495	170.1738
412.000000	79.432	170.5082
418.000000	79.383	170.9407
425.000000	79.334	171.3141
431.000000	79.268	171.3182
437.000000	79.239	171.8920
444.000000	79.195	172.2303
450.000000	79.134	172.4800
455.000000	79.098	172.9384
462.000000	79.086	173.0559
468.000000	79.040	173.6532
475.000000	78.997	174.0683
482.000000	78.949	174.5749
487.000000	78.913	174.8264
494.000000	78.885	175.1823
500.000000	78.852	175.6898
508.000000	78.802	176.1693
515.000000	78.774	176.5429
522.000000	78.737	176.9613
530.000000	78.702	177.4745
538.000000	78.666	178.0041
545.000000	78.637	178.4900
552.000000	78.611	178.7868
560.000000	78.569	179.4172
570.000000	78.550	-179.8910
580.000000	78.503	-179.3692
590.000000	78.489	-178.6519
600.000000	78.450	-177.9946
608.000000	78.445	-177.3800
615.000000	78.420	-177.0301
622.000000	78.375	-176.6396
630.000000	78.396	-175.9645
640.000000	78.371	-175.2556
650.000000	78.342	-174.6736
660.000000	78.315	-173.9822
670.000000	78.311	-173.2940
680.000000	78.300	-172.8022
690.000000	78.285	-172.0761
700.000000	78.267	-171.2479
710.000000	78.275	-170.6156
720.000000	78.266	-169.9725
730.000000	78.267	-169.2207
740.000000	78.261	-168.6299
750.000000	78.251	-167.8436
762.000000	78.260	-166.9648
775.000000	78.274	-166.1703
788.000000	78.294	-165.1598
800.000000	78.317	-164.3106
812.000000	78.330	-163.4501
825.000000	78.362	-162.5969
838.000000	78.374	-161.7300
850.000000	78.386	-160.9191
862.000000	78.472	-159.9487
875.000000	78.524	-159.1075
885.000000	78.549	-158.5330
900.000000	78.592	-157.3639
912.000000	78.660	-156.7135
925.000000	78.738	-155.7412
938.000000	78.777	-155.0094
950.000000	78.878	-154.2062
962.000000	78.933	-153.5974
975.000000	79.003	-152.7808
988.000000	79.084	-151.9892
1000.000000	79.187	-151.3612
1015.000000	79.278	-150.5687
1030.000000	79.396	-149.8322
1044.000000	79.488	-149.1730
1060.000000	79.614	-148.5094
1075.000000	79.714	-147.8345
1090.000000	79.833	-147.3194
1106.000000	79.951	-146.6526
1120.000000	80.085	-146.1775
1138.000000	80.212	-145.7648
1150.000000	80.294	-145.2572
1172.000000	80.474	-144.6963
1180.000000	80.524	-144.5898
1206.000000	80.721	-143.9675
1220.000000	80.829	-143.6762
1241.000000	81.003	-143.2461
1250.000000	81.045	-143.1360
1265.000000	81.158	-142.7971
1280.000000	81.265	-142.5873
1315.000000	81.508	-141.9902
1320.000000	81.552	-142.0012
1340.000000	81.685	-141.6866
1360.000000	81.815	-141.4005
1380.000000	81.962	-141.1411
1400.000000	82.089	-140.9356
1430.000000	82.277	-140.5121
1450.000000	82.441	-140.3051
1475.000000	82.604	-140.0468
1500.000000	82.777	-139.8192
1525.000000	82.949	-139.5961
1550.000000	83.126	-139.4381
1575.000000	83.300	-139.3158
1600.000000	83.473	-139.2487
1625.000000	83.653	-139.1505
1650.000000	83.823	-139.1883
1675.000000	84.000	-139.2034
1700.000000	84.167	-139.2222
1725.000000	84.336	-139.3328
1750.000000	84.507	-139.4898
1775.000000	84.680	-139.6332
1800.000000	84.842	-139.8447
1825.000000	85.005	-140.0866
1850.000000	85.166	-140.3265
1875.000000	85.327	-140.6458
1900.000000	85.486	-140.9551
1925.000000	85.640	-141.3119
1950.000000	85.793	-141.7255
1975.000000	85.939	-142.1501
2000.000000	86.081	-142.6169
2030.000000	86.257	-143.2316
2060.000000	86.425	-143.8755
2090.000000	86.574	-144.4935
2120.000000	86.720	-145.0507
2140.000000	86.811	-145.4127
2180.000000	87.016	-145.9546
2200.000000	87.132	-146.0978
2240.000000	87.439	-146.5903
2270.000000	87.724	-147.3529
2300.000000	87.984	-148.6597
2330.000000	88.213	-150.4092
2360.000000	88.365	-152.2114
2400.000000	88.523	-154.5415
2430.000000	88.601	-156.2826
2470.000000	88.681	-158.5026
2500.000000	88.724	-160.1424
2540.000000	88.765	-162.3459
2580.000000	88.776	-164.5460
2620.000000	88.738	-166.7093
2650.000000	88.688	-168.2437
2690.000000	88.601	-170.1661
2720.000000	88.510	-171.5046
2760.000000	88.377	-173.1520
2800.000000	88.226	-174.6211
2850.000000	88.021	-176.2086
2900.000000	87.797	-177.5364
2950.000000	87.567	-178.5904
3000.000000	87.342	-179.4201
3040.000000	87.149	-179.9314
3070.000000	87.011	179.7972
3110.000000	86.829	179.5139
3150.000000	86.657	179.4124
3200.000000	86.438	179.3942
3250.000000	86.226	179.6366
3300.000000	86.049	179.8293
3350.000000	85.876	-179.8932
3400.000000	85.719	-179.5058
3450.000000	85.572	-179.1500
3500.000000	85.435	-178.6867
3550.000000	85.313	-178.1806
3600.000000	85.198	-177.6984
3650.000000	85.087	-177.1483
3700.000000	84.988	-176.5727
3750.000000	84.898	-175.9386
3820.000000	84.781	-175.0307
3870.000000	84.713	-174.3253
3950.000000	84.620	-173.1167
4000.000000	84.571	-172.3305
4060.000000	84.548	-171.3651
4120.000000	84.530	-170.4083
4180.000000	84.538	-169.4485
4250.000000	84.556	-168.2850
4310.000000	84.595	-167.3120
4370.000000	84.647	-166.3320
4440.000000	84.726	-165.2543
4500.000000	84.813	-164.3754
4550.000000	84.891	-163.6478
4620.000000	85.017	-162.7298
4680.000000	85.135	-161.9806
4750.000000	85.294	-161.1813
4820.000000	85.471	-160.4766
4870.000000	85.607	-160.0232
4940.000000	85.812	-159.5400
5000.000000	85.991	-159.2621
5080.000000	86.207	-159.0431
5150.000000	86.396	-159.0547
5220.000000	86.593	-159.2403
5300.000000	86.806	-159.6998
5380.000000	86.990	-160.1604
5450.000000	87.180	-160.3242
5520.000000	87.475	-161.1684
5600.000000	87.707	-162.8508
5700.000000	87.922	-165.0664
5800.000000	88.062	-167.4351
5900.000000	88.135	-169.9452
6000.000000	88.152	-172.5182
6080.000000	88.106	-174.5111
6150.000000	88.044	-176.1615
6220.000000	87.950	-177.6548
6300.000000	87.822	-179.2292
6400.000000	87.696	179.0996
6500.000000	87.563	177.7427
6600.000000	87.423	176.6656
6700.000000	87.300	175.8654
6800.000000	87.196	175.2371
6900.000000	87.132	174.8025
7000.000000	87.102	174.4168
7100.000000	87.112	174.0765
7200.000000	87.186	173.6550
7300.000000	87.302	173.0161
7400.000000	87.460	172.0564
7500.000000	87.658	170.5974
7620.000000	87.900	168.1334
7750.000000	88.141	164.3720
7880.000000	88.289	159.3980
8000.000000	88.263	153.8924
8120.000000	87.952	147.8868
8250.000000	87.332	141.4442
8380.000000	86.461	135.8688
8500.000000	85.495	131.8106
8620.000000	84.439	129.0448
8750.000000	83.263	127.3149
8850.000000	82.368	126.9292
9000.000000	81.070	127.4026
9120.000000	80.105	128.6256
9250.000000	79.100	130.5447
9380.000000	78.174	133.0854
9500.000000	77.384	135.8524
9620.000000	76.648	138.9344
9750.000000	75.922	142.5292
9880.000000	75.255	146.3729
10000.000000	74.711	150.1331
10150.000000	74.172	154.9773
10300.000000	73.708	159.8737
10440.000000	73.293	164.4647
10600.000000	72.922	170.0391
10750.000000	72.629	175.2435
10900.000000	72.408	-179.5697
11060.000000	72.232	-173.9238
11200.000000	72.149	-168.8059
11380.000000	72.102	-162.4440
11500.000000	72.150	-157.9672
11720.000000	72.328	-150.1249
11800.000000	72.418	-147.4435
12060.000000	72.914	-138.2712
12200.000000	73.313	-133.2270
12410.000000	74.025	-126.1860
12500.000000	74.411	-123.1932
12650.000000	75.153	-118.3657
12800.000000	76.047	-113.7144
13150.000000	79.106	-105.9112
13200.000000	79.675	-105.4131
13400.000000	82.339	-107.0647
13600.000000	85.297	-118.2693
13800.000000	87.120	-142.1138
14000.000000	86.330	-167.3584
14300.000000	83.168	174.6116
14500.000000	81.341	171.5578
14750.000000	79.609	171.9426
15000.000000	78.455	174.7231
15250.000000	77.824	178.1366
15500.000000	77.595	-178.9413
15750.000000	77.706	-177.5445
16000.000000	78.052	-178.6547
16250.000000	78.668	176.6755
16500.000000	78.899	168.0078
16750.000000	78.302	157.9800
17000.000000	76.933	150.5627
17250.000000	75.277	147.3940
17500.000000	73.667	147.9416
17750.000000	72.310	150.9104
18000.000000	71.171	155.2234
18250.000000	70.294	160.4872
18500.000000	69.677	166.3177
18750.000000	69.356	172.1644
19000.000000	69.310	177.4417
19250.000000	69.655	-178.7841
19500.000000	70.282	-177.5634
19750.000000	71.141	179.2922
