* Measurement data measured by REW V5.30.9
* Source: Microphone (Realtek USB2.0 Audio), MICROPHONE (Master Volume), L, volume: 0.500
* Format: 512k Log Swept Sine, 1 sweep at -12.0 dBFS with no timing reference
* Dated: 07 14, 24 8:54:44 PM
* REW Settings:
*  C-weighting compensation: Off
*  Target level: 75.0 dB
* Note: ; 
* Measurement: edc pro R
* Smoothing: None
* Frequency Step: 1/48 octave
* Start Frequency: 1.000 Hz
*
* Freq(Hz)	SPL(dB)	Phase(degrees)
1.000000	50.850	88.3233
1.015000	50.799	87.4776
1.030000	50.746	86.6398
1.044000	50.695	85.8638
1.060000	50.634	84.9822
1.075000	50.574	84.1593
1.090000	50.513	83.3382
1.106000	50.444	82.4642
1.120000	50.382	81.7096
1.138000	50.300	80.7559
1.150000	50.245	80.1301
1.172000	50.139	79.0039
1.180000	50.100	78.6010
1.206000	49.968	77.3157
1.220000	49.895	76.6388
1.241000	49.783	75.6431
1.250000	49.733	75.2236
1.265000	49.649	74.5337
1.280000	49.564	73.8556
1.315000	49.356	72.3180
1.320000	49.326	72.1035
1.340000	49.202	71.2576
1.360000	49.074	70.4316
1.380000	48.943	69.6251
1.400000	48.809	68.8378
1.430000	48.600	67.6923
1.450000	48.456	66.9519
1.475000	48.271	66.0525
1.500000	48.077	65.1856
1.525000	47.874	64.3516
1.550000	47.662	63.5499
1.575000	47.444	62.7799
1.600000	47.219	62.0410
1.625000	46.990	61.3326
1.650000	46.757	60.6542
1.675000	46.521	60.0052
1.700000	46.284	59.3850
1.725000	46.045	58.7930
1.750000	45.808	58.2287
1.775000	45.571	57.6914
1.800000	45.338	57.1806
1.825000	45.107	56.6957
1.850000	44.876	56.2562
1.875000	44.632	55.9022
1.900000	44.377	55.6214
1.925000	44.115	55.3994
1.950000	43.849	55.2217
1.975000	43.583	55.0739
2.000000	43.319	54.9413
2.030000	43.010	54.7822
2.060000	42.715	54.5993
2.090000	42.440	54.3677
2.120000	42.190	54.0623
2.140000	42.040	53.8054
2.180000	41.787	53.1304
2.200000	41.688	52.6978
2.240000	41.517	51.7141
2.270000	41.406	50.9007
2.300000	41.313	50.0239
2.330000	41.241	49.0848
2.360000	41.193	48.0848
2.400000	41.169	46.6588
2.430000	41.185	45.5213
2.470000	41.257	43.9166
2.500000	41.352	42.6485
2.540000	41.539	40.8741
2.580000	41.802	38.9858
2.620000	42.158	36.8310
2.650000	42.480	35.0580
2.690000	42.972	32.5494
2.720000	43.379	30.6037
2.760000	43.962	27.9884
2.800000	44.575	25.4232
2.850000	45.365	22.4101
2.900000	46.151	19.7589
2.950000	46.916	17.5919
3.000000	47.716	15.6999
3.040000	48.386	14.3427
3.070000	48.899	13.4194
3.110000	49.591	12.3186
3.150000	50.286	11.3715
3.200000	51.143	10.4114
3.250000	51.974	9.7094
3.300000	52.761	9.2755
3.350000	53.516	9.1266
3.400000	54.254	9.2566
3.450000	54.974	9.6464
3.500000	55.675	10.2766
3.550000	56.357	11.1282
3.600000	57.018	12.1818
3.650000	57.658	13.4183
3.700000	58.276	14.8797
3.750000	58.871	16.6645
3.820000	59.668	19.5773
3.870000	60.215	21.8533
3.950000	61.053	25.6291
4.000000	61.558	27.9576
4.060000	62.144	30.6624
4.120000	62.703	33.5070
4.180000	63.238	36.4405
4.250000	63.835	39.8386
4.310000	64.325	42.6134
4.370000	64.799	45.1527
4.440000	65.332	47.7421
4.500000	65.766	49.7463
4.550000	66.114	51.2826
4.620000	66.582	53.2428
4.680000	66.968	54.7594
4.750000	67.406	56.3549
4.820000	67.828	57.7352
4.870000	68.116	58.5626
4.940000	68.505	59.5453
5.000000	68.828	60.2666
5.080000	69.248	61.1254
5.150000	69.611	61.8369
5.220000	69.962	62.4407
5.300000	70.351	63.0013
5.380000	70.732	63.4784
5.450000	71.065	63.8723
5.520000	71.399	64.2786
5.600000	71.779	64.7230
5.700000	72.251	65.2320
5.800000	72.725	65.6939
5.900000	73.207	66.1163
6.000000	73.695	66.5165
6.080000	74.088	66.8006
6.150000	74.433	67.0057
6.220000	74.778	67.1559
6.300000	75.173	67.2654
6.400000	75.671	67.3267
6.500000	76.166	67.2821
6.600000	76.651	67.1077
6.700000	77.130	66.7931
6.800000	77.601	66.3537
6.900000	78.061	65.8063
7.000000	78.505	65.1622
7.100000	78.936	64.3970
7.200000	79.353	63.5377
7.300000	79.756	62.6240
7.400000	80.143	61.6643
7.500000	80.515	60.6308
7.620000	80.943	59.3601
7.750000	81.389	58.0242
7.880000	81.813	56.6963
8.000000	82.190	55.5074
8.120000	82.558	54.3918
8.250000	82.943	53.2507
8.380000	83.319	52.1786
8.500000	83.662	51.2561
8.620000	83.999	50.3995
8.750000	84.361	49.5257
8.850000	84.638	48.8826
9.000000	85.050	47.9791
9.120000	85.377	47.2857
9.250000	85.729	46.5452
9.380000	86.079	45.8255
9.500000	86.400	45.1770
9.620000	86.718	44.5433
9.750000	87.061	43.8744
9.880000	87.401	43.2147
10.000000	87.713	42.6114
10.150000	88.101	41.8670
10.300000	88.486	41.1262
10.440000	88.843	40.4416
10.600000	89.247	39.6539
10.750000	89.620	38.9000
10.900000	89.986	38.1342
11.060000	90.365	37.2955
11.200000	90.686	36.5382
11.380000	91.079	35.5784
11.500000	91.328	34.9451
11.720000	91.757	33.8523
11.800000	91.903	33.4944
12.060000	92.351	32.4753
12.200000	92.581	32.0648
12.410000	92.915	31.6208
12.500000	93.063	31.4965
12.650000	93.310	31.3978
12.800000	93.567	31.3436
13.150000	94.243	31.2080
13.200000	94.314	31.1499
13.400000	94.504	30.8171
13.600000	94.646	30.2439
13.800000	94.782	29.3925
14.000000	94.892	28.2676
14.300000	94.994	26.1420
14.500000	94.989	24.6191
14.750000	94.900	22.8758
15.000000	94.724	21.4582
15.250000	94.511	20.5650
15.500000	94.295	20.3584
15.750000	94.106	20.8376
16.000000	94.013	21.8202
16.250000	94.043	22.8314
16.500000	94.184	23.6209
16.750000	94.394	23.8801
17.000000	94.627	23.4874
17.250000	94.853	22.4961
17.500000	95.034	21.0128
17.750000	95.141	19.3104
18.000000	95.182	17.5210
18.250000	95.165	15.7813
18.500000	95.097	14.3068
18.750000	94.994	13.1556
19.000000	94.875	12.3800
19.250000	94.779	11.9215
19.500000	94.709	11.7065
19.750000	94.671	11.6650
20.000000	94.671	11.6211
20.299999	94.707	11.4468
20.600000	94.760	11.0864
20.900000	94.803	10.5668
21.200001	94.833	9.9434
21.400000	94.842	9.5370
21.799999	94.840	8.8221
22.000000	94.837	8.5152
22.400000	94.844	7.9135
22.700001	94.853	7.4500
23.000000	94.858	6.9242
23.299999	94.856	6.3188
23.600000	94.839	5.7146
24.000000	94.797	5.0035
24.299999	94.764	4.5566
24.700001	94.730	4.0560
25.000000	94.713	3.6947
25.400000	94.703	3.1469
25.799999	94.690	2.5803
26.200001	94.678	2.0361
26.500000	94.678	1.6474
26.900000	94.688	1.1347
27.200001	94.704	0.6848
27.600000	94.725	-0.0375
28.000000	94.727	-0.8227
28.500000	94.706	-1.7578
29.000000	94.674	-2.5478
29.500000	94.644	-3.3287
30.000000	94.584	-4.0875
30.400000	94.514	-4.5556
30.700001	94.457	-4.7132
31.100000	94.408	-4.7064
31.500000	94.414	-4.6829
32.000000	94.470	-5.0434
32.500000	94.502	-5.9926
33.000000	94.442	-7.0537
33.500000	94.328	-7.7237
34.000000	94.239	-7.8947
34.500000	94.223	-8.0267
35.000000	94.237	-8.4327
35.500000	94.237	-9.0398
36.000000	94.220	-9.5796
36.500000	94.219	-10.0701
37.000000	94.230	-10.6777
37.500000	94.224	-11.4540
38.200001	94.153	-12.3725
38.700001	94.099	-12.7342
39.500000	94.059	-13.2846
40.000000	94.021	-13.7819
40.599998	93.937	-14.2953
41.200001	93.848	-14.4864
41.799999	93.798	-14.5682
42.500000	93.777	-14.9312
43.099998	93.749	-15.5807
43.700001	93.674	-16.4396
44.400002	93.509	-17.2203
45.000000	93.362	-17.2521
45.500000	93.318	-17.0207
46.200001	93.373	-17.2112
46.799999	93.402	-18.1710
47.500000	93.318	-19.3122
48.200001	93.210	-19.7767
48.700001	93.175	-19.9177
49.400002	93.162	-20.1994
50.000000	93.163	-20.4815
50.799999	93.180	-21.0807
51.500000	93.143	-21.8045
52.200001	93.063	-22.1944
53.000000	93.012	-22.5089
53.799999	92.917	-23.1314
54.500000	92.799	-23.1814
55.200001	92.783	-23.2558
56.000000	92.696	-24.4506
57.000000	92.322	-24.0836
58.000000	92.493	-22.2619
59.000000	92.711	-24.0996
60.000000	92.588	-25.4623
60.799999	92.495	-26.0334
61.500000	92.356	-26.2767
62.200001	92.229	-25.8168
63.000000	92.189	-25.1459
64.000000	92.221	-24.9347
65.000000	92.201	-25.8355
66.000000	92.040	-26.3166
67.000000	92.056	-26.7464
68.000000	91.979	-28.4149
69.000000	91.835	-29.2157
70.000000	91.722	-29.8970
71.000000	91.601	-29.8614
72.000000	91.566	-29.5483
73.000000	91.600	-29.3539
74.000000	91.577	-30.1630
75.000000	91.402	-30.1074
76.199997	91.392	-30.1819
77.500000	91.270	-30.4840
78.800003	91.176	-31.3314
80.000000	91.097	-30.5141
81.199997	91.156	-31.9091
82.500000	90.899	-31.7051
83.800003	90.891	-31.9098
85.000000	90.821	-32.1678
86.199997	90.721	-32.7578
87.500000	90.733	-33.1165
88.500000	90.583	-34.0860
90.000000	90.546	-33.4966
91.199997	90.389	-34.0713
92.500000	90.413	-33.5238
93.800003	90.239	-34.0987
95.000000	90.256	-33.8104
96.199997	90.136	-34.4315
97.500000	90.118	-34.6368
98.800003	89.922	-34.8095
100.000000	89.975	-34.3329
101.500000	89.861	-35.4312
103.000000	89.678	-34.9124
104.400002	89.724	-35.2200
106.000000	89.480	-35.6842
107.500000	89.520	-35.1794
109.000000	89.514	-35.7257
110.599998	89.442	-35.7891
112.000000	89.390	-36.1862
113.800003	89.233	-36.0504
115.000000	89.145	-36.1926
117.199997	88.941	-36.9609
118.000000	88.893	-36.6295
120.599998	88.696	-36.7405
122.000000	88.856	-36.6652
124.099998	88.827	-36.8971
125.000000	88.784	-37.3066
126.500000	88.622	-37.3442
128.000000	88.535	-36.7987
131.500000	88.344	-36.9826
132.000000	88.315	-36.7543
134.000000	88.286	-36.6590
136.000000	88.129	-36.7728
138.000000	88.107	-37.0857
140.000000	88.049	-37.3190
143.000000	87.915	-37.2468
145.000000	87.836	-36.8091
147.500000	87.740	-36.9246
150.000000	87.619	-37.0420
152.500000	87.534	-37.3329
155.000000	87.467	-36.8699
157.500000	87.396	-36.6323
160.000000	87.276	-37.0603
162.500000	87.212	-36.7500
165.000000	87.120	-37.0978
167.500000	87.027	-36.7793
170.000000	86.886	-37.0078
172.500000	86.822	-37.0585
175.000000	86.725	-36.6881
177.500000	86.627	-36.7155
180.000000	86.514	-36.5563
182.500000	86.434	-36.4230
185.000000	86.329	-36.2956
187.500000	86.227	-36.1598
190.000000	86.115	-35.8321
192.500000	86.058	-35.7260
195.000000	85.956	-35.9446
197.500000	85.882	-35.4516
200.000000	85.781	-35.4389
203.000000	85.680	-35.2351
206.000000	85.594	-34.7924
209.000000	85.502	-34.6524
212.000000	85.412	-34.2749
214.000000	85.353	-34.1569
218.000000	85.297	-33.1645
220.000000	85.286	-32.9002
224.000000	85.265	-32.4549
227.000000	85.237	-32.0411
230.000000	85.241	-32.1495
233.000000	85.205	-32.2383
236.000000	85.133	-32.2776
240.000000	85.095	-32.2987
243.000000	85.022	-32.1722
247.000000	84.925	-32.2259
250.000000	84.844	-32.0522
254.000000	84.739	-31.8182
258.000000	84.657	-31.5310
262.000000	84.590	-31.3951
265.000000	84.528	-31.3318
269.000000	84.445	-30.8439
272.000000	84.402	-30.7762
276.000000	84.312	-30.5232
280.000000	84.243	-30.3018
285.000000	84.163	-29.7777
290.000000	84.055	-29.4075
295.000000	83.964	-29.1896
300.000000	83.887	-28.7340
304.000000	83.827	-28.4886
307.000000	83.773	-28.1859
311.000000	83.746	-27.9899
315.000000	83.661	-27.5633
320.000000	83.583	-27.2073
325.000000	83.498	-26.7882
330.000000	83.437	-26.5493
335.000000	83.361	-26.1267
340.000000	83.295	-25.6359
345.000000	83.200	-25.2729
350.000000	83.146	-24.9032
355.000000	83.092	-24.6107
360.000000	83.046	-23.9882
365.000000	82.979	-23.7521
370.000000	82.922	-23.3219
375.000000	82.859	-22.7574
382.000000	82.791	-22.2921
387.000000	82.752	-22.1429
395.000000	82.681	-21.2354
400.000000	82.647	-20.8640
406.000000	82.604	-20.5110
412.000000	82.534	-20.1524
418.000000	82.495	-19.6259
425.000000	82.422	-19.0066
431.000000	82.373	-18.6637
437.000000	82.328	-18.2222
444.000000	82.267	-17.5732
450.000000	82.227	-17.1856
455.000000	82.192	-16.8355
462.000000	82.130	-16.2347
468.000000	82.090	-15.7820
475.000000	82.026	-15.3111
482.000000	82.000	-14.7465
487.000000	81.963	-14.3850
494.000000	81.912	-13.7572
500.000000	81.870	-13.3734
508.000000	81.837	-12.9459
515.000000	81.805	-12.2575
522.000000	81.777	-11.7752
530.000000	81.737	-11.1382
538.000000	81.688	-10.5970
545.000000	81.663	-9.9939
552.000000	81.624	-9.5125
560.000000	81.596	-8.9132
570.000000	81.565	-8.1625
580.000000	81.555	-7.4872
590.000000	81.512	-6.6955
600.000000	81.474	-6.0567
608.000000	81.453	-5.3101
615.000000	81.433	-4.9581
622.000000	81.422	-4.2996
630.000000	81.409	-3.7687
640.000000	81.385	-2.9605
650.000000	81.358	-2.2783
660.000000	81.344	-1.5796
670.000000	81.339	-0.7937
680.000000	81.330	-0.0829
690.000000	81.331	0.6407
700.000000	81.321	1.3816
710.000000	81.312	2.2289
720.000000	81.328	2.8589
730.000000	81.334	3.5754
740.000000	81.355	4.2671
750.000000	81.392	4.9452
762.000000	81.411	5.7626
775.000000	81.467	6.5319
788.000000	81.536	7.0177
800.000000	81.523	6.5072
812.000000	81.141	7.2897
825.000000	81.110	9.6435
838.000000	81.192	11.1222
850.000000	81.245	12.1653
862.000000	81.303	13.1039
875.000000	81.385	14.1151
885.000000	81.424	14.9151
900.000000	81.489	15.9529
912.000000	81.559	16.7467
925.000000	81.630	17.7933
938.000000	81.704	18.5816
950.000000	81.779	19.3545
962.000000	81.861	20.1713
975.000000	81.938	20.7717
988.000000	82.036	21.5485
1000.000000	82.117	22.2624
1015.000000	82.222	22.9450
1030.000000	82.351	23.6329
1044.000000	82.445	24.3629
1060.000000	82.574	25.0477
1075.000000	82.681	25.6912
1090.000000	82.800	26.1443
1106.000000	82.950	26.7591
1120.000000	83.050	27.1932
1138.000000	83.177	27.7681
1150.000000	83.278	28.1146
1172.000000	83.433	28.4391
1180.000000	83.508	28.6483
1206.000000	83.670	29.1986
1220.000000	83.776	29.4511
1241.000000	83.917	29.7907
1250.000000	83.974	29.8510
1265.000000	84.076	30.0979
1280.000000	84.173	30.2703
1315.000000	84.374	30.6580
1320.000000	84.409	30.7000
1340.000000	84.512	30.8952
1360.000000	84.650	31.0331
1380.000000	84.748	31.3019
1400.000000	84.849	31.4686
1430.000000	85.029	31.7271
1450.000000	85.115	32.0176
1475.000000	85.232	32.4201
1500.000000	85.405	32.5879
1525.000000	85.554	32.8126
1550.000000	85.672	32.9107
1575.000000	85.796	33.0672
1600.000000	85.929	33.1763
1625.000000	86.054	33.3185
1650.000000	86.188	33.4166
1675.000000	86.309	33.6304
1700.000000	86.422	33.7653
1725.000000	86.528	33.8151
1750.000000	86.648	34.0206
1775.000000	86.752	34.1188
1800.000000	86.874	34.3153
1825.000000	86.992	34.3809
1850.000000	87.099	34.4752
1875.000000	87.204	34.6968
1900.000000	87.297	34.7244
1925.000000	87.409	34.9290
1950.000000	87.511	34.9650
1975.000000	87.641	35.0810
2000.000000	87.745	35.4215
2030.000000	87.902	35.6401
2060.000000	88.063	36.2345
2090.000000	88.273	36.6566
2120.000000	88.538	36.9771
2140.000000	88.731	36.9334
2180.000000	89.090	36.4496
2200.000000	89.236	35.9649
2240.000000	89.492	35.0825
2270.000000	89.649	34.3737
2300.000000	89.791	33.8103
2330.000000	89.928	33.2749
2360.000000	90.063	32.8039
2400.000000	90.255	32.2732
2430.000000	90.428	31.8923
2470.000000	90.676	31.0710
2500.000000	90.863	30.1641
2540.000000	91.081	28.8211
2580.000000	91.240	27.3368
2620.000000	91.376	25.9704
2650.000000	91.447	24.9475
2690.000000	91.560	23.7955
2720.000000	91.649	22.7386
2760.000000	91.747	21.7298
2800.000000	91.859	20.2509
2850.000000	91.933	18.6374
2900.000000	91.956	16.7427
2950.000000	91.985	15.4146
3000.000000	91.956	13.7059
3040.000000	91.931	12.8228
3070.000000	91.962	11.8595
3110.000000	91.914	10.9810
3150.000000	91.877	9.5481
3200.000000	91.731	8.5201
3250.000000	91.672	7.3728
3300.000000	91.612	6.9728
3350.000000	91.449	5.9589
3400.000000	91.343	4.6836
3450.000000	91.229	3.7667
3500.000000	91.135	3.9457
3550.000000	91.033	2.8490
3600.000000	90.894	3.2878
3650.000000	90.716	2.2197
3700.000000	90.662	1.6251
3750.000000	90.477	2.2211
3820.000000	90.368	1.4280
3870.000000	90.294	1.9823
3950.000000	90.203	1.7466
4000.000000	89.921	1.3948
4060.000000	89.761	1.7340
4120.000000	89.814	1.2357
4180.000000	89.726	1.9413
4250.000000	89.631	2.1516
4310.000000	89.566	2.8273
4370.000000	89.413	1.5649
4440.000000	89.308	2.1781
4500.000000	89.210	2.3801
4550.000000	89.190	2.3579
4620.000000	89.216	3.1743
4680.000000	89.063	2.9421
4750.000000	89.062	3.8344
4820.000000	88.934	3.0802
4870.000000	88.966	3.3946
4940.000000	88.932	3.9997
5000.000000	88.956	3.7716
5080.000000	88.777	4.3716
5150.000000	88.691	4.8394
5220.000000	88.648	4.4428
5300.000000	88.473	4.9170
5380.000000	88.282	5.0929
5450.000000	88.439	5.7695
5520.000000	88.317	6.1866
5600.000000	88.315	6.1584
5700.000000	88.124	5.9334
5800.000000	88.014	7.0227
5900.000000	88.065	7.7148
6000.000000	88.084	7.6690
6080.000000	87.941	7.9646
6150.000000	87.819	8.8740
6220.000000	87.796	8.9045
6300.000000	87.900	9.8436
6400.000000	88.053	9.9598
6500.000000	88.020	10.0775
6600.000000	88.189	11.9342
6700.000000	88.397	11.8035
6800.000000	88.639	12.4887
6900.000000	88.808	13.6718
7000.000000	88.970	13.5662
7100.000000	89.364	13.5022
7200.000000	89.846	13.7011
7300.000000	90.340	12.5255
7400.000000	90.691	12.8608
7500.000000	91.325	9.9171
7620.000000	92.081	8.2802
7750.000000	92.721	2.6542
7880.000000	93.404	-5.2362
8000.000000	93.985	-12.7790
8120.000000	93.608	-22.3752
8250.000000	92.784	-31.7324
8380.000000	91.610	-39.1396
8500.000000	90.543	-44.1725
8620.000000	89.127	-46.3103
8750.000000	87.996	-47.0255
8850.000000	87.022	-46.8243
9000.000000	85.786	-45.8836
9120.000000	84.972	-42.8969
9250.000000	84.089	-40.5514
9380.000000	83.291	-37.2876
9500.000000	82.732	-35.0212
9620.000000	81.987	-31.1663
9750.000000	81.467	-27.9953
9880.000000	81.010	-24.6565
10000.000000	80.747	-20.2621
10150.000000	80.357	-15.2854
10300.000000	79.913	-11.5856
10440.000000	79.863	-6.3295
10600.000000	79.674	-1.2973
10750.000000	79.625	1.7331
10900.000000	79.697	5.9633
11060.000000	79.562	9.3437
11200.000000	79.882	12.9784
11380.000000	80.043	17.0182
11500.000000	80.190	17.8784
11720.000000	80.845	20.8441
11800.000000	81.053	20.9502
12060.000000	81.613	19.4064
12200.000000	81.763	18.2128
12410.000000	81.984	15.0156
12500.000000	82.011	13.8526
12650.000000	81.956	10.1950
12800.000000	81.746	6.5842
13150.000000	80.856	0.9572
13200.000000	80.759	1.1915
13400.000000	80.003	0.0037
13600.000000	79.694	0.5212
13800.000000	79.457	0.9031
14000.000000	78.995	2.4572
14300.000000	79.056	4.8032
14500.000000	79.121	7.7142
14750.000000	79.863	9.1740
15000.000000	80.649	8.9783
15250.000000	81.572	6.3778
15500.000000	82.253	-2.7144
15750.000000	81.776	-15.0350
16000.000000	80.087	-25.2987
16250.000000	78.576	-28.0902
16500.000000	76.653	-27.8610
16750.000000	75.006	-22.8710
17000.000000	73.543	-15.9254
17250.000000	72.441	-6.9154
17500.000000	71.285	1.5918
17750.000000	70.518	10.7120
18000.000000	70.001	21.8782
18250.000000	69.600	29.9577
18500.000000	69.338	39.1715
18750.000000	69.539	46.8243
19000.000000	69.824	50.8813
19250.000000	70.139	55.1231
19500.000000	71.028	58.1657
19750.000000	72.538	56.7187
