* Measurement data measured by REW V5.30.9
* Source: Headset (Odo By VECLAN.COM), MICROPHONE (Master Volume), L, volume: 0.250
* Format: 1M Log Swept Sine, 1 sweep at -12.0 dBFS with no timing reference
* Dated: 10 13, 24 8:26:32 PM
* REW Settings:
*  C-weighting compensation: Off
*  Target level: 75.0 dB
* Note: ; 
* Measurement: ee merlin R
* Smoothing: None
* Frequency Step: 1/48 octave
* Start Frequency: 1.000 Hz
*
* Freq(Hz)	SPL(dB)	Phase(degrees)
1.000000	55.265	-76.8100
1.015000	56.003	-74.5933
1.030000	56.713	-72.5154
1.044000	57.346	-70.7145
1.060000	58.027	-68.8360
1.075000	58.619	-67.2645
1.090000	59.159	-65.8918
1.106000	59.678	-64.6601
1.120000	60.111	-63.7643
1.138000	60.651	-62.8421
1.150000	61.000	-62.3614
1.172000	61.618	-61.7359
1.180000	61.835	-61.5846
1.206000	62.519	-61.3442
1.220000	62.871	-61.3582
1.241000	63.381	-61.5412
1.250000	63.593	-61.6721
1.265000	63.937	-61.9507
1.280000	64.270	-62.2947
1.315000	65.006	-63.2842
1.320000	65.107	-63.4405
1.340000	65.499	-64.0853
1.360000	65.875	-64.7404
1.380000	66.235	-65.3775
1.400000	66.580	-65.9685
1.430000	67.070	-66.7068
1.450000	67.380	-67.0591
1.475000	67.748	-67.3161
1.500000	68.075	-67.5457
1.525000	68.360	-67.7932
1.550000	68.608	-68.0561
1.575000	68.824	-68.3324
1.600000	69.011	-68.6197
1.625000	69.176	-68.9158
1.650000	69.321	-69.2184
1.675000	69.453	-69.5253
1.700000	69.575	-69.8342
1.725000	69.692	-70.1428
1.750000	69.809	-70.4488
1.775000	69.930	-70.7501
1.800000	70.060	-71.0443
1.825000	70.204	-71.3293
1.850000	70.359	-71.6062
1.875000	70.510	-71.8826
1.900000	70.657	-72.1586
1.925000	70.800	-72.4340
1.950000	70.940	-72.7085
1.975000	71.076	-72.9820
2.000000	71.210	-73.2542
2.030000	71.366	-73.5789
2.060000	71.520	-73.9011
2.090000	71.670	-74.2204
2.120000	71.819	-74.5365
2.140000	71.917	-74.7452
2.180000	72.111	-75.1575
2.200000	72.207	-75.3608
2.240000	72.397	-75.7618
2.270000	72.536	-76.0581
2.300000	72.671	-76.3509
2.330000	72.804	-76.6404
2.360000	72.935	-76.9270
2.400000	73.106	-77.3050
2.430000	73.231	-77.5858
2.470000	73.397	-77.9572
2.500000	73.519	-78.2337
2.540000	73.680	-78.6004
2.580000	73.840	-78.9652
2.620000	73.996	-79.3272
2.650000	74.112	-79.5966
2.690000	74.263	-79.9530
2.720000	74.375	-80.2180
2.760000	74.521	-80.5683
2.800000	74.665	-80.9150
2.850000	74.842	-81.3431
2.900000	75.016	-81.7652
2.950000	75.187	-82.1810
3.000000	75.353	-82.5902
3.040000	75.483	-82.9130
3.070000	75.579	-83.1527
3.110000	75.706	-83.4690
3.150000	75.830	-83.7818
3.200000	75.983	-84.1683
3.250000	76.134	-84.5501
3.300000	76.284	-84.9274
3.350000	76.431	-85.2990
3.400000	76.575	-85.6641
3.450000	76.716	-86.0239
3.500000	76.856	-86.3794
3.550000	76.993	-86.7318
3.600000	77.129	-87.0821
3.650000	77.263	-87.4313
3.700000	77.395	-87.7794
3.750000	77.526	-88.1240
3.820000	77.706	-88.6019
3.870000	77.832	-88.9410
3.950000	78.031	-89.4817
4.000000	78.153	-89.8196
4.060000	78.298	-90.2258
4.120000	78.441	-90.6307
4.180000	78.581	-91.0346
4.250000	78.742	-91.5053
4.310000	78.878	-91.9090
4.370000	79.011	-92.3136
4.440000	79.164	-92.7874
4.500000	79.293	-93.1946
4.550000	79.399	-93.5345
4.620000	79.544	-94.0105
4.680000	79.666	-94.4184
4.750000	79.806	-94.8936
4.820000	79.944	-95.3688
4.870000	80.040	-95.7090
4.940000	80.172	-96.1850
5.000000	80.284	-96.5917
5.080000	80.429	-97.1300
5.150000	80.553	-97.5957
5.220000	80.675	-98.0581
5.300000	80.811	-98.5828
5.380000	80.943	-99.1022
5.450000	81.056	-99.5515
5.520000	81.167	-99.9953
5.600000	81.291	-100.4967
5.700000	81.442	-101.1147
5.800000	81.589	-101.7219
5.900000	81.733	-102.3173
6.000000	81.874	-102.9004
6.080000	81.983	-103.3589
6.150000	82.078	-103.7552
6.220000	82.171	-104.1475
6.300000	82.277	-104.5901
6.400000	82.406	-105.1338
6.500000	82.533	-105.6705
6.600000	82.658	-106.2039
6.700000	82.782	-106.7328
6.800000	82.903	-107.2569
6.900000	83.021	-107.7791
7.000000	83.138	-108.3024
7.100000	83.253	-108.8259
7.200000	83.366	-109.3486
7.300000	83.476	-109.8692
7.400000	83.582	-110.3883
7.500000	83.686	-110.9068
7.620000	83.807	-111.5234
7.750000	83.933	-112.1793
7.880000	84.054	-112.8268
8.000000	84.161	-113.4097
8.120000	84.265	-113.9705
8.250000	84.373	-114.5559
8.380000	84.479	-115.1200
8.500000	84.576	-115.6212
8.620000	84.672	-116.1021
8.750000	84.776	-116.6096
8.850000	84.856	-116.9946
9.000000	84.975	-117.5564
9.120000	85.070	-118.0062
9.250000	85.175	-118.5033
9.380000	85.281	-119.0049
9.500000	85.377	-119.4823
9.620000	85.472	-119.9793
9.750000	85.573	-120.5356
9.880000	85.666	-121.1111
10.000000	85.739	-121.6674
10.150000	85.817	-122.3860
10.300000	85.883	-123.0903
10.440000	85.932	-123.7408
10.600000	85.978	-124.4503
10.750000	86.012	-125.0530
10.900000	86.038	-125.6102
11.060000	86.066	-126.1756
11.200000	86.089	-126.6482
11.380000	86.120	-127.1917
11.500000	86.140	-127.4989
11.720000	86.182	-127.9982
11.800000	86.200	-128.1678
12.060000	86.265	-128.6884
12.200000	86.306	-129.0032
12.410000	86.374	-129.5074
12.500000	86.406	-129.7309
12.650000	86.468	-130.1127
12.800000	86.530	-130.5120
13.150000	86.664	-131.5277
13.200000	86.682	-131.6752
13.400000	86.747	-132.2772
13.600000	86.807	-132.8537
13.800000	86.861	-133.3830
14.000000	86.913	-133.8976
14.300000	86.992	-134.6479
14.500000	87.046	-135.1276
14.750000	87.112	-135.7170
15.000000	87.178	-136.3070
15.250000	87.241	-136.9557
15.500000	87.299	-137.6002
15.750000	87.350	-138.2187
16.000000	87.396	-138.8032
16.250000	87.444	-139.3612
16.500000	87.493	-139.8908
16.750000	87.542	-140.3793
17.000000	87.594	-140.8687
17.250000	87.647	-141.3669
17.500000	87.700	-141.8803
17.750000	87.748	-142.3872
18.000000	87.792	-142.8906
18.250000	87.834	-143.3963
18.500000	87.873	-143.8701
18.750000	87.911	-144.3133
19.000000	87.949	-144.7279
19.250000	87.989	-145.1455
19.500000	88.029	-145.5609
19.750000	88.068	-145.9733
20.000000	88.104	-146.3908
20.299999	88.145	-146.8904
20.600000	88.181	-147.3683
20.900000	88.216	-147.8051
21.200001	88.251	-148.2217
21.400000	88.276	-148.4952
21.799999	88.329	-149.0471
22.000000	88.354	-149.3371
22.400000	88.401	-149.9645
22.700001	88.426	-150.4332
23.000000	88.445	-150.8692
23.299999	88.460	-151.2667
23.600000	88.476	-151.6188
24.000000	88.504	-152.0546
24.299999	88.531	-152.4065
24.700001	88.564	-152.9334
25.000000	88.582	-153.3503
25.400000	88.590	-153.8756
25.799999	88.592	-154.2734
26.200001	88.604	-154.5481
26.500000	88.628	-154.7343
26.900000	88.679	-155.0475
27.200001	88.721	-155.3876
27.600000	88.767	-155.9735
28.000000	88.788	-156.5981
28.500000	88.786	-157.2382
29.000000	88.788	-157.6345
29.500000	88.819	-157.9549
30.000000	88.866	-158.3923
30.400000	88.898	-158.8475
30.700001	88.912	-159.1964
31.100000	88.922	-159.6076
31.500000	88.930	-159.9419
32.000000	88.952	-160.3027
32.500000	88.983	-160.7163
33.000000	89.007	-161.1989
33.500000	89.016	-161.6799
34.000000	89.017	-162.0817
34.500000	89.023	-162.4257
35.000000	89.034	-162.7518
35.500000	89.047	-163.0922
36.000000	89.060	-163.4359
36.500000	89.074	-163.7822
37.000000	89.089	-164.1319
37.500000	89.102	-164.4924
38.200001	89.118	-164.9908
38.700001	89.129	-165.3364
39.500000	89.143	-165.8633
40.000000	89.152	-166.1699
40.599998	89.164	-166.5231
41.200001	89.177	-166.8822
41.799999	89.184	-167.2428
42.500000	89.187	-167.6171
43.099998	89.193	-167.9033
43.700001	89.200	-168.2057
44.400002	89.202	-168.5593
45.000000	89.205	-168.8260
45.500000	89.213	-169.0721
46.200001	89.217	-169.4908
46.799999	89.205	-169.8158
47.500000	89.195	-170.0376
48.200001	89.212	-170.2608
48.700001	89.229	-170.5192
49.400002	89.238	-170.9239
50.000000	89.242	-171.2053
50.799999	89.257	-171.5654
51.500000	89.270	-171.9290
52.200001	89.276	-172.2694
53.000000	89.283	-172.6277
53.799999	89.287	-172.9610
54.500000	89.297	-173.2277
55.200001	89.308	-173.5442
56.000000	89.308	-173.9207
57.000000	89.310	-174.2734
58.000000	89.317	-174.7231
59.000000	89.298	-175.0694
60.000000	89.305	-175.3017
60.799999	89.313	-175.6251
61.500000	89.306	-175.8912
62.200001	89.300	-176.1097
63.000000	89.297	-176.3675
64.000000	89.288	-176.6873
65.000000	89.284	-176.9961
66.000000	89.279	-177.3094
67.000000	89.278	-177.6114
68.000000	89.274	-177.9134
69.000000	89.275	-178.2087
70.000000	89.270	-178.5094
71.000000	89.266	-178.7659
72.000000	89.265	-179.0438
73.000000	89.261	-179.3114
74.000000	89.256	-179.5826
75.000000	89.251	-179.8511
76.199997	89.245	179.8263
77.500000	89.233	179.4967
78.800003	89.228	179.2072
80.000000	89.223	178.8781
81.199997	89.211	178.5883
82.500000	89.202	178.3026
83.800003	89.195	177.9946
85.000000	89.184	177.7330
86.199997	89.181	177.4824
87.500000	89.175	177.1750
88.500000	89.167	176.9799
90.000000	89.163	176.6722
91.199997	89.149	176.4088
92.500000	89.134	176.2325
93.800003	89.134	175.9973
95.000000	89.118	175.7870
96.199997	89.120	175.5915
97.500000	89.109	175.2722
98.800003	89.093	175.0138
100.000000	89.080	174.7819
101.500000	89.066	174.4924
103.000000	89.058	174.1927
104.400002	89.042	173.9180
106.000000	89.032	173.6750
107.500000	89.023	173.3456
109.000000	88.999	173.1216
110.599998	88.982	172.8753
112.000000	88.969	172.6215
113.800003	88.949	172.3453
115.000000	88.937	172.1369
117.199997	88.925	171.8263
118.000000	88.912	171.7126
120.599998	88.896	171.2335
122.000000	88.861	171.1426
124.099998	88.856	170.8705
125.000000	88.842	170.6401
126.500000	88.817	170.5590
128.000000	88.833	170.3224
131.500000	88.797	169.7867
132.000000	88.791	169.7203
134.000000	88.761	169.5088
136.000000	88.752	169.2354
138.000000	88.730	168.9686
140.000000	88.714	168.7451
143.000000	88.690	168.4038
145.000000	88.669	168.1755
147.500000	88.643	167.9072
150.000000	88.621	167.5988
152.500000	88.596	167.3932
155.000000	88.569	167.1467
157.500000	88.540	166.8515
160.000000	88.525	166.5532
162.500000	88.475	166.3983
165.000000	88.430	166.1346
167.500000	88.373	165.9767
170.000000	88.333	165.7390
172.500000	88.304	165.5582
175.000000	88.264	165.3885
177.500000	88.196	165.1541
180.000000	88.180	165.1095
182.500000	88.107	164.7621
185.000000	88.072	164.4906
187.500000	88.026	164.0142
190.000000	87.989	164.1517
192.500000	87.997	164.2262
195.000000	87.908	164.1602
197.500000	87.884	164.4056
200.000000	87.838	164.1368
203.000000	87.827	164.1040
206.000000	87.856	164.1994
209.000000	87.834	163.7943
212.000000	87.814	163.8646
214.000000	87.774	163.6228
218.000000	87.846	163.2905
220.000000	87.674	162.7754
224.000000	87.745	162.7167
227.000000	87.736	162.0529
230.000000	87.633	161.9595
233.000000	87.631	161.8625
236.000000	87.636	161.6299
240.000000	87.517	161.4752
243.000000	87.538	161.1308
247.000000	87.494	160.8888
250.000000	87.445	160.5656
254.000000	87.396	160.4828
258.000000	87.327	160.1217
262.000000	87.278	160.0520
265.000000	87.233	159.9466
269.000000	87.179	159.7350
272.000000	87.138	159.6617
276.000000	87.081	159.4543
280.000000	87.018	159.3225
285.000000	86.960	159.1779
290.000000	86.886	159.1888
295.000000	86.829	158.9130
300.000000	86.755	158.9094
304.000000	86.711	158.7097
307.000000	86.661	158.7065
311.000000	86.615	158.6357
315.000000	86.564	158.3389
320.000000	86.499	158.6357
325.000000	86.461	158.1448
330.000000	86.347	158.4168
335.000000	86.362	158.3064
340.000000	86.219	158.1421
345.000000	86.215	158.1251
350.000000	86.163	158.2776
355.000000	86.046	157.9275
360.000000	86.066	158.1157
365.000000	85.972	158.1046
370.000000	85.908	157.9438
375.000000	85.850	158.3361
382.000000	85.804	158.1213
387.000000	85.766	158.1311
395.000000	85.658	158.1839
400.000000	85.608	158.0956
406.000000	85.503	157.9887
412.000000	85.468	158.3373
418.000000	85.377	158.0258
425.000000	85.370	158.4657
431.000000	85.278	158.6738
437.000000	85.221	158.7065
444.000000	85.195	159.0866
450.000000	85.040	158.9354
455.000000	85.023	158.7965
462.000000	85.047	159.0271
468.000000	84.858	159.7552
475.000000	84.841	159.2303
482.000000	84.740	159.6896
487.000000	84.723	159.7306
494.000000	84.663	159.8438
500.000000	84.594	160.2919
508.000000	84.546	160.8075
515.000000	84.509	160.9832
522.000000	84.467	161.2204
530.000000	84.428	161.2648
538.000000	84.409	161.8562
545.000000	84.429	162.1223
552.000000	84.335	162.3391
560.000000	84.297	162.2078
570.000000	84.228	162.7437
580.000000	84.122	162.6953
590.000000	84.063	163.1824
600.000000	84.031	163.4683
608.000000	83.968	163.6639
615.000000	83.941	164.3193
622.000000	83.871	164.4390
630.000000	83.864	164.8380
640.000000	83.766	165.1942
650.000000	83.723	165.7132
660.000000	83.721	166.1878
670.000000	83.656	166.6730
680.000000	83.623	167.2056
690.000000	83.561	167.7700
700.000000	83.508	168.2397
710.000000	83.510	168.9797
720.000000	83.482	169.5552
730.000000	83.460	170.0593
740.000000	83.438	170.7443
750.000000	83.429	171.3338
762.000000	83.406	172.0814
775.000000	83.399	172.8999
788.000000	83.407	173.7342
800.000000	83.399	174.3432
812.000000	83.409	175.3437
825.000000	83.427	176.1008
838.000000	83.453	176.9708
850.000000	83.462	177.7734
862.000000	83.519	178.5056
875.000000	83.552	179.4207
885.000000	83.599	-179.9432
900.000000	83.671	-179.0247
912.000000	83.732	-178.2509
925.000000	83.799	-177.4740
938.000000	83.873	-176.6866
950.000000	83.953	-176.0236
962.000000	84.037	-175.3490
975.000000	84.142	-174.6724
988.000000	84.209	-174.0275
1000.000000	84.336	-173.4397
1015.000000	84.463	-172.7751
1030.000000	84.593	-172.1131
1044.000000	84.735	-171.5985
1060.000000	84.880	-171.0331
1075.000000	85.028	-170.5930
1090.000000	85.178	-170.1112
1106.000000	85.343	-169.7097
1120.000000	85.476	-169.4686
1138.000000	85.665	-169.0249
1150.000000	85.776	-168.8539
1172.000000	85.995	-168.5238
1180.000000	86.084	-168.4088
1206.000000	86.351	-168.3097
1220.000000	86.482	-168.0098
1241.000000	86.697	-168.0132
1250.000000	86.790	-167.8815
1265.000000	86.946	-167.8719
1280.000000	87.099	-167.8464
1315.000000	87.478	-167.8278
1320.000000	87.534	-167.8022
1340.000000	87.749	-167.7481
1360.000000	87.952	-167.9821
1380.000000	88.189	-168.0259
1400.000000	88.412	-168.1836
1430.000000	88.769	-168.6100
1450.000000	89.022	-168.9405
1475.000000	89.313	-169.3412
1500.000000	89.653	-170.0635
1525.000000	89.942	-170.8047
1550.000000	90.304	-171.8589
1575.000000	90.592	-172.8950
1600.000000	90.934	-174.3704
1625.000000	91.224	-175.8827
1650.000000	91.551	-177.7616
1675.000000	91.866	-179.7605
1700.000000	92.112	177.8618
1725.000000	92.371	174.9591
1750.000000	92.567	171.9005
1775.000000	92.689	168.8292
1800.000000	92.712	165.4090
1825.000000	92.670	162.2008
1850.000000	92.568	158.9979
1875.000000	92.365	156.0217
1900.000000	92.074	153.7386
1925.000000	91.839	151.7308
1950.000000	91.474	150.0938
1975.000000	91.148	149.1993
2000.000000	90.834	148.7451
2030.000000	90.517	148.8217
2060.000000	90.310	149.3315
2090.000000	90.166	149.7058
2120.000000	90.082	150.1501
2140.000000	90.029	150.1421
2180.000000	89.959	150.3192
2200.000000	89.944	150.1345
2240.000000	89.890	150.0861
2270.000000	89.865	150.1676
2300.000000	89.863	149.8303
2330.000000	89.819	149.4226
2360.000000	89.802	149.1679
2400.000000	89.749	148.5012
2430.000000	89.703	148.1526
2470.000000	89.615	147.3421
2500.000000	89.562	146.9062
2540.000000	89.457	146.5411
2580.000000	89.335	146.2681
2620.000000	89.173	145.8212
2650.000000	89.108	145.7942
2690.000000	88.992	145.2802
2720.000000	88.845	145.1555
2760.000000	88.699	145.0716
2800.000000	88.482	145.0577
2850.000000	88.233	145.2104
2900.000000	87.956	145.9907
2950.000000	87.676	147.0477
3000.000000	87.461	148.5109
3040.000000	87.298	149.9485
3070.000000	87.231	150.8818
3110.000000	87.109	152.4528
3150.000000	87.041	153.8116
3200.000000	86.942	155.8022
3250.000000	86.841	157.7365
3300.000000	86.799	159.8644
3350.000000	86.781	162.1485
3400.000000	86.779	164.4497
3450.000000	86.873	166.7375
3500.000000	86.956	169.0944
3550.000000	87.110	171.3174
3600.000000	87.322	173.3020
3650.000000	87.544	175.0887
3700.000000	87.799	176.6368
3750.000000	88.089	177.7357
3820.000000	88.454	178.5978
3870.000000	88.696	178.6109
3950.000000	88.834	178.3094
4000.000000	88.799	178.3998
4060.000000	88.650	179.7845
4120.000000	88.596	-177.2257
4180.000000	88.726	-172.9191
4250.000000	89.363	-168.4646
4310.000000	90.057	-166.0269
4370.000000	90.857	-165.4263
4440.000000	91.699	-166.4531
4500.000000	92.304	-168.5850
4550.000000	92.681	-170.8677
4620.000000	93.059	-174.6828
4680.000000	93.139	-177.9591
4750.000000	93.057	178.6220
4820.000000	92.796	176.2327
4870.000000	92.528	175.2889
4940.000000	92.164	174.9655
5000.000000	91.889	175.5097
5080.000000	91.510	177.2476
5150.000000	91.327	179.2653
5220.000000	91.215	-178.3198
5300.000000	91.218	-175.4276
5380.000000	91.371	-172.8130
5450.000000	91.531	-170.9035
5520.000000	91.738	-169.3588
5600.000000	91.977	-167.9084
5700.000000	92.249	-166.1893
5800.000000	92.597	-164.5285
5900.000000	92.987	-163.0552
6000.000000	93.479	-162.0780
6080.000000	93.903	-161.7853
6150.000000	94.290	-162.0158
6220.000000	94.693	-162.8101
6300.000000	95.114	-164.4816
6400.000000	95.563	-167.6261
6500.000000	95.807	-171.5392
6600.000000	95.771	-175.3987
6700.000000	95.532	-178.4269
6800.000000	95.170	179.7972
6900.000000	94.777	179.3600
7000.000000	94.443	-179.9628
7100.000000	94.212	-178.4180
7200.000000	94.111	-176.3801
7300.000000	94.167	-174.2164
7400.000000	94.360	-172.0721
7500.000000	94.732	-170.2268
7620.000000	95.419	-169.2900
7750.000000	96.368	-170.5335
7880.000000	97.467	-175.5465
8000.000000	98.295	175.1284
8120.000000	98.336	161.4944
8250.000000	97.133	146.8123
8380.000000	95.061	137.4240
8500.000000	92.983	134.0301
8620.000000	91.018	134.3094
8750.000000	89.108	137.4543
8850.000000	87.800	141.3213
9000.000000	86.051	149.6951
9120.000000	85.046	159.2311
9250.000000	84.763	171.1147
9380.000000	85.564	179.3196
9500.000000	86.393	178.3184
9620.000000	86.186	173.8059
9750.000000	85.265	172.6108
9880.000000	84.377	175.1111
10000.000000	83.810	178.9783
10150.000000	83.523	-176.3365
10300.000000	83.503	-172.7006
10440.000000	83.652	-170.9774
10600.000000	83.940	-172.3839
10750.000000	83.944	-178.1386
10900.000000	83.107	173.0914
11060.000000	81.033	165.4238
11200.000000	78.567	163.9242
11380.000000	75.179	170.2081
11500.000000	73.093	179.3972
11720.000000	70.601	-157.2468
11800.000000	69.936	-148.1369
12060.000000	69.425	-115.5825
12200.000000	70.078	-101.5698
12410.000000	71.542	-86.1330
12500.000000	72.209	-81.8447
12650.000000	73.183	-77.2968
12800.000000	73.921	-74.9899
13150.000000	74.436	-73.5549
13200.000000	74.385	-73.1652
13400.000000	74.014	-70.8331
13600.000000	73.595	-66.6331
13800.000000	73.233	-61.1501
14000.000000	73.057	-55.1529
14300.000000	73.258	-46.7112
14500.000000	73.711	-42.8095
14750.000000	74.497	-41.6438
15000.000000	75.200	-46.2264
15250.000000	75.190	-55.7581
15500.000000	74.424	-66.5475
15750.000000	73.009	-79.2702
16000.000000	69.993	-95.4462
16250.000000	64.506	-100.4995
16500.000000	58.661	-80.9399
16750.000000	55.783	-41.8207
17000.000000	56.692	-8.5655
17250.000000	58.252	12.4303
17500.000000	59.562	24.8406
17750.000000	60.624	34.9406
18000.000000	61.587	42.6862
18250.000000	62.374	50.2502
18500.000000	63.168	54.4758
18750.000000	63.550	55.0383
19000.000000	63.072	53.3622
19250.000000	61.669	53.8053
19500.000000	59.701	59.5438
19750.000000	57.970	71.3081
