* Measurement data measured by REW V5.30.9
* Source: Headset (Odo By VECLAN.COM), MICROPHONE (Master Volume), L, volume: 0.250
* Format: 1M Log Swept Sine, 1 sweep at -12.0 dBFS with no timing reference
* Dated: 10 13, 24 8:28:16 PM
* REW Settings:
*  C-weighting compensation: Off
*  Target level: 75.0 dB
* Note: ; 
* Measurement: ee merlin L
* Smoothing: None
* Frequency Step: 1/48 octave
* Start Frequency: 1.000 Hz
*
* Freq(Hz)	SPL(dB)	Phase(degrees)
1.000000	57.812	67.1656
1.015000	57.645	64.9528
1.030000	57.505	62.6221
1.044000	57.404	60.3326
1.060000	57.327	57.5715
1.075000	57.295	54.8340
1.090000	57.307	51.9432
1.106000	57.370	48.6621
1.120000	57.462	45.5210
1.138000	57.628	41.1177
1.150000	57.765	37.9765
1.172000	58.067	31.8454
1.180000	58.192	29.5108
1.206000	58.648	21.6058
1.220000	58.921	17.1861
1.241000	59.360	10.4060
1.250000	59.558	7.4618
1.265000	59.899	2.5262
1.280000	60.251	-2.4202
1.315000	61.102	-13.8430
1.320000	61.225	-15.4457
1.340000	61.719	-21.7411
1.360000	62.210	-27.8012
1.380000	62.692	-33.5580
1.400000	63.158	-38.9438
1.430000	63.814	-46.1783
1.450000	64.214	-50.3395
1.475000	64.666	-54.7058
1.500000	65.106	-58.3404
1.525000	65.544	-61.3599
1.550000	65.979	-63.8310
1.575000	66.410	-65.8209
1.600000	66.835	-67.3965
1.625000	67.252	-68.6247
1.650000	67.661	-69.5724
1.675000	68.061	-70.3067
1.700000	68.449	-70.8946
1.725000	68.825	-71.4029
1.750000	69.187	-71.8986
1.775000	69.534	-72.4487
1.800000	69.865	-73.1202
1.825000	70.178	-73.9800
1.850000	70.473	-74.9854
1.875000	70.748	-75.9124
1.900000	71.006	-76.7583
1.925000	71.247	-77.5314
1.950000	71.475	-78.2398
1.975000	71.689	-78.8918
2.000000	71.891	-79.4954
2.030000	72.121	-80.1675
2.060000	72.339	-80.7958
2.090000	72.548	-81.3946
2.120000	72.750	-81.9780
2.140000	72.882	-82.3652
2.180000	73.144	-83.1547
2.200000	73.276	-83.5650
2.240000	73.527	-84.3664
2.270000	73.704	-84.9347
2.300000	73.871	-85.4772
2.330000	74.030	-85.9960
2.360000	74.181	-86.4931
2.400000	74.372	-87.1256
2.430000	74.508	-87.5800
2.470000	74.683	-88.1630
2.500000	74.810	-88.5858
2.540000	74.975	-89.1341
2.580000	75.137	-89.6680
2.620000	75.290	-90.1791
2.650000	75.399	-90.5460
2.690000	75.536	-91.0132
2.720000	75.634	-91.3471
2.760000	75.758	-91.7704
2.800000	75.877	-92.1686
2.850000	76.019	-92.6311
2.900000	76.157	-93.0544
2.950000	76.291	-93.4381
3.000000	76.416	-93.7787
3.040000	76.510	-94.0211
3.070000	76.577	-94.1861
3.110000	76.663	-94.3848
3.150000	76.747	-94.5602
3.200000	76.849	-94.7486
3.250000	76.951	-94.9052
3.300000	77.056	-95.0321
3.350000	77.159	-95.1173
3.400000	77.259	-95.1570
3.450000	77.357	-95.1602
3.500000	77.454	-95.1361
3.550000	77.553	-95.0935
3.600000	77.654	-95.0415
3.650000	77.759	-94.9891
3.700000	77.869	-94.9313
3.750000	77.981	-94.8446
3.820000	78.141	-94.6939
3.870000	78.258	-94.5807
3.950000	78.451	-94.4216
4.000000	78.574	-94.3536
4.060000	78.726	-94.3141
4.120000	78.884	-94.2893
4.180000	79.047	-94.2829
4.250000	79.239	-94.3128
4.310000	79.405	-94.3823
4.370000	79.568	-94.5034
4.440000	79.757	-94.7188
4.500000	79.920	-94.9583
4.550000	80.056	-95.1932
4.620000	80.244	-95.5718
4.680000	80.401	-95.9386
4.750000	80.575	-96.4107
4.820000	80.741	-96.9397
4.870000	80.856	-97.3606
4.940000	81.012	-97.9953
5.000000	81.140	-98.5680
5.080000	81.298	-99.3503
5.150000	81.425	-100.0349
5.220000	81.540	-100.7513
5.300000	81.660	-101.6005
5.380000	81.768	-102.4504
5.450000	81.853	-103.1683
5.520000	81.930	-103.8437
5.600000	82.003	-104.5999
5.700000	82.079	-105.5079
5.800000	82.144	-106.3307
5.900000	82.206	-107.0259
6.000000	82.254	-107.6055
6.080000	82.289	-107.9959
6.150000	82.322	-108.2874
6.220000	82.361	-108.5352
6.300000	82.413	-108.7451
6.400000	82.482	-108.8970
6.500000	82.562	-108.9939
6.600000	82.660	-109.1087
6.700000	82.780	-109.2084
6.800000	82.917	-109.2932
6.900000	83.066	-109.4430
7.000000	83.223	-109.7266
7.100000	83.396	-110.1093
7.200000	83.576	-110.5885
7.300000	83.750	-111.1791
7.400000	83.913	-111.9044
7.500000	84.075	-112.7646
7.620000	84.252	-113.9013
7.750000	84.409	-115.1892
7.880000	84.534	-116.6043
8.000000	84.621	-117.8927
8.120000	84.676	-119.0459
8.250000	84.696	-120.2275
8.380000	84.695	-121.2037
8.500000	84.684	-121.8062
8.620000	84.654	-122.1689
8.750000	84.633	-122.2929
8.850000	84.644	-122.1703
9.000000	84.683	-121.5878
9.120000	84.758	-121.0097
9.250000	84.908	-120.3928
9.380000	85.119	-119.7004
9.500000	85.350	-119.2656
9.620000	85.616	-119.1662
9.750000	85.946	-119.3289
9.880000	86.269	-119.8520
10.000000	86.546	-120.7279
10.150000	86.875	-122.2666
10.300000	87.139	-124.0986
10.440000	87.329	-126.1329
10.600000	87.472	-128.6023
10.750000	87.522	-130.9053
10.900000	87.496	-133.2022
11.060000	87.394	-135.3488
11.200000	87.236	-137.0340
11.380000	86.982	-138.5671
11.500000	86.775	-139.1094
11.720000	86.393	-139.1727
11.800000	86.275	-138.8348
12.060000	85.975	-136.7148
12.200000	85.939	-135.3120
12.410000	86.026	-133.0218
12.500000	86.110	-132.2853
12.650000	86.326	-131.2852
12.800000	86.573	-130.6863
13.150000	87.128	-131.2342
13.200000	87.192	-131.4438
13.400000	87.405	-132.6729
13.600000	87.538	-134.0449
13.800000	87.580	-135.4059
14.000000	87.568	-136.5058
14.300000	87.479	-137.5573
14.500000	87.423	-137.7604
14.750000	87.398	-137.7464
15.000000	87.436	-137.6122
15.250000	87.530	-137.8371
15.500000	87.626	-138.4529
15.750000	87.693	-139.4331
16.000000	87.693	-140.6010
16.250000	87.631	-141.6263
16.500000	87.523	-142.3297
16.750000	87.403	-142.4573
17.000000	87.337	-142.1332
17.250000	87.348	-141.5777
17.500000	87.464	-141.1131
17.750000	87.642	-141.1592
18.000000	87.840	-141.7837
18.250000	88.012	-143.0515
18.500000	88.102	-144.6355
18.750000	88.106	-146.2380
19.000000	88.022	-147.5777
19.250000	87.893	-148.2793
19.500000	87.778	-148.3141
19.750000	87.724	-147.7010
20.000000	87.796	-146.8794
20.299999	88.017	-146.2956
20.600000	88.315	-146.6064
20.900000	88.579	-147.9204
21.200001	88.707	-149.8526
21.400000	88.698	-151.0631
21.799999	88.509	-152.5013
22.000000	88.391	-152.4464
22.400000	88.299	-150.7912
22.700001	88.474	-149.1701
23.000000	88.830	-148.5573
23.299999	89.203	-149.4674
23.600000	89.450	-151.6245
24.000000	89.428	-155.3137
24.299999	89.125	-157.4171
24.700001	88.479	-157.6409
25.000000	88.063	-155.2988
25.400000	87.986	-150.0647
25.799999	88.529	-146.0961
26.200001	89.278	-145.6644
26.500000	89.727	-147.2322
26.900000	90.055	-150.5347
27.200001	90.107	-153.0983
27.600000	89.992	-155.9369
28.000000	89.773	-157.8195
28.500000	89.490	-159.0045
29.000000	89.274	-159.3789
29.500000	89.149	-159.4494
30.000000	89.089	-159.6715
30.400000	89.037	-160.0220
30.700001	88.977	-160.2250
31.100000	88.893	-160.1485
31.500000	88.864	-159.6751
32.000000	88.968	-159.1895
32.500000	89.137	-159.7023
33.000000	89.195	-160.9686
33.500000	89.113	-161.8766
34.000000	89.047	-161.9171
34.500000	89.106	-162.0146
35.000000	89.170	-162.9914
35.500000	89.082	-164.2011
36.000000	88.908	-164.3372
36.500000	88.884	-163.4503
37.000000	89.076	-163.2503
37.500000	89.255	-164.6688
38.200001	89.130	-167.0998
38.700001	88.919	-167.1084
39.500000	89.018	-165.5069
40.000000	89.259	-165.8341
40.599998	89.400	-167.3953
41.200001	89.351	-168.3737
41.799999	89.321	-168.2374
42.500000	89.441	-167.9839
43.099998	89.559	-168.4538
43.700001	89.592	-169.1622
44.400002	89.552	-169.6787
45.000000	89.511	-169.8446
45.500000	89.478	-169.9763
46.200001	89.415	-170.1334
46.799999	89.364	-170.1079
47.500000	89.351	-170.1787
48.200001	89.328	-170.6749
48.700001	89.273	-171.0222
49.400002	89.202	-171.0710
50.000000	89.216	-171.0320
50.799999	89.274	-171.5506
51.500000	89.273	-172.1938
52.200001	89.255	-172.5613
53.000000	89.263	-172.8419
53.799999	89.278	-173.1636
54.500000	89.287	-173.4174
55.200001	89.294	-173.6660
56.000000	89.293	-173.9324
57.000000	89.300	-174.1953
58.000000	89.318	-174.6576
59.000000	89.290	-175.1806
60.000000	89.263	-175.4138
60.799999	89.267	-175.6130
61.500000	89.269	-175.8227
62.200001	89.273	-176.0311
63.000000	89.276	-176.2865
64.000000	89.270	-176.5760
65.000000	89.270	-176.8300
66.000000	89.266	-177.1316
67.000000	89.259	-177.4024
68.000000	89.257	-177.6863
69.000000	89.253	-178.0120
70.000000	89.246	-178.2571
71.000000	89.251	-178.5333
72.000000	89.245	-178.8297
73.000000	89.240	-179.0337
74.000000	89.239	-179.2640
75.000000	89.235	-179.4932
76.199997	89.233	-179.7784
77.500000	89.225	179.8701
78.800003	89.212	179.5646
80.000000	89.207	179.2941
81.199997	89.205	179.0138
82.500000	89.206	178.6269
83.800003	89.174	178.2760
85.000000	89.169	178.1714
86.199997	89.180	177.8404
87.500000	89.157	177.5368
88.500000	89.155	177.4154
90.000000	89.142	177.0778
91.199997	89.126	176.9236
92.500000	89.112	176.7505
93.800003	89.118	176.5191
95.000000	89.086	176.2058
96.199997	89.084	176.1613
97.500000	89.078	175.7912
98.800003	89.079	175.7098
100.000000	89.075	175.2535
101.500000	89.065	175.2577
103.000000	89.056	174.6414
104.400002	89.017	174.6554
106.000000	89.031	174.5015
107.500000	89.028	174.0242
109.000000	89.001	173.8394
110.599998	88.997	173.5139
112.000000	88.976	173.2397
113.800003	88.955	172.9731
115.000000	88.932	172.8973
117.199997	88.909	172.6669
118.000000	88.915	172.5259
120.599998	88.865	172.2487
122.000000	88.864	171.9584
124.099998	88.852	171.5828
125.000000	88.836	171.4704
126.500000	88.826	171.3061
128.000000	88.818	171.0770
131.500000	88.785	170.6494
132.000000	88.783	170.6006
134.000000	88.772	170.3668
136.000000	88.750	170.1640
138.000000	88.732	169.9409
140.000000	88.712	169.7007
143.000000	88.690	169.3383
145.000000	88.661	169.1309
147.500000	88.642	168.8801
150.000000	88.608	168.6722
152.500000	88.579	168.3994
155.000000	88.560	168.0930
157.500000	88.530	168.0078
160.000000	88.480	167.7487
162.500000	88.429	167.5324
165.000000	88.394	167.3698
167.500000	88.332	167.3349
170.000000	88.254	167.2497
172.500000	88.234	166.9943
175.000000	88.134	166.8329
177.500000	88.142	167.4731
180.000000	87.900	166.0616
182.500000	87.883	165.8522
185.000000	88.083	166.1993
187.500000	88.315	167.9077
190.000000	87.982	169.8232
192.500000	88.086	170.6236
195.000000	87.932	166.7382
197.500000	88.395	167.3607
200.000000	88.461	165.6876
203.000000	88.244	164.8035
206.000000	88.099	164.9647
209.000000	88.155	164.8672
212.000000	88.164	164.4357
214.000000	88.087	164.4427
218.000000	88.064	163.8167
220.000000	88.002	163.6806
224.000000	87.937	163.5291
227.000000	87.899	163.2267
230.000000	87.880	163.1274
233.000000	87.837	162.8309
236.000000	87.798	162.7162
240.000000	87.800	162.2180
243.000000	87.725	162.0266
247.000000	87.642	162.0404
250.000000	87.629	161.7484
254.000000	87.593	161.5801
258.000000	87.518	161.6267
262.000000	87.461	161.2730
265.000000	87.420	161.4229
269.000000	87.382	161.0799
272.000000	87.342	160.9038
276.000000	87.288	160.8025
280.000000	87.253	160.7469
285.000000	87.167	160.7523
290.000000	87.113	160.5770
295.000000	87.043	160.4022
300.000000	87.013	160.2995
304.000000	86.962	160.1602
307.000000	86.919	160.0790
311.000000	86.882	160.0100
315.000000	86.835	160.0036
320.000000	86.784	159.8949
325.000000	86.716	159.6707
330.000000	86.669	159.5926
335.000000	86.604	159.5555
340.000000	86.552	159.5742
345.000000	86.499	159.3934
350.000000	86.430	159.4025
355.000000	86.415	159.3539
360.000000	86.353	159.3042
365.000000	86.296	159.2557
370.000000	86.250	159.4162
375.000000	86.146	159.2329
382.000000	86.104	159.3344
387.000000	86.018	159.3320
395.000000	85.959	159.2942
400.000000	85.935	159.1469
406.000000	85.832	159.1034
412.000000	85.755	159.3083
418.000000	85.750	159.4802
425.000000	85.648	159.6376
431.000000	85.611	159.7396
437.000000	85.544	159.8970
444.000000	85.493	159.9089
450.000000	85.434	159.7427
455.000000	85.384	160.0280
462.000000	85.311	160.2382
468.000000	85.269	160.3636
475.000000	85.226	160.4756
482.000000	85.151	160.4639
487.000000	85.141	160.6955
494.000000	85.042	160.8799
500.000000	85.007	160.8999
508.000000	84.923	161.1995
515.000000	84.887	161.3471
522.000000	84.831	161.6155
530.000000	84.774	161.7928
538.000000	84.731	162.1058
545.000000	84.668	162.3021
552.000000	84.616	162.5381
560.000000	84.566	162.8474
570.000000	84.500	163.2529
580.000000	84.440	163.6767
590.000000	84.365	164.0763
600.000000	84.319	164.4658
608.000000	84.261	164.8848
615.000000	84.234	165.3287
622.000000	84.204	165.3930
630.000000	84.149	165.7854
640.000000	84.094	166.2688
650.000000	84.054	166.8901
660.000000	84.000	167.2624
670.000000	83.975	167.8751
680.000000	83.937	168.2571
690.000000	83.906	169.1260
700.000000	83.860	169.4500
710.000000	83.835	170.1993
720.000000	83.800	170.9203
730.000000	83.810	171.6259
740.000000	83.778	172.3675
750.000000	83.832	173.0112
762.000000	83.830	173.6014
775.000000	83.845	174.1164
788.000000	83.902	174.5320
800.000000	83.838	175.5895
812.000000	83.869	176.1139
825.000000	83.890	177.1510
838.000000	83.902	177.6979
850.000000	83.955	178.2889
862.000000	83.964	179.2470
875.000000	83.986	-179.9032
885.000000	84.038	-179.2289
900.000000	84.104	-178.4120
912.000000	84.158	-177.6931
925.000000	84.234	-176.9012
938.000000	84.318	-176.1554
950.000000	84.378	-175.5080
962.000000	84.475	-174.8614
975.000000	84.565	-174.2012
988.000000	84.667	-173.5298
1000.000000	84.767	-172.9914
1015.000000	84.910	-172.3360
1030.000000	85.045	-171.7758
1044.000000	85.177	-171.1753
1060.000000	85.321	-170.7198
1075.000000	85.473	-170.2572
1090.000000	85.626	-169.8618
1106.000000	85.789	-169.5591
1120.000000	85.930	-169.2106
1138.000000	86.107	-168.9007
1150.000000	86.231	-168.6305
1172.000000	86.453	-168.4127
1180.000000	86.539	-168.3356
1206.000000	86.766	-168.1513
1220.000000	86.928	-168.1583
1241.000000	87.162	-167.8215
1250.000000	87.236	-167.9102
1265.000000	87.424	-168.0252
1280.000000	87.558	-167.9614
1315.000000	87.953	-168.2734
1320.000000	88.002	-168.1162
1340.000000	88.182	-168.1338
1360.000000	88.389	-168.3976
1380.000000	88.685	-168.6468
1400.000000	88.872	-168.7346
1430.000000	89.255	-169.4392
1450.000000	89.472	-169.6587
1475.000000	89.774	-170.4043
1500.000000	90.098	-171.3247
1525.000000	90.403	-171.9951
1550.000000	90.750	-173.2272
1575.000000	91.006	-174.4847
1600.000000	91.348	-175.9387
1625.000000	91.621	-177.6010
1650.000000	91.909	-179.4526
1675.000000	92.181	178.4932
1700.000000	92.406	176.1695
1725.000000	92.640	173.7250
1750.000000	92.830	171.0328
1775.000000	92.965	168.1595
1800.000000	93.126	164.8259
1825.000000	93.149	161.4265
1850.000000	93.048	157.7672
1875.000000	92.861	154.8596
1900.000000	92.610	152.2308
1925.000000	92.328	149.2031
1950.000000	92.041	147.5043
1975.000000	91.657	146.0923
2000.000000	91.368	145.7812
2030.000000	90.949	144.6747
2060.000000	90.566	144.4514
2090.000000	90.319	145.1984
2120.000000	90.101	145.7996
2140.000000	90.000	146.6060
2180.000000	89.920	147.1300
2200.000000	89.901	147.4283
2240.000000	89.891	147.5829
2270.000000	89.886	147.1502
2300.000000	89.888	147.5726
2330.000000	89.802	147.2923
2360.000000	89.804	147.1354
2400.000000	89.805	147.0487
2430.000000	89.752	146.5728
2470.000000	89.724	146.1166
2500.000000	89.698	145.5827
2540.000000	89.630	145.0081
2580.000000	89.536	144.3141
2620.000000	89.400	143.7025
2650.000000	89.300	143.3445
2690.000000	89.146	142.9741
2720.000000	89.027	142.8022
2760.000000	88.856	142.7303
2800.000000	88.689	142.8110
2850.000000	88.469	143.0883
2900.000000	88.259	143.6542
2950.000000	88.049	144.5422
3000.000000	87.863	145.5170
3040.000000	87.722	146.5958
3070.000000	87.630	147.4451
3110.000000	87.546	148.7506
3150.000000	87.489	149.9646
3200.000000	87.390	151.8055
3250.000000	87.367	153.5145
3300.000000	87.417	155.6266
3350.000000	87.494	157.1360
3400.000000	87.607	158.7971
3450.000000	87.773	159.9863
3500.000000	88.005	160.7594
3550.000000	88.243	160.8815
3600.000000	88.449	160.2786
3650.000000	88.613	159.0187
3700.000000	88.579	156.7039
3750.000000	88.354	154.3965
3820.000000	87.515	152.2519
3870.000000	86.674	152.9647
3950.000000	85.339	160.6110
4000.000000	84.962	168.5760
4060.000000	85.169	178.6536
4120.000000	85.982	-172.9964
4180.000000	87.090	-167.8181
4250.000000	88.351	-165.3204
4310.000000	89.327	-165.1237
4370.000000	90.151	-166.3644
4440.000000	90.912	-168.4635
4500.000000	91.431	-170.8371
4550.000000	91.771	-172.8618
4620.000000	92.108	-175.8915
4680.000000	92.280	-178.4815
4750.000000	92.345	178.7491
4820.000000	92.285	176.4055
4870.000000	92.173	175.1541
4940.000000	91.969	174.0949
5000.000000	91.788	173.8455
5080.000000	91.508	174.2217
5150.000000	91.319	175.1388
5220.000000	91.178	176.4357
5300.000000	91.102	178.1934
5380.000000	91.086	-179.8353
5450.000000	91.137	-178.1202
5520.000000	91.255	-176.3772
5600.000000	91.442	-174.5405
5700.000000	91.765	-172.6198
5800.000000	92.178	-171.1648
5900.000000	92.681	-170.4534
6000.000000	93.201	-170.7592
6080.000000	93.609	-171.9485
6150.000000	93.916	-173.6723
6220.000000	94.146	-175.7617
6300.000000	94.297	-178.7286
6400.000000	94.315	177.4508
6500.000000	94.075	173.9243
6600.000000	93.681	171.6386
6700.000000	93.200	170.6689
6800.000000	92.739	170.9733
6900.000000	92.346	172.2268
7000.000000	92.054	174.2303
7100.000000	91.870	176.6728
7200.000000	91.826	179.3115
7300.000000	91.914	-178.1626
7400.000000	92.137	-175.8044
7500.000000	92.475	-173.9414
7620.000000	93.064	-172.9157
7750.000000	93.851	-173.7316
7880.000000	94.702	-177.8233
8000.000000	95.331	174.4047
8120.000000	95.171	163.7850
8250.000000	94.026	153.3882
8380.000000	92.407	147.1067
8500.000000	90.762	144.7605
8620.000000	89.146	145.0190
8750.000000	87.537	147.6912
8850.000000	86.393	151.1584
9000.000000	84.842	158.3388
9120.000000	83.821	166.4456
9250.000000	83.274	177.8671
9380.000000	83.848	-171.3662
9500.000000	85.035	-169.4253
9620.000000	85.307	-174.8392
9750.000000	84.444	-178.0549
9880.000000	83.454	-176.2761
10000.000000	82.697	-172.6128
10150.000000	82.147	-166.9178
10300.000000	81.894	-160.8979
10440.000000	81.862	-155.8083
10600.000000	82.123	-150.9938
10750.000000	82.660	-148.8099
10900.000000	83.215	-150.6134
11060.000000	83.218	-157.3310
11200.000000	82.363	-163.9582
11380.000000	80.254	-167.6004
11500.000000	78.684	-165.4767
11720.000000	76.311	-153.6162
11800.000000	75.795	-147.9069
12060.000000	75.199	-131.8315
12200.000000	75.151	-126.0280
12410.000000	74.963	-120.5679
12500.000000	74.745	-118.4491
12650.000000	74.265	-115.2181
12800.000000	73.606	-111.4976
13150.000000	71.922	-99.6294
13200.000000	71.721	-97.6099
13400.000000	70.864	-88.6066
13600.000000	70.154	-79.0804
13800.000000	69.582	-68.7107
14000.000000	69.222	-58.1143
14300.000000	68.996	-42.1160
14500.000000	69.213	-31.6153
14750.000000	69.749	-19.3279
15000.000000	70.787	-8.5348
15250.000000	72.391	-1.0375
15500.000000	74.461	1.5109
15750.000000	76.830	-5.9266
16000.000000	78.253	-24.9822
16250.000000	77.679	-52.5628
16500.000000	73.490	-73.8120
16750.000000	68.217	-68.0238
17000.000000	65.230	-48.4437
17250.000000	63.994	-27.7202
17500.000000	63.862	-10.0862
17750.000000	64.306	3.6405
18000.000000	65.121	12.4598
18250.000000	65.856	13.9952
18500.000000	65.423	9.7204
18750.000000	63.488	8.4245
19000.000000	61.058	15.3530
19250.000000	58.935	28.2230
19500.000000	57.245	43.4299
19750.000000	56.195	62.2651
