* Measurement data measured by REW V5.30.9
* Source: Headset (Odo By VECLAN.COM), no input selected, L, volume: no control
* Format: 512k Log Swept Sine, 1 sweep at -12.0 dBFS with no timing reference
* Dated: 09 30, 24 3:30:01 PM
* REW Settings:
*  C-weighting compensation: Off
*  Target level: 75.0 dB
* Note: ; 
* Measurement: em6l L
* Smoothing: None
* Frequency Step: 1/48 octave
* Start Frequency: 1.000 Hz
*
* Freq(Hz)	SPL(dB)	Phase(degrees)
1.000000	50.440	-104.7179
1.015000	50.699	-105.3137
1.030000	50.958	-105.9079
1.044000	51.198	-106.4630
1.060000	51.470	-107.1004
1.075000	51.723	-107.7030
1.090000	51.974	-108.3128
1.106000	52.240	-108.9705
1.120000	52.472	-109.5373
1.138000	52.768	-110.2504
1.150000	52.965	-110.7166
1.172000	53.325	-111.5538
1.180000	53.455	-111.8530
1.206000	53.876	-112.8079
1.220000	54.101	-113.3120
1.241000	54.437	-114.0568
1.250000	54.580	-114.3723
1.265000	54.818	-114.8937
1.280000	55.054	-115.4104
1.315000	55.601	-116.6016
1.320000	55.679	-116.7706
1.340000	55.988	-117.4446
1.360000	56.294	-118.1171
1.380000	56.598	-118.7898
1.400000	56.900	-119.4646
1.430000	57.347	-120.4847
1.450000	57.642	-121.1727
1.475000	58.006	-122.0433
1.500000	58.367	-122.9120
1.525000	58.724	-123.7762
1.550000	59.077	-124.6365
1.575000	59.427	-125.4936
1.600000	59.772	-126.3482
1.625000	60.114	-127.2012
1.650000	60.452	-128.0532
1.675000	60.786	-128.9049
1.700000	61.117	-129.7570
1.725000	61.443	-130.6104
1.750000	61.766	-131.4658
1.775000	62.085	-132.3237
1.800000	62.401	-133.1851
1.825000	62.712	-134.0506
1.850000	63.020	-134.9201
1.875000	63.323	-135.7919
1.900000	63.623	-136.6657
1.925000	63.919	-137.5414
1.950000	64.211	-138.4188
1.975000	64.499	-139.2977
2.000000	64.783	-140.1779
2.030000	65.119	-141.2355
2.060000	65.450	-142.2945
2.090000	65.776	-143.3544
2.120000	66.098	-144.4149
2.140000	66.309	-145.1221
2.180000	66.725	-146.5365
2.200000	66.930	-147.2436
2.240000	67.333	-148.6609
2.270000	67.629	-149.7271
2.300000	67.920	-150.7952
2.330000	68.206	-151.8646
2.360000	68.486	-152.9345
2.400000	68.853	-154.3607
2.430000	69.122	-155.4291
2.470000	69.475	-156.8508
2.500000	69.734	-157.9138
2.540000	70.073	-159.3258
2.580000	70.405	-160.7308
2.620000	70.729	-162.1349
2.650000	70.966	-163.1877
2.690000	71.275	-164.5892
2.720000	71.502	-165.6380
2.760000	71.797	-167.0316
2.800000	72.085	-168.4181
2.850000	72.436	-170.1388
2.900000	72.777	-171.8423
2.950000	73.108	-173.5266
3.000000	73.428	-175.2001
3.040000	73.676	-176.5311
3.070000	73.857	-177.5238
3.110000	74.093	-178.8387
3.150000	74.323	179.8578
3.200000	74.602	178.2471
3.250000	74.873	176.6599
3.300000	75.137	175.0992
3.350000	75.391	173.5605
3.400000	75.636	172.0406
3.450000	75.872	170.5417
3.500000	76.100	169.0662
3.550000	76.320	167.6163
3.600000	76.534	166.1943
3.650000	76.743	164.8026
3.700000	76.946	163.4412
3.750000	77.141	162.1063
3.820000	77.402	160.2830
3.870000	77.581	159.0140
3.950000	77.858	157.0436
4.000000	78.026	155.8506
4.060000	78.224	154.4596
4.120000	78.415	153.1143
4.180000	78.598	151.8125
4.250000	78.805	150.3447
4.310000	78.979	149.1273
4.370000	79.150	147.9444
4.440000	79.348	146.6093
4.500000	79.514	145.5121
4.550000	79.649	144.6271
4.620000	79.835	143.4255
4.680000	79.993	142.4234
4.750000	80.177	141.2781
4.820000	80.361	140.1618
4.870000	80.491	139.3904
4.940000	80.673	138.3388
5.000000	80.827	137.4559
5.080000	81.032	136.2927
5.150000	81.210	135.2779
5.220000	81.389	134.2785
5.300000	81.592	133.1547
5.380000	81.793	132.0407
5.450000	81.968	131.0657
5.520000	82.140	130.0842
5.600000	82.334	128.9618
5.700000	82.575	127.5595
5.800000	82.809	126.1554
5.900000	83.036	124.7460
6.000000	83.257	123.3281
6.080000	83.428	122.1924
6.150000	83.575	121.2013
6.220000	83.716	120.2157
6.300000	83.873	119.0936
6.400000	84.062	117.6936
6.500000	84.243	116.3065
6.600000	84.416	114.9428
6.700000	84.581	113.6005
6.800000	84.738	112.2776
6.900000	84.889	110.9800
7.000000	85.034	109.7129
7.100000	85.173	108.4745
7.200000	85.306	107.2634
7.300000	85.435	106.0788
7.400000	85.560	104.9217
7.500000	85.681	103.7930
7.620000	85.821	102.4700
7.750000	85.968	101.0691
7.880000	86.109	99.7055
8.000000	86.235	98.4748
8.120000	86.358	97.2653
8.250000	86.485	95.9814
8.380000	86.608	94.7239
8.500000	86.717	93.5845
8.620000	86.822	92.4663
8.750000	86.931	91.2800
8.850000	87.012	90.3862
9.000000	87.128	89.0753
9.120000	87.218	88.0521
9.250000	87.313	86.9700
9.380000	87.404	85.9154
9.500000	87.486	84.9614
9.620000	87.566	84.0252
9.750000	87.652	83.0323
9.880000	87.736	82.0528
10.000000	87.812	81.1584
10.150000	87.905	80.0551
10.300000	87.995	78.9590
10.440000	88.077	77.9418
10.600000	88.167	76.7877
10.750000	88.246	75.7124
10.900000	88.322	74.6456
11.060000	88.397	73.5251
11.200000	88.459	72.5578
11.380000	88.532	71.3423
11.500000	88.578	70.5514
11.720000	88.657	69.1425
11.800000	88.685	68.6450
12.060000	88.770	67.0782
12.200000	88.814	66.2631
12.410000	88.879	65.0753
12.500000	88.907	64.5750
12.650000	88.953	63.7548
12.800000	88.998	62.9478
13.150000	89.100	61.1068
13.200000	89.114	60.8489
13.400000	89.170	59.8296
13.600000	89.223	58.8327
13.800000	89.275	57.8597
14.000000	89.326	56.9096
14.300000	89.401	55.5246
14.500000	89.452	54.6221
14.750000	89.513	53.5089
15.000000	89.574	52.4088
15.250000	89.631	51.3195
15.500000	89.684	50.2496
15.750000	89.733	49.2056
16.000000	89.778	48.1993
16.250000	89.821	47.2335
16.500000	89.863	46.3045
16.750000	89.906	45.4043
17.000000	89.950	44.5137
17.250000	89.994	43.6252
17.500000	90.034	42.7291
17.750000	90.069	41.8334
18.000000	90.098	40.9518
18.250000	90.118	40.1003
18.500000	90.134	39.3035
18.750000	90.148	38.5638
19.000000	90.163	37.8829
19.250000	90.183	37.2381
19.500000	90.209	36.6011
19.750000	90.240	35.9496
20.000000	90.273	35.2536
20.299999	90.308	34.3629
20.600000	90.331	33.4333
20.900000	90.339	32.5096
21.200001	90.335	31.6481
21.400000	90.329	31.1293
21.799999	90.318	30.2152
22.000000	90.319	29.8010
22.400000	90.335	28.9867
22.700001	90.356	28.3322
23.000000	90.376	27.6170
23.299999	90.390	26.8666
23.600000	90.395	26.1212
24.000000	90.391	25.1938
24.299999	90.389	24.5626
24.700001	90.393	23.7714
25.000000	90.401	23.1744
25.400000	90.412	22.3452
25.799999	90.414	21.5129
26.200001	90.409	20.7479
26.500000	90.407	20.2343
26.900000	90.415	19.5881
27.200001	90.430	19.0736
27.600000	90.451	18.2872
28.000000	90.455	17.4028
28.500000	90.423	16.3314
29.000000	90.368	15.5114
29.500000	90.326	14.9558
30.000000	90.319	14.4635
30.400000	90.329	13.9843
30.700001	90.338	13.5569
31.100000	90.342	12.9287
31.500000	90.335	12.2853
32.000000	90.316	11.5293
32.500000	90.295	10.8552
33.000000	90.283	10.2219
33.500000	90.279	9.5477
34.000000	90.269	8.7972
34.500000	90.240	8.0580
35.000000	90.198	7.4600
35.500000	90.168	7.0153
36.000000	90.162	6.5737
36.500000	90.162	6.0090
37.000000	90.145	5.3759
37.500000	90.113	4.8174
38.200001	90.076	4.1920
38.700001	90.062	3.7185
39.500000	90.027	2.8821
40.000000	90.001	2.4109
40.599998	89.982	1.8385
41.200001	89.960	1.1572
41.799999	89.918	0.4905
42.500000	89.869	-0.1007
43.099998	89.850	-0.5941
43.700001	89.831	-1.1946
44.400002	89.790	-1.8713
45.000000	89.754	-2.3347
45.500000	89.731	-2.7036
46.200001	89.699	-3.2371
46.799999	89.666	-3.6493
47.500000	89.635	-4.0804
48.200001	89.609	-4.5311
48.700001	89.591	-4.8735
49.400002	89.565	-5.4103
50.000000	89.531	-5.9336
50.799999	89.461	-6.5460
51.500000	89.403	-6.9104
52.200001	89.363	-7.2743
53.000000	89.316	-7.7328
53.799999	89.274	-8.1125
54.500000	89.250	-8.4807
55.200001	89.220	-8.9056
56.000000	89.183	-9.3443
57.000000	89.140	-9.9945
58.000000	89.055	-10.5876
59.000000	88.991	-10.8724
60.000000	88.956	-11.3264
60.799999	88.915	-11.7382
61.500000	88.877	-12.0754
62.200001	88.838	-12.3885
63.000000	88.803	-12.7146
64.000000	88.760	-13.2772
65.000000	88.674	-13.7278
66.000000	88.618	-13.8533
67.000000	88.602	-14.1620
68.000000	88.568	-14.7094
69.000000	88.492	-15.2078
70.000000	88.421	-15.4849
71.000000	88.357	-15.8230
72.000000	88.292	-15.9980
73.000000	88.263	-16.3073
74.000000	88.200	-16.7575
75.000000	88.137	-17.0183
76.199997	88.071	-17.3162
77.500000	88.019	-17.6913
78.800003	87.917	-17.9936
80.000000	87.883	-18.0590
81.199997	87.813	-18.4852
82.500000	87.744	-18.4993
83.800003	87.697	-18.7843
85.000000	87.655	-18.8491
86.199997	87.636	-19.1843
87.500000	87.581	-19.4285
88.500000	87.556	-19.6482
90.000000	87.499	-19.9139
91.199997	87.461	-20.2834
92.500000	87.393	-20.5562
93.800003	87.334	-20.8705
95.000000	87.276	-21.0552
96.199997	87.230	-21.3318
97.500000	87.148	-21.5630
98.800003	87.108	-21.5812
100.000000	87.067	-21.9481
101.500000	86.986	-22.1325
103.000000	86.930	-22.3229
104.400002	86.876	-22.5468
106.000000	86.814	-22.6781
107.500000	86.754	-22.9331
109.000000	86.674	-22.9969
110.599998	86.620	-23.2256
112.000000	86.555	-23.3209
113.800003	86.466	-23.5436
115.000000	86.446	-23.5234
117.199997	86.348	-23.7228
118.000000	86.335	-23.7396
120.599998	86.221	-24.1460
122.000000	86.174	-24.0750
124.099998	86.102	-24.1410
125.000000	86.083	-24.2262
126.500000	86.024	-24.3362
128.000000	85.984	-24.4203
131.500000	85.865	-24.5197
132.000000	85.857	-24.5826
134.000000	85.781	-24.7685
136.000000	85.712	-24.8890
138.000000	85.640	-24.9253
140.000000	85.592	-25.0247
143.000000	85.490	-25.1479
145.000000	85.421	-25.0988
147.500000	85.362	-25.1931
150.000000	85.290	-25.2947
152.500000	85.196	-25.2776
155.000000	85.123	-25.2781
157.500000	85.074	-25.3054
160.000000	84.998	-25.3376
162.500000	84.936	-25.3377
165.000000	84.858	-25.3868
167.500000	84.790	-25.3113
170.000000	84.731	-25.2422
172.500000	84.674	-25.2921
175.000000	84.620	-25.3147
177.500000	84.565	-25.2670
180.000000	84.494	-25.2394
182.500000	84.420	-25.1768
185.000000	84.379	-25.1379
187.500000	84.328	-25.1224
190.000000	84.274	-25.1138
192.500000	84.222	-25.0752
195.000000	84.172	-24.9123
197.500000	84.116	-24.8649
200.000000	84.054	-24.7987
203.000000	84.017	-25.1653
206.000000	83.951	-24.7301
209.000000	83.881	-24.6335
212.000000	83.837	-24.6005
214.000000	83.779	-24.5186
218.000000	83.715	-24.4233
220.000000	83.673	-24.3940
224.000000	83.611	-24.3470
227.000000	83.561	-24.1462
230.000000	83.498	-24.0039
233.000000	83.444	-23.9922
236.000000	83.398	-23.8518
240.000000	83.339	-23.6850
243.000000	83.282	-23.6077
247.000000	83.237	-23.4786
250.000000	83.180	-23.4786
254.000000	83.114	-23.2232
258.000000	83.064	-23.0756
262.000000	82.989	-22.9330
265.000000	82.928	-22.5510
269.000000	82.883	-22.6596
272.000000	82.820	-22.5867
276.000000	82.779	-22.3497
280.000000	82.702	-21.9995
285.000000	82.656	-21.6133
290.000000	82.584	-21.3395
295.000000	82.538	-20.9290
300.000000	82.464	-20.5659
304.000000	82.422	-20.3357
307.000000	82.413	-20.0586
311.000000	82.384	-19.5538
315.000000	82.377	-19.1334
320.000000	82.403	-18.8670
325.000000	82.438	-18.7679
330.000000	82.430	-18.8676
335.000000	82.392	-18.9941
340.000000	82.355	-19.0836
345.000000	82.318	-19.0234
350.000000	82.249	-19.0232
355.000000	82.209	-18.9653
360.000000	82.157	-18.7220
365.000000	82.105	-18.7308
370.000000	82.062	-18.5097
375.000000	82.029	-18.3423
382.000000	81.966	-18.1400
387.000000	81.932	-17.9014
395.000000	81.875	-17.5872
400.000000	81.832	-17.5116
406.000000	81.785	-17.1779
412.000000	81.759	-17.0685
418.000000	81.734	-16.8478
425.000000	81.690	-16.4766
431.000000	81.647	-16.3135
437.000000	81.607	-16.1303
444.000000	81.574	-15.8721
450.000000	81.533	-15.6850
455.000000	81.508	-15.4720
462.000000	81.466	-15.2296
468.000000	81.426	-14.9700
475.000000	81.402	-14.7493
482.000000	81.369	-14.5199
487.000000	81.343	-14.3685
494.000000	81.311	-14.0608
500.000000	81.286	-13.8447
508.000000	81.250	-13.5516
515.000000	81.216	-13.2995
522.000000	81.179	-13.0476
530.000000	81.142	-12.7661
538.000000	81.100	-12.5370
545.000000	81.065	-12.2957
552.000000	81.038	-12.0075
560.000000	80.995	-11.7148
570.000000	80.951	-11.3037
580.000000	80.896	-10.8905
590.000000	80.867	-10.4612
600.000000	80.827	-9.9338
608.000000	80.797	-9.5593
615.000000	80.785	-9.2111
622.000000	80.764	-8.9020
630.000000	80.744	-8.5300
640.000000	80.729	-8.0687
650.000000	80.706	-7.5649
660.000000	80.693	-7.1941
670.000000	80.675	-6.7519
680.000000	80.668	-6.2939
690.000000	80.645	-5.8380
700.000000	80.638	-5.3724
710.000000	80.630	-4.9346
720.000000	80.623	-4.5081
730.000000	80.607	-4.0406
740.000000	80.603	-3.5181
750.000000	80.605	-3.1411
762.000000	80.605	-2.5552
775.000000	80.617	-1.8876
788.000000	80.616	-1.2814
800.000000	80.628	-0.7296
812.000000	80.643	-0.1707
825.000000	80.661	0.4312
838.000000	80.679	1.0220
850.000000	80.709	1.5822
862.000000	80.731	2.1310
875.000000	80.775	2.7159
885.000000	80.806	3.1959
900.000000	80.851	3.8572
912.000000	80.898	4.3467
925.000000	80.950	4.8825
938.000000	81.013	5.3802
950.000000	81.063	5.8731
962.000000	81.121	6.3662
975.000000	81.192	6.7960
988.000000	81.262	7.2095
1000.000000	81.329	7.6195
1015.000000	81.421	8.0689
1030.000000	81.511	8.4888
1044.000000	81.596	8.8340
1060.000000	81.697	9.1770
1075.000000	81.799	9.4528
1090.000000	81.893	9.7119
1106.000000	81.995	9.8861
1120.000000	82.088	10.0483
1138.000000	82.191	10.2286
1150.000000	82.271	10.3307
1172.000000	82.404	10.3523
1180.000000	82.451	10.3629
1206.000000	82.592	10.4138
1220.000000	82.666	10.3463
1241.000000	82.770	10.3669
1250.000000	82.817	10.3005
1265.000000	82.884	10.2659
1280.000000	82.960	10.2527
1315.000000	83.117	10.1087
1320.000000	83.137	10.0939
1340.000000	83.221	9.9799
1360.000000	83.298	9.8835
1380.000000	83.381	9.8193
1400.000000	83.456	9.7030
1430.000000	83.565	9.5309
1450.000000	83.635	9.4485
1475.000000	83.716	9.3452
1500.000000	83.805	9.2306
1525.000000	83.890	9.1530
1550.000000	83.970	9.0662
1575.000000	84.056	8.9796
1600.000000	84.138	8.8749
1625.000000	84.222	8.7971
1650.000000	84.308	8.7242
1675.000000	84.393	8.6687
1700.000000	84.483	8.5908
1725.000000	84.580	8.4677
1750.000000	84.668	8.3659
1775.000000	84.762	8.2661
1800.000000	84.857	8.1216
1825.000000	84.950	7.9996
1850.000000	85.044	7.8475
1875.000000	85.134	7.6624
1900.000000	85.226	7.5084
1925.000000	85.316	7.3449
1950.000000	85.414	7.1711
1975.000000	85.519	7.0378
2000.000000	85.615	6.8429
2030.000000	85.740	6.5933
2060.000000	85.859	6.3182
2090.000000	85.973	6.0364
2120.000000	86.092	5.6888
2140.000000	86.174	5.4567
2180.000000	86.326	5.0583
2200.000000	86.397	4.8325
2240.000000	86.542	4.4373
2270.000000	86.644	4.2414
2300.000000	86.760	4.1537
2330.000000	86.893	4.1188
2360.000000	87.053	4.0887
2400.000000	87.312	3.9498
2430.000000	87.541	3.5597
2470.000000	87.854	2.7628
2500.000000	88.082	1.9401
2540.000000	88.357	0.5121
2580.000000	88.597	-1.0931
2620.000000	88.797	-2.7352
2650.000000	88.934	-3.9807
2690.000000	89.092	-5.6327
2720.000000	89.199	-6.8467
2760.000000	89.333	-8.4464
2800.000000	89.462	-9.9992
2850.000000	89.610	-12.0238
2900.000000	89.756	-14.0096
2950.000000	89.883	-16.1320
3000.000000	89.999	-18.3477
3040.000000	90.068	-20.0867
3070.000000	90.104	-21.4785
3110.000000	90.142	-23.2621
3150.000000	90.161	-24.9594
3200.000000	90.163	-27.0599
3250.000000	90.150	-29.0627
3300.000000	90.125	-30.8932
3350.000000	90.090	-32.6091
3400.000000	90.060	-34.2584
3450.000000	90.032	-35.8646
3500.000000	89.998	-37.4892
3550.000000	89.950	-39.0494
3600.000000	89.893	-40.5317
3650.000000	89.831	-41.9385
3700.000000	89.766	-43.2589
3750.000000	89.706	-44.5189
3820.000000	89.611	-46.2630
3870.000000	89.533	-47.4553
3950.000000	89.395	-49.1703
4000.000000	89.304	-50.1041
4060.000000	89.192	-51.0891
4120.000000	89.085	-51.9495
4180.000000	88.982	-52.6732
4250.000000	88.868	-53.3738
4310.000000	88.778	-53.8694
4370.000000	88.703	-54.2568
4440.000000	88.618	-54.6223
4500.000000	88.552	-54.8732
4550.000000	88.509	-55.0250
4620.000000	88.450	-55.1876
4680.000000	88.397	-55.2926
4750.000000	88.344	-55.3473
4820.000000	88.292	-55.3125
4870.000000	88.257	-55.2168
4940.000000	88.211	-55.0382
5000.000000	88.175	-54.7748
5080.000000	88.133	-54.3212
5150.000000	88.106	-53.8154
5220.000000	88.097	-53.2104
5300.000000	88.102	-52.4169
5380.000000	88.128	-51.6082
5450.000000	88.168	-50.8613
5520.000000	88.220	-50.1099
5600.000000	88.300	-49.2775
5700.000000	88.428	-48.2670
5800.000000	88.577	-47.3704
5900.000000	88.757	-46.5582
6000.000000	88.948	-45.9756
6080.000000	89.108	-45.6217
6150.000000	89.251	-45.4891
6220.000000	89.391	-45.4762
6300.000000	89.543	-45.5765
6400.000000	89.713	-45.9252
6500.000000	89.858	-46.4757
6600.000000	89.960	-47.2046
6700.000000	90.018	-47.9878
6800.000000	90.036	-48.7360
6900.000000	90.013	-49.4282
7000.000000	89.961	-50.0145
7100.000000	89.882	-50.4044
7200.000000	89.800	-50.6304
7300.000000	89.725	-50.6555
7400.000000	89.656	-50.6705
7500.000000	89.590	-50.7065
7620.000000	89.525	-50.8517
7750.000000	89.320	-51.5950
7880.000000	89.152	-51.1585
8000.000000	88.928	-50.8574
8120.000000	88.884	-50.0415
8250.000000	88.746	-50.2985
8380.000000	88.520	-50.4714
8500.000000	88.262	-50.5028
8620.000000	87.952	-50.2763
8750.000000	87.566	-49.6847
8850.000000	87.243	-48.8719
9000.000000	86.744	-47.1213
9120.000000	86.339	-45.2286
9250.000000	85.921	-42.7115
9380.000000	85.527	-39.7416
9500.000000	85.189	-36.6629
9620.000000	84.896	-33.3259
9750.000000	84.622	-29.3964
9880.000000	84.405	-25.3187
10000.000000	84.237	-21.3522
10150.000000	84.109	-16.3210
10300.000000	84.046	-11.4615
10440.000000	84.042	-6.7540
10600.000000	84.114	-1.7067
10750.000000	84.242	2.8693
10900.000000	84.434	7.0656
11060.000000	84.696	11.0070
11200.000000	84.946	13.9141
11380.000000	85.282	16.7888
11500.000000	85.512	18.0590
11720.000000	85.802	19.0453
11800.000000	85.835	19.0212
12060.000000	85.588	19.4828
12200.000000	85.524	20.5446
12410.000000	85.220	20.5903
12500.000000	84.994	21.1437
12650.000000	84.687	22.6592
12800.000000	84.388	24.0920
13150.000000	83.631	28.3196
13200.000000	83.533	29.0673
13400.000000	83.164	32.1088
13600.000000	82.828	35.3612
13800.000000	82.531	38.6122
14000.000000	82.255	41.8391
14300.000000	81.832	46.9965
14500.000000	81.555	50.7473
14750.000000	81.287	55.8394
15000.000000	81.103	61.0613
15250.000000	80.992	66.1525
15500.000000	80.981	70.7144
15750.000000	81.024	74.3130
16000.000000	81.065	76.3758
16250.000000	80.959	76.2778
16500.000000	80.485	74.2076
16750.000000	79.445	71.5967
17000.000000	77.836	70.5956
17250.000000	75.961	72.3327
17500.000000	73.997	76.6056
17750.000000	72.111	82.9122
18000.000000	70.336	90.6495
18250.000000	68.595	99.0887
18500.000000	66.507	110.6896
18750.000000	65.462	137.4788
19000.000000	68.272	146.7178
19250.000000	68.473	145.8341
19500.000000	69.268	153.8241
19750.000000	70.497	149.2185
