* Measurement data measured by REW V5.30.9
* Source: Microphone (Realtek USB2.0 Audio), MICROPHONE (Master Volume), L, volume: 0.500
* Format: 512k Log Swept Sine, 1 sweep at -12.0 dBFS with no timing reference
* Dated: 02 22, 24 10:56:06 PM
* REW Settings:
*  C-weighting compensation: Off
*  Target level: 75.0 dB
* Note: ; 
* Measurement: ew200 r
* Smoothing: None
* Frequency Step: 1/48 octave
* Start Frequency: 1.000 Hz
*
* Freq(Hz)	SPL(dB)	Phase(degrees)
1.000000	49.113	-72.1857
1.015000	48.920	-73.0010
1.030000	48.732	-73.8724
1.044000	48.562	-74.7410
1.060000	48.371	-75.7865
1.075000	48.195	-76.8055
1.090000	48.019	-77.8497
1.106000	47.830	-78.9780
1.120000	47.661	-79.9662
1.138000	47.438	-81.2220
1.150000	47.284	-82.0405
1.172000	46.986	-83.4794
1.180000	46.872	-83.9768
1.206000	46.475	-85.4695
1.220000	46.243	-86.1788
1.241000	45.867	-87.0923
1.250000	45.694	-87.4215
1.265000	45.390	-87.8775
1.280000	45.062	-88.2074
1.315000	44.201	-88.4196
1.320000	44.066	-88.3797
1.340000	43.492	-88.0268
1.360000	42.837	-87.3833
1.380000	42.039	-86.5478
1.400000	41.115	-85.5278
1.430000	39.547	-83.6544
1.450000	38.414	-82.1783
1.475000	36.941	-80.0797
1.500000	35.447	-77.7018
1.525000	33.978	-75.0468
1.550000	32.579	-72.1171
1.575000	31.298	-68.9150
1.600000	30.179	-65.4430
1.625000	29.268	-61.7033
1.650000	28.612	-57.6983
1.675000	28.255	-53.4304
1.700000	28.236	-48.7080
1.725000	28.532	-43.0741
1.750000	29.101	-36.6726
1.775000	29.899	-29.6823
1.800000	30.884	-22.2825
1.825000	32.014	-14.6521
1.850000	33.244	-6.9701
1.875000	34.533	0.5844
1.900000	35.838	7.8325
1.925000	37.115	14.5950
1.950000	38.323	20.6929
1.975000	39.417	25.9473
2.000000	40.356	30.1791
2.030000	41.234	33.6874
2.060000	41.981	35.6854
2.090000	42.650	36.4330
2.120000	43.250	36.1349
2.140000	43.617	35.4561
2.180000	44.284	33.2191
2.200000	44.589	31.7822
2.240000	45.158	28.5742
2.270000	45.560	26.1146
2.300000	45.951	23.8362
2.330000	46.341	21.9435
2.360000	46.739	20.6306
2.400000	47.242	19.1693
2.430000	47.586	18.0396
2.470000	48.008	16.5095
2.500000	48.302	15.3587
2.540000	48.671	13.8413
2.580000	49.021	12.3676
2.620000	49.361	10.9641
2.650000	49.615	9.9737
2.690000	49.959	8.7573
2.720000	50.217	7.9084
2.760000	50.547	6.8139
2.800000	50.865	5.7743
2.850000	51.247	4.5730
2.900000	51.620	3.5058
2.950000	51.988	2.5994
3.000000	52.357	1.8805
3.040000	52.657	1.4556
3.070000	52.881	1.2036
3.110000	53.177	0.9485
3.150000	53.470	0.7944
3.200000	53.835	0.7587
3.250000	54.200	0.9148
3.300000	54.567	1.2814
3.350000	54.938	1.8773
3.400000	55.314	2.7168
3.450000	55.693	3.7902
3.500000	56.075	5.0827
3.550000	56.458	6.5800
3.600000	56.844	8.2676
3.650000	57.232	10.1312
3.700000	57.621	12.1564
3.750000	58.014	14.4245
3.820000	58.569	18.0618
3.870000	58.968	20.8745
3.950000	59.607	25.5119
4.000000	60.005	28.3636
4.060000	60.480	31.6308
4.120000	60.955	34.9563
4.180000	61.429	38.3212
4.250000	61.980	42.1475
4.310000	62.447	45.2142
4.370000	62.908	47.9664
4.440000	63.437	50.7735
4.500000	63.887	52.9273
4.550000	64.258	54.5518
4.620000	64.770	56.5767
4.680000	65.201	58.0912
4.750000	65.694	59.5912
4.820000	66.177	60.7428
4.870000	66.517	61.3865
4.940000	66.985	62.0981
5.000000	67.378	62.5856
5.080000	67.892	63.1259
5.150000	68.331	63.4072
5.220000	68.760	63.5261
5.300000	69.240	63.5274
5.380000	69.710	63.4572
5.450000	70.113	63.3323
5.520000	70.507	63.1098
5.600000	70.948	62.7797
5.700000	71.487	62.3289
5.800000	72.013	61.8727
5.900000	72.526	61.3645
6.000000	73.027	60.8432
6.080000	73.421	60.4434
6.150000	73.760	60.1038
6.220000	74.094	59.7673
6.300000	74.470	59.3835
6.400000	74.933	58.9001
6.500000	75.387	58.4215
6.600000	75.832	57.9414
6.700000	76.269	57.4379
6.800000	76.698	56.8961
6.900000	77.119	56.3256
7.000000	77.533	55.7287
7.100000	77.939	55.1061
7.200000	78.337	54.4555
7.300000	78.727	53.7801
7.400000	79.110	53.0849
7.500000	79.485	52.3623
7.620000	79.926	51.4660
7.750000	80.391	50.5036
7.880000	80.844	49.5556
8.000000	81.251	48.6948
8.120000	81.649	47.8678
8.250000	82.069	47.0062
8.380000	82.479	46.1824
8.500000	82.848	45.4609
8.620000	83.209	44.7749
8.750000	83.592	44.0677
8.850000	83.880	43.5523
9.000000	84.304	42.8189
9.120000	84.636	42.2473
9.250000	84.990	41.6435
9.380000	85.336	41.0550
9.500000	85.651	40.5226
9.620000	85.961	40.0025
9.750000	86.291	39.4440
9.880000	86.615	38.8868
10.000000	86.909	38.3751
10.150000	87.270	37.7341
10.300000	87.624	37.0893
10.440000	87.946	36.4958
10.600000	88.306	35.8311
10.750000	88.634	35.2218
10.900000	88.954	34.6277
11.060000	89.286	34.0126
11.200000	89.569	33.4945
11.380000	89.923	32.8560
11.500000	90.154	32.4540
11.720000	90.566	31.7648
11.800000	90.713	31.5261
12.060000	91.183	30.7964
12.200000	91.431	30.4170
12.410000	91.798	29.8641
12.500000	91.953	29.6322
12.650000	92.208	29.2555
12.800000	92.460	28.8729
13.150000	93.012	27.9303
13.200000	93.057	27.7859
13.400000	93.163	27.1939
13.600000	93.212	26.6256
13.800000	93.220	26.0768
14.000000	93.231	25.5452
14.300000	93.247	24.7815
14.500000	93.256	24.3163
14.750000	93.257	23.8280
15.000000	93.265	23.3751
15.250000	93.284	22.9176
15.500000	93.312	22.4380
15.750000	93.335	21.9604
16.000000	93.361	21.4361
16.250000	93.391	20.8632
16.500000	93.422	20.2577
16.750000	93.438	19.6799
17.000000	93.454	19.1141
17.250000	93.471	18.5583
17.500000	93.491	18.0147
17.750000	93.505	17.5032
18.000000	93.522	16.9844
18.250000	93.542	16.4504
18.500000	93.562	15.9028
18.750000	93.572	15.3744
19.000000	93.580	14.8565
19.250000	93.588	14.3552
19.500000	93.596	13.8805
19.750000	93.599	13.4519
20.000000	93.605	13.0395
20.299999	93.617	12.5500
20.600000	93.630	12.0639
20.900000	93.639	11.5883
21.200001	93.648	11.1018
21.400000	93.653	10.7817
21.799999	93.655	10.1908
22.000000	93.656	9.9066
22.400000	93.661	9.3427
22.700001	93.663	8.9310
23.000000	93.663	8.5103
23.299999	93.663	8.0630
23.600000	93.656	7.6203
24.000000	93.636	7.0867
24.299999	93.622	6.7223
24.700001	93.604	6.3133
25.000000	93.597	6.0363
25.400000	93.604	5.6225
25.799999	93.613	5.1437
26.200001	93.621	4.5629
26.500000	93.619	4.0877
26.900000	93.600	3.4826
27.200001	93.581	3.0615
27.600000	93.555	2.5853
28.000000	93.535	2.1856
28.500000	93.532	1.6435
29.000000	93.526	1.0044
29.500000	93.504	0.3078
30.000000	93.460	-0.2272
30.400000	93.434	-0.5167
30.700001	93.428	-0.6794
31.100000	93.441	-0.9416
31.500000	93.468	-1.3766
32.000000	93.478	-2.1234
32.500000	93.446	-2.9155
33.000000	93.383	-3.4463
33.500000	93.335	-3.7286
34.000000	93.319	-3.9397
34.500000	93.323	-4.3064
35.000000	93.312	-4.7745
35.500000	93.285	-5.2260
36.000000	93.253	-5.5441
36.500000	93.239	-5.8440
37.000000	93.231	-6.2045
37.500000	93.221	-6.6792
38.200001	93.176	-7.3613
38.700001	93.130	-7.7640
39.500000	93.064	-8.2257
40.000000	93.037	-8.4740
40.599998	93.022	-8.8757
41.200001	92.996	-9.4153
41.799999	92.943	-9.9512
42.500000	92.870	-10.2831
43.099998	92.847	-10.3906
43.700001	92.865	-10.7215
44.400002	92.858	-11.4876
45.000000	92.791	-12.0610
45.500000	92.728	-12.2568
46.200001	92.692	-12.3109
46.799999	92.692	-12.5668
47.500000	92.661	-13.0542
48.200001	92.608	-13.3657
48.700001	92.586	-13.5531
49.400002	92.552	-13.9840
50.000000	92.492	-14.3105
50.799999	92.432	-14.4195
51.500000	92.431	-14.6658
52.200001	92.406	-15.2112
53.000000	92.340	-15.6268
53.799999	92.316	-15.9670
54.500000	92.281	-16.5034
55.200001	92.206	-16.8450
56.000000	92.161	-16.9258
57.000000	92.138	-17.4016
58.000000	92.067	-17.8026
59.000000	92.027	-18.2215
60.000000	91.933	-18.7594
60.799999	91.863	-18.8273
61.500000	91.847	-18.9626
62.200001	91.823	-19.3455
63.000000	91.761	-19.7279
64.000000	91.704	-19.9746
65.000000	91.655	-20.3713
66.000000	91.585	-20.6003
67.000000	91.547	-20.7660
68.000000	91.503	-21.1320
69.000000	91.448	-21.5007
70.000000	91.368	-22.0047
71.000000	91.257	-22.2409
72.000000	91.199	-22.2903
73.000000	91.147	-22.5902
74.000000	91.082	-22.7994
75.000000	91.028	-22.9789
76.199997	90.984	-23.1701
77.500000	90.907	-23.7075
78.800003	90.784	-23.8180
80.000000	90.729	-23.6504
81.199997	90.749	-24.2404
82.500000	90.527	-24.8969
83.800003	90.483	-24.3007
85.000000	90.375	-24.8527
86.199997	90.261	-24.3331
87.500000	90.180	-24.3755
88.500000	90.100	-23.9850
90.000000	90.054	-24.1804
91.199997	89.934	-23.7884
92.500000	89.990	-23.7056
93.800003	89.975	-23.8195
95.000000	90.018	-24.6212
96.199997	89.823	-24.4931
97.500000	89.940	-23.8371
98.800003	89.876	-24.4783
100.000000	89.764	-24.4762
101.500000	89.695	-23.7816
103.000000	89.639	-25.0102
104.400002	89.520	-24.9384
106.000000	89.457	-25.5128
107.500000	89.421	-25.5465
109.000000	89.390	-25.4366
110.599998	89.315	-25.0603
112.000000	89.263	-25.5109
113.800003	89.138	-25.2758
115.000000	89.165	-26.1126
117.199997	89.169	-25.3412
118.000000	89.026	-25.2183
120.599998	89.598	-26.8114
122.000000	89.039	-24.0224
124.099998	88.914	-23.7926
125.000000	88.955	-24.1926
126.500000	88.717	-25.4163
128.000000	88.670	-23.7566
131.500000	88.852	-25.2880
132.000000	88.825	-25.8334
134.000000	88.587	-24.9492
136.000000	88.743	-25.1924
138.000000	88.617	-25.4918
140.000000	88.572	-25.8440
143.000000	88.398	-25.7300
145.000000	88.414	-26.2202
147.500000	88.326	-25.8152
150.000000	88.237	-26.2380
152.500000	87.887	-25.8703
155.000000	88.026	-26.6537
157.500000	87.970	-26.1643
160.000000	87.957	-26.3470
162.500000	87.830	-26.3788
165.000000	87.676	-25.8647
167.500000	87.629	-25.4041
170.000000	87.551	-25.4150
172.500000	87.436	-24.8752
175.000000	87.234	-25.0579
177.500000	87.151	-24.3015
180.000000	87.259	-23.7484
182.500000	87.113	-23.8830
185.000000	87.216	-24.5137
187.500000	87.141	-23.4791
190.000000	87.112	-23.2350
192.500000	87.055	-23.5246
195.000000	87.013	-23.4509
197.500000	86.932	-23.7463
200.000000	86.884	-23.3721
203.000000	86.878	-23.7006
206.000000	86.739	-23.3988
209.000000	86.655	-23.8136
212.000000	86.647	-23.4786
214.000000	86.631	-23.2253
218.000000	86.512	-23.1292
220.000000	86.462	-23.0923
224.000000	86.416	-22.7132
227.000000	86.384	-22.5925
230.000000	86.306	-22.4311
233.000000	86.259	-22.3279
236.000000	86.216	-22.0467
240.000000	86.195	-20.3339
243.000000	86.106	-21.3209
247.000000	86.022	-21.2883
250.000000	85.999	-21.0599
254.000000	85.911	-20.8351
258.000000	85.867	-20.5465
262.000000	85.796	-20.2261
265.000000	85.764	-20.0713
269.000000	85.701	-19.8068
272.000000	85.658	-19.5687
276.000000	85.610	-19.2028
280.000000	85.537	-18.9676
285.000000	85.485	-18.5576
290.000000	85.422	-18.1871
295.000000	85.359	-17.7999
300.000000	85.276	-17.4651
304.000000	85.249	-17.0900
307.000000	85.223	-16.9047
311.000000	85.173	-16.6331
315.000000	85.123	-16.2898
320.000000	85.083	-15.9961
325.000000	85.044	-15.6931
330.000000	84.975	-15.2137
335.000000	84.944	-14.8659
340.000000	84.894	-14.4932
345.000000	84.830	-14.1448
350.000000	84.817	-13.6114
355.000000	84.798	-13.3471
360.000000	84.863	-12.2458
365.000000	84.701	-12.5414
370.000000	84.670	-12.2308
375.000000	84.637	-11.7319
382.000000	84.573	-11.1602
387.000000	84.537	-10.8069
395.000000	84.487	-10.2885
400.000000	84.479	-9.8462
406.000000	84.429	-9.5433
412.000000	84.375	-9.0416
418.000000	84.363	-8.6780
425.000000	84.326	-8.1266
431.000000	84.303	-7.6547
437.000000	84.268	-7.1776
444.000000	84.239	-6.7150
450.000000	84.213	-6.3422
455.000000	84.198	-5.9542
462.000000	84.171	-5.3718
468.000000	84.153	-5.1272
475.000000	84.112	-4.3446
482.000000	84.093	-4.0070
487.000000	84.086	-3.5551
494.000000	84.070	-3.2471
500.000000	84.052	-2.7126
508.000000	84.033	-2.2984
515.000000	84.005	-1.7795
522.000000	83.999	-1.3060
530.000000	83.975	-0.6135
538.000000	83.964	-0.1306
545.000000	83.951	0.2977
552.000000	83.966	0.7297
560.000000	83.938	1.3291
570.000000	83.918	2.0556
580.000000	83.904	2.6934
590.000000	83.901	3.4326
600.000000	83.897	4.0268
608.000000	83.911	4.5652
615.000000	83.900	5.0815
622.000000	83.903	5.4579
630.000000	83.912	6.0808
640.000000	83.915	6.7570
650.000000	83.933	7.3456
660.000000	83.940	7.9046
670.000000	83.972	8.7061
680.000000	83.986	9.3116
690.000000	84.034	9.9418
700.000000	84.033	10.6093
710.000000	84.093	11.2606
720.000000	84.150	11.6542
730.000000	84.210	12.3076
740.000000	84.287	12.7619
750.000000	84.381	13.2415
762.000000	84.525	13.5398
775.000000	84.751	13.4457
788.000000	85.094	12.2126
800.000000	85.480	8.1212
812.000000	85.058	-3.8892
825.000000	81.560	1.1292
838.000000	81.889	16.0550
850.000000	82.523	20.3256
862.000000	82.927	22.2038
875.000000	83.221	23.4968
885.000000	83.389	24.2865
900.000000	83.608	25.3834
912.000000	83.758	26.1446
925.000000	83.892	26.9396
938.000000	84.021	27.7612
950.000000	84.146	28.4757
962.000000	84.248	29.1341
975.000000	84.369	29.8092
988.000000	84.500	30.5113
1000.000000	84.601	31.0937
1015.000000	84.733	31.7939
1030.000000	84.868	32.3714
1044.000000	84.987	32.9521
1060.000000	85.117	33.6290
1075.000000	85.255	34.2876
1090.000000	85.407	34.7143
1106.000000	85.553	35.2024
1120.000000	85.673	35.5674
1138.000000	85.818	35.9782
1150.000000	85.914	36.2414
1172.000000	86.092	36.6725
1180.000000	86.156	36.8676
1206.000000	86.348	37.2545
1220.000000	86.455	37.4886
1241.000000	86.605	37.7830
1250.000000	86.660	37.9039
1265.000000	86.758	38.1043
1280.000000	86.866	38.2902
1315.000000	87.097	38.7136
1320.000000	87.126	38.8000
1340.000000	87.258	39.0276
1360.000000	87.378	39.2632
1380.000000	87.504	39.4795
1400.000000	87.630	39.6662
1430.000000	87.820	39.9656
1450.000000	87.940	40.1350
1475.000000	88.087	40.3542
1500.000000	88.238	40.5218
1525.000000	88.379	40.6305
1550.000000	88.515	40.7836
1575.000000	88.654	40.9321
1600.000000	88.782	41.0694
1625.000000	88.914	41.1973
1650.000000	89.034	41.3139
1675.000000	89.162	41.4650
1700.000000	89.286	41.6233
1725.000000	89.415	41.7424
1750.000000	89.540	41.8721
1775.000000	89.662	41.9705
1800.000000	89.795	42.1441
1825.000000	89.920	42.2141
1850.000000	90.047	42.3089
1875.000000	90.178	42.3846
1900.000000	90.307	42.4866
1925.000000	90.436	42.5165
1950.000000	90.560	42.5591
1975.000000	90.689	42.5877
2000.000000	90.818	42.6248
2030.000000	90.977	42.6290
2060.000000	91.146	42.5872
2090.000000	91.308	42.5329
2120.000000	91.467	42.4067
2140.000000	91.565	42.2797
2180.000000	91.769	42.0184
2200.000000	91.858	41.9130
2240.000000	92.037	41.6839
2270.000000	92.161	41.5912
2300.000000	92.284	41.6167
2330.000000	92.417	41.7193
2360.000000	92.580	41.9222
2400.000000	92.864	42.1255
2430.000000	93.108	41.8836
2470.000000	93.417	41.0595
2500.000000	93.600	40.2547
2540.000000	93.827	39.1869
2580.000000	94.022	38.1639
2620.000000	94.212	37.2151
2650.000000	94.348	36.4111
2690.000000	94.517	35.3447
2720.000000	94.652	34.3098
2760.000000	94.789	33.2621
2800.000000	94.906	31.8573
2850.000000	94.994	30.5485
2900.000000	95.071	29.0675
2950.000000	95.199	28.1111
3000.000000	95.260	26.7255
3040.000000	95.303	25.8748
3070.000000	95.384	24.9805
3110.000000	95.413	24.1343
3150.000000	95.445	22.6989
3200.000000	95.382	21.6181
3250.000000	95.410	20.3649
3300.000000	95.422	19.8373
3350.000000	95.330	18.6267
3400.000000	95.293	17.0912
3450.000000	95.242	15.9230
3500.000000	95.202	15.8365
3550.000000	95.146	14.4716
3600.000000	95.043	14.7135
3650.000000	94.903	13.3987
3700.000000	94.856	12.5646
3750.000000	94.657	13.2588
3820.000000	94.548	13.1300
3870.000000	94.538	14.2729
3950.000000	94.630	14.6128
4000.000000	94.484	14.3278
4060.000000	94.471	14.5116
4120.000000	94.713	13.4650
4180.000000	94.744	13.5578
4250.000000	94.775	13.0877
4310.000000	94.814	13.1475
4370.000000	94.741	11.2184
4440.000000	94.719	10.8717
4500.000000	94.694	10.3850
4550.000000	94.701	9.6951
4620.000000	94.789	9.6172
4680.000000	94.666	8.6559
4750.000000	94.706	8.6225
4820.000000	94.611	6.9021
4870.000000	94.662	6.5216
4940.000000	94.662	6.1009
5000.000000	94.709	4.9520
5080.000000	94.507	4.3500
5150.000000	94.400	3.7601
5220.000000	94.308	2.4373
5300.000000	94.086	1.6679
5380.000000	93.830	0.7326
5450.000000	93.870	0.4257
5520.000000	93.662	-0.0559
5600.000000	93.553	-1.0138
5700.000000	93.150	-2.2865
5800.000000	92.829	-2.2131
5900.000000	92.614	-2.4008
6000.000000	92.330	-3.1270
6080.000000	91.900	-3.4282
6150.000000	91.382	-2.6832
6220.000000	90.726	-1.7109
6300.000000	90.774	8.2854
6400.000000	91.142	14.8518
6500.000000	92.902	5.8915
6600.000000	92.561	3.7080
6700.000000	92.397	2.1105
6800.000000	92.347	2.2169
6900.000000	92.230	3.3408
7000.000000	92.105	3.1898
7100.000000	92.291	3.4429
7200.000000	92.543	4.1338
7300.000000	92.816	3.6115
7400.000000	93.000	4.5941
7500.000000	93.463	2.5057
7620.000000	94.016	2.0723
7750.000000	94.457	-1.9681
7880.000000	94.995	-8.0602
8000.000000	95.489	-13.4755
8120.000000	95.129	-20.6488
8250.000000	94.522	-27.8826
8380.000000	93.640	-34.2004
8500.000000	92.803	-39.0534
8620.000000	91.570	-41.4754
8750.000000	90.616	-42.8680
8850.000000	89.698	-43.2710
9000.000000	88.479	-43.1599
9120.000000	87.629	-40.5504
9250.000000	86.707	-38.6097
9380.000000	85.860	-35.6196
9500.000000	85.235	-33.5531
9620.000000	84.441	-29.6502
9750.000000	83.852	-26.2780
9880.000000	83.308	-22.6160
10000.000000	82.938	-18.0211
10150.000000	82.479	-12.4195
10300.000000	82.004	-7.7390
10440.000000	81.912	-1.7886
10600.000000	81.649	3.7681
10750.000000	81.492	7.8645
10900.000000	81.498	13.7796
11060.000000	81.370	18.6863
11200.000000	81.650	23.7856
11380.000000	81.731	30.1695
11500.000000	81.877	32.9506
11720.000000	82.539	40.0415
11800.000000	82.763	42.1812
12060.000000	83.664	48.6822
12200.000000	84.262	52.3432
12410.000000	85.646	56.0703
12500.000000	86.357	57.2890
12650.000000	87.634	56.7676
12800.000000	89.032	53.7988
13150.000000	92.832	40.3039
13200.000000	93.616	36.6046
13400.000000	95.481	6.6873
13600.000000	93.924	-26.7618
13800.000000	90.624	-46.7468
14000.000000	86.765	-53.6241
14300.000000	82.803	-48.8434
14500.000000	81.101	-40.9216
14750.000000	80.185	-32.9089
15000.000000	79.721	-25.8602
15250.000000	79.486	-20.3523
15500.000000	79.511	-18.3594
15750.000000	79.122	-19.4186
16000.000000	78.049	-21.2601
16250.000000	76.954	-15.6130
16500.000000	76.246	-2.2590
16750.000000	78.743	4.1551
17000.000000	75.408	1.2031
17250.000000	77.735	22.7456
17500.000000	79.934	18.7616
17750.000000	80.666	2.9183
18000.000000	78.346	-11.2359
18250.000000	75.726	1.2414
18500.000000	77.137	6.5357
18750.000000	78.366	-9.9206
19000.000000	76.995	-43.5203
19250.000000	72.148	-75.6888
19500.000000	66.211	-100.0214
19750.000000	61.041	-122.2594
