* Measurement data measured by REW V5.30.9
* Source: Headset (Odo By VECLAN.COM), no input selected, L, volume: no control
* Format: 512k Log Swept Sine, 1 sweep at -12.0 dBFS with no timing reference
* Dated: 09 7, 24 7:51:18 PM
* REW Settings:
*  C-weighting compensation: Off
*  Target level: 75.0 dB
* Note: ; 
* Measurement: ew200 dsp R
* Smoothing: None
* Frequency Step: 1/48 octave
* Start Frequency: 1.000 Hz
*
* Freq(Hz)	SPL(dB)	Phase(degrees)
1.000000	45.620	-81.7447
1.015000	46.081	-84.1617
1.030000	46.534	-86.5006
1.044000	46.947	-88.6078
1.060000	47.406	-90.9194
1.075000	47.822	-92.9866
1.090000	48.222	-94.9507
1.106000	48.631	-96.9257
1.120000	48.983	-98.5546
1.138000	49.432	-100.5210
1.150000	49.728	-101.7565
1.172000	50.265	-103.8759
1.180000	50.459	-104.6027
1.206000	51.080	-106.8171
1.220000	51.410	-107.9235
1.241000	51.900	-109.4829
1.250000	52.107	-110.1178
1.265000	52.450	-111.1360
1.280000	52.789	-112.1092
1.315000	53.564	-114.2370
1.320000	53.673	-114.5277
1.340000	54.105	-115.6661
1.360000	54.530	-116.7754
1.380000	54.947	-117.8691
1.400000	55.357	-118.9609
1.430000	55.958	-120.6246
1.450000	56.350	-121.7708
1.475000	56.828	-123.2562
1.500000	57.292	-124.7018
1.525000	57.741	-126.0862
1.550000	58.177	-127.4148
1.575000	58.600	-128.6931
1.600000	59.011	-129.9261
1.625000	59.412	-131.1194
1.650000	59.803	-132.2783
1.675000	60.186	-133.4081
1.700000	60.560	-134.5141
1.725000	60.928	-135.6017
1.750000	61.290	-136.6763
1.775000	61.646	-137.7431
1.800000	61.999	-138.8075
1.825000	62.348	-139.8749
1.850000	62.694	-140.9407
1.875000	63.030	-141.9848
1.900000	63.359	-143.0078
1.925000	63.680	-144.0110
1.950000	63.995	-144.9961
1.975000	64.302	-145.9645
2.000000	64.603	-146.9177
2.030000	64.958	-148.0437
2.060000	65.305	-149.1525
2.090000	65.645	-150.2469
2.120000	65.980	-151.3292
2.140000	66.201	-152.0455
2.180000	66.637	-153.4686
2.200000	66.853	-154.1770
2.240000	67.276	-155.5751
2.270000	67.584	-156.6043
2.300000	67.886	-157.6184
2.330000	68.182	-158.6184
2.360000	68.472	-159.6058
2.400000	68.850	-160.9044
2.430000	69.128	-161.8666
2.470000	69.492	-163.1362
2.500000	69.761	-164.0799
2.540000	70.115	-165.3292
2.580000	70.463	-166.5697
2.620000	70.804	-167.7931
2.650000	71.054	-168.6990
2.690000	71.380	-169.8927
2.720000	71.620	-170.7784
2.760000	71.934	-171.9479
2.800000	72.242	-173.1060
2.850000	72.619	-174.5405
2.900000	72.989	-175.9636
2.950000	73.352	-177.3776
3.000000	73.706	-178.7755
3.040000	73.983	-179.8817
3.070000	74.187	179.2948
3.110000	74.454	178.2045
3.150000	74.716	177.1219
3.200000	75.037	175.7778
3.250000	75.352	174.4420
3.300000	75.661	173.1125
3.350000	75.963	171.7913
3.400000	76.257	170.4802
3.450000	76.545	169.1788
3.500000	76.826	167.8863
3.550000	77.100	166.6023
3.600000	77.369	165.3260
3.650000	77.631	164.0569
3.700000	77.888	162.7945
3.750000	78.139	161.5389
3.820000	78.479	159.7938
3.870000	78.715	158.5573
3.950000	79.080	156.5977
4.000000	79.302	155.3857
4.060000	79.561	153.9443
4.120000	79.811	152.5140
4.180000	80.053	151.0961
4.250000	80.326	149.4604
4.310000	80.552	148.0770
4.370000	80.772	146.7128
4.440000	81.020	145.1463
4.500000	81.224	143.8207
4.550000	81.389	142.7293
4.620000	81.611	141.2239
4.680000	81.796	139.9567
4.750000	82.006	138.5079
4.820000	82.208	137.0916
4.870000	82.347	136.0978
4.940000	82.535	134.7323
5.000000	82.691	133.5862
5.080000	82.893	132.0938
5.150000	83.065	130.8224
5.220000	83.231	129.5854
5.300000	83.414	128.2112
5.380000	83.592	126.8751
5.450000	83.744	125.7338
5.520000	83.893	124.6165
5.600000	84.060	123.3774
5.700000	84.263	121.8778
5.800000	84.461	120.4176
5.900000	84.655	118.9835
6.000000	84.847	117.5888
6.080000	84.997	116.4955
6.150000	85.126	115.5481
6.220000	85.253	114.6036
6.300000	85.397	113.5291
6.400000	85.573	112.2006
6.500000	85.745	110.8816
6.600000	85.911	109.5647
6.700000	86.072	108.2474
6.800000	86.227	106.9338
6.900000	86.376	105.6279
7.000000	86.518	104.3320
7.100000	86.652	103.0399
7.200000	86.780	101.7589
7.300000	86.900	100.4998
7.400000	87.014	99.2658
7.500000	87.120	98.0502
7.620000	87.239	96.6281
7.750000	87.360	95.1476
7.880000	87.472	93.7250
8.000000	87.570	92.4633
8.120000	87.665	91.2548
8.250000	87.764	90.0083
8.380000	87.862	88.8106
8.500000	87.953	87.7397
8.620000	88.045	86.7103
8.750000	88.145	85.6176
8.850000	88.223	84.7802
9.000000	88.343	83.5443
9.120000	88.440	82.5551
9.250000	88.544	81.4689
9.380000	88.648	80.3749
9.500000	88.742	79.3552
9.620000	88.833	78.3219
9.750000	88.928	77.1896
9.880000	89.018	76.0546
10.000000	89.097	75.0053
10.150000	89.189	73.6920
10.300000	89.275	72.3965
10.440000	89.348	71.2020
10.600000	89.426	69.8605
10.750000	89.493	68.6338
10.900000	89.556	67.4337
11.060000	89.620	66.1827
11.200000	89.672	65.1133
11.380000	89.735	63.7685
11.500000	89.774	62.8887
11.720000	89.840	61.3168
11.800000	89.862	60.7585
12.060000	89.925	58.9999
12.200000	89.954	58.1012
12.410000	89.992	56.8194
12.500000	90.008	56.3021
12.650000	90.032	55.4817
12.800000	90.056	54.7102
13.150000	90.125	53.1004
13.200000	90.137	52.8828
13.400000	90.191	52.0518
13.600000	90.254	51.2226
13.800000	90.327	50.3764
14.000000	90.402	49.4766
14.300000	90.513	48.0175
14.500000	90.576	46.9732
14.750000	90.635	45.6532
15.000000	90.671	44.3570
15.250000	90.686	43.1788
15.500000	90.691	42.1623
15.750000	90.695	41.3176
16.000000	90.714	40.6246
16.250000	90.756	39.9774
16.500000	90.819	39.3055
16.750000	90.900	38.5051
17.000000	90.980	37.5308
17.250000	91.047	36.4012
17.500000	91.089	35.1512
17.750000	91.096	33.9092
18.000000	91.075	32.7572
18.250000	91.031	31.7847
18.500000	90.984	31.0535
18.750000	90.949	30.5238
19.000000	90.941	30.1556
19.250000	90.969	29.7973
19.500000	91.025	29.3470
19.750000	91.101	28.7280
20.000000	91.176	27.8905
20.299999	91.245	26.6746
20.600000	91.276	25.3448
20.900000	91.267	24.0596
21.200001	91.228	22.9661
21.400000	91.198	22.3806
21.799999	91.152	21.5016
22.000000	91.144	21.1522
22.400000	91.166	20.4604
22.700001	91.204	19.8303
23.000000	91.241	19.0577
23.299999	91.264	18.1855
23.600000	91.266	17.2870
24.000000	91.236	16.1788
24.299999	91.197	15.4951
24.700001	91.144	14.8124
25.000000	91.116	14.4348
25.400000	91.103	14.0056
25.799999	91.114	13.5212
26.200001	91.133	12.8935
26.500000	91.140	12.3382
26.900000	91.132	11.5569
27.200001	91.113	11.0050
27.600000	91.082	10.3671
28.000000	91.058	9.8209
28.500000	91.048	9.1370
29.000000	91.046	8.3407
29.500000	91.038	7.4717
30.000000	91.026	6.6127
30.400000	91.020	5.9154
30.700001	91.018	5.3564
31.100000	91.007	4.5614
31.500000	90.983	3.7710
32.000000	90.940	2.9193
32.500000	90.908	2.2348
33.000000	90.898	1.5474
33.500000	90.888	0.7480
34.000000	90.854	-0.0289
34.500000	90.811	-0.5858
35.000000	90.795	-0.9713
35.500000	90.812	-1.4619
36.000000	90.826	-2.2112
36.500000	90.799	-3.0834
37.000000	90.730	-3.8241
37.500000	90.645	-4.3005
38.200001	90.549	-4.5565
38.700001	90.527	-4.6041
39.500000	90.568	-5.1036
40.000000	90.578	-5.8665
40.599998	90.517	-6.8572
41.200001	90.423	-7.4219
41.799999	90.376	-7.7651
42.500000	90.345	-8.5126
43.099998	90.260	-9.1589
43.700001	90.177	-9.3289
44.400002	90.180	-9.4786
45.000000	90.194	-10.1716
45.500000	90.147	-10.8616
46.200001	90.042	-11.3795
46.799999	90.001	-11.6392
47.500000	89.960	-12.3142
48.200001	89.855	-12.9545
48.700001	89.784	-13.1141
49.400002	89.751	-13.3082
50.000000	89.739	-13.8191
50.799999	89.665	-14.5311
51.500000	89.618	-14.7550
52.200001	89.638	-15.1429
53.000000	89.616	-16.1446
53.799999	89.484	-16.6742
54.500000	89.421	-16.4733
55.200001	89.434	-16.5610
56.000000	89.389	-17.1797
57.000000	89.237	-17.4883
58.000000	89.132	-17.5026
59.000000	89.067	-17.9158
60.000000	88.922	-18.7961
60.799999	88.781	-18.8165
61.500000	88.784	-18.8403
62.200001	88.775	-19.7995
63.000000	88.561	-20.5862
64.000000	88.435	-19.1827
65.000000	88.641	-19.4562
66.000000	88.501	-20.8447
67.000000	88.337	-20.0706
68.000000	88.368	-20.0234
69.000000	88.272	-20.2999
70.000000	88.235	-20.4962
71.000000	88.087	-21.1176
72.000000	87.983	-20.7756
73.000000	87.928	-21.1535
74.000000	87.827	-20.7950
75.000000	87.892	-21.1202
76.199997	87.725	-21.6561
77.500000	87.722	-21.9839
78.800003	87.464	-22.0293
80.000000	87.485	-21.9658
81.199997	87.276	-22.0874
82.500000	87.269	-22.1877
83.800003	86.951	-22.0679
85.000000	87.026	-21.0638
86.199997	86.925	-22.1721
87.500000	86.742	-21.1613
88.500000	86.861	-20.8317
90.000000	86.791	-23.1790
91.199997	86.388	-23.0031
92.500000	86.300	-21.2307
93.800003	86.431	-20.8606
95.000000	86.391	-21.7761
96.199997	86.163	-21.9492
97.500000	85.869	-20.4461
98.800003	85.821	-19.2040
100.000000	85.565	-19.2030
101.500000	85.297	-16.6384
103.000000	85.314	-16.8258
104.400002	85.509	-14.8710
106.000000	85.517	-14.9465
107.500000	86.070	-14.6696
109.000000	85.836	-13.9199
110.599998	85.793	-14.4941
112.000000	85.621	-14.9736
113.800003	85.476	-15.6592
115.000000	85.463	-17.4380
117.199997	85.514	-17.9843
118.000000	85.538	-17.7203
120.599998	85.445	-17.3241
122.000000	85.339	-16.6288
124.099998	85.095	-16.8245
125.000000	85.039	-16.0642
126.500000	85.391	-16.5692
128.000000	84.912	-17.8027
131.500000	84.888	-15.5953
132.000000	85.006	-15.6049
134.000000	84.742	-15.8379
136.000000	84.901	-16.1947
138.000000	84.867	-16.3259
140.000000	84.407	-16.0084
143.000000	84.507	-15.5964
145.000000	84.606	-15.0244
147.500000	84.328	-15.7451
150.000000	84.424	-15.8456
152.500000	84.018	-14.5422
155.000000	84.302	-15.3438
157.500000	84.054	-15.1651
160.000000	83.942	-14.5063
162.500000	83.985	-15.1357
165.000000	83.892	-15.5479
167.500000	83.756	-14.7222
170.000000	83.568	-13.5836
172.500000	83.455	-12.6909
175.000000	83.432	-13.0531
177.500000	83.640	-13.7726
180.000000	83.687	-13.4406
182.500000	83.590	-12.1243
185.000000	83.359	-12.1846
187.500000	83.198	-12.7084
190.000000	83.237	-12.7560
192.500000	83.279	-12.3549
195.000000	83.162	-11.7706
197.500000	83.158	-11.7488
200.000000	83.144	-11.4179
203.000000	83.114	-11.6763
206.000000	83.085	-12.2106
209.000000	83.071	-11.7491
212.000000	83.072	-11.7710
214.000000	83.026	-12.2093
218.000000	83.004	-11.9585
220.000000	82.927	-12.2596
224.000000	82.915	-12.5914
227.000000	82.877	-12.7167
230.000000	82.823	-12.7617
233.000000	82.776	-12.9872
236.000000	82.753	-12.8930
240.000000	82.674	-12.9175
243.000000	82.641	-13.0287
247.000000	82.598	-12.9734
250.000000	82.558	-13.1843
254.000000	82.507	-13.2631
258.000000	82.444	-13.2512
262.000000	82.396	-13.3699
265.000000	82.368	-13.5282
269.000000	82.335	-13.6850
272.000000	82.333	-13.5193
276.000000	82.240	-13.5187
280.000000	82.234	-13.8926
285.000000	82.195	-13.9045
290.000000	82.152	-14.1185
295.000000	82.103	-14.1066
300.000000	82.069	-14.3905
304.000000	82.045	-14.5771
307.000000	82.030	-14.6757
311.000000	82.014	-14.8989
315.000000	81.995	-15.0691
320.000000	81.966	-15.2972
325.000000	81.939	-15.6226
330.000000	81.946	-15.7430
335.000000	81.901	-16.1489
340.000000	81.862	-16.4286
345.000000	81.897	-16.7782
350.000000	81.848	-17.0728
355.000000	81.836	-17.2701
360.000000	81.803	-17.3071
365.000000	81.819	-18.1223
370.000000	81.784	-18.2977
375.000000	81.795	-18.5341
382.000000	81.801	-19.0901
387.000000	81.757	-19.6291
395.000000	81.745	-20.1354
400.000000	81.725	-20.5921
406.000000	81.714	-21.0441
412.000000	81.693	-21.6770
418.000000	81.697	-22.2511
425.000000	81.696	-22.7829
431.000000	81.679	-23.4648
437.000000	81.653	-23.8347
444.000000	81.654	-24.6139
450.000000	81.656	-25.2242
455.000000	81.643	-25.7239
462.000000	81.642	-26.5666
468.000000	81.644	-27.1332
475.000000	81.637	-27.8477
482.000000	81.620	-28.7250
487.000000	81.627	-29.1619
494.000000	81.622	-29.9769
500.000000	81.625	-30.6993
508.000000	81.610	-31.6364
515.000000	81.617	-32.4732
522.000000	81.615	-33.2725
530.000000	81.602	-34.2057
538.000000	81.608	-35.2191
545.000000	81.609	-36.1096
552.000000	81.608	-37.0413
560.000000	81.609	-38.0347
570.000000	81.602	-39.3030
580.000000	81.606	-40.6279
590.000000	81.615	-42.0585
600.000000	81.609	-43.3842
608.000000	81.624	-44.3962
615.000000	81.629	-45.3008
622.000000	81.637	-46.1721
630.000000	81.666	-47.2894
640.000000	81.672	-48.5229
650.000000	81.690	-49.9139
660.000000	81.713	-51.3275
670.000000	81.745	-52.7167
680.000000	81.772	-54.1064
690.000000	81.821	-55.5643
700.000000	81.861	-57.0742
710.000000	81.903	-58.5614
720.000000	81.973	-60.0916
730.000000	82.040	-61.7032
740.000000	82.131	-63.4620
750.000000	82.239	-65.3602
762.000000	82.416	-67.8558
775.000000	82.681	-71.6449
788.000000	82.971	-78.0787
800.000000	82.528	-89.9855
812.000000	79.837	-89.8091
825.000000	79.918	-78.9613
838.000000	80.557	-77.4520
850.000000	80.900	-78.3724
862.000000	81.137	-79.9178
875.000000	81.342	-81.8215
885.000000	81.467	-83.4008
900.000000	81.640	-85.8198
912.000000	81.738	-87.8246
925.000000	81.875	-90.0146
938.000000	81.988	-92.1771
950.000000	82.076	-94.3975
962.000000	82.188	-96.4706
975.000000	82.298	-98.8220
988.000000	82.396	-101.2349
1000.000000	82.550	-103.6404
1015.000000	82.612	-106.3280
1030.000000	82.723	-109.1663
1044.000000	82.844	-111.7574
1060.000000	83.005	-115.0673
1075.000000	83.131	-118.2096
1090.000000	83.257	-121.3661
1106.000000	83.386	-124.8457
1120.000000	83.496	-127.7823
1138.000000	83.633	-131.6296
1150.000000	83.724	-134.1719
1172.000000	83.885	-138.8184
1180.000000	83.945	-140.4263
1206.000000	84.117	-145.9673
1220.000000	84.217	-148.8229
1241.000000	84.354	-153.1991
1250.000000	84.407	-155.0204
1265.000000	84.507	-158.0609
1280.000000	84.605	-161.0269
1315.000000	84.817	-167.9263
1320.000000	84.847	-168.9155
1340.000000	84.957	-172.7996
1360.000000	85.077	-176.5551
1380.000000	85.195	179.6938
1400.000000	85.299	175.9653
1430.000000	85.471	170.5546
1450.000000	85.582	167.0310
1475.000000	85.714	162.6698
1500.000000	85.843	158.3314
1525.000000	85.970	154.1754
1550.000000	86.093	150.0644
1575.000000	86.218	146.0308
1600.000000	86.339	142.0966
1625.000000	86.457	138.2890
1650.000000	86.567	134.5703
1675.000000	86.678	130.9821
1700.000000	86.793	127.4510
1725.000000	86.906	124.0543
1750.000000	87.018	120.7142
1775.000000	87.138	117.4957
1800.000000	87.254	114.3428
1825.000000	87.372	111.2688
1850.000000	87.491	108.3409
1875.000000	87.606	105.4443
1900.000000	87.721	102.6501
1925.000000	87.837	99.9259
1950.000000	87.953	97.2932
1975.000000	88.067	94.7314
2000.000000	88.160	92.4238
2030.000000	88.325	89.3340
2060.000000	88.464	86.5627
2090.000000	88.608	83.8816
2120.000000	88.740	81.3469
2140.000000	88.831	79.6749
2180.000000	89.005	76.5795
2200.000000	89.085	75.1451
2240.000000	89.250	72.5285
2270.000000	89.382	70.7051
2300.000000	89.534	69.0271
2330.000000	89.691	67.1842
2360.000000	89.872	65.3413
2400.000000	90.126	62.6399
2430.000000	90.328	60.5043
2470.000000	90.582	57.3707
2500.000000	90.759	54.9210
2540.000000	90.951	51.5848
2580.000000	91.106	48.2734
2620.000000	91.236	45.0494
2650.000000	91.326	42.6697
2690.000000	91.428	39.5130
2720.000000	91.493	37.2112
2760.000000	91.567	34.2261
2800.000000	91.625	31.3970
2850.000000	91.697	28.0418
2900.000000	91.786	24.8252
2950.000000	91.886	21.5068
3000.000000	91.992	18.1423
3040.000000	92.015	15.2571
3070.000000	92.033	13.1971
3110.000000	92.038	10.5065
3150.000000	92.025	7.8818
3200.000000	91.997	4.7479
3250.000000	91.949	1.7791
3300.000000	91.883	-1.0008
3350.000000	91.817	-3.6562
3400.000000	91.744	-6.1357
3450.000000	91.664	-8.4802
3500.000000	91.574	-10.6814
3550.000000	91.479	-12.7732
3600.000000	91.382	-14.7369
3650.000000	91.280	-16.6046
3700.000000	91.176	-18.3480
3750.000000	91.065	-20.0071
3820.000000	90.896	-22.1181
3870.000000	90.761	-23.4689
3950.000000	90.498	-25.1765
4000.000000	90.300	-25.7062
4060.000000	90.175	-25.5179
4120.000000	90.183	-25.2549
4180.000000	90.265	-25.6207
4250.000000	90.341	-26.6796
4310.000000	90.362	-27.8065
4370.000000	90.353	-28.8845
4440.000000	90.312	-30.0441
4500.000000	90.269	-30.9510
4550.000000	90.219	-31.6401
4620.000000	90.149	-32.4672
4680.000000	90.084	-33.1085
4750.000000	90.011	-33.8215
4820.000000	89.918	-34.8060
4870.000000	89.854	-35.4755
4940.000000	89.756	-36.3699
5000.000000	89.669	-37.0630
5080.000000	89.541	-37.8984
5150.000000	89.421	-38.5453
5220.000000	89.288	-39.1032
5300.000000	89.123	-39.6026
5380.000000	88.945	-39.9588
5450.000000	88.777	-40.1689
5520.000000	88.606	-40.2859
5600.000000	88.387	-40.2379
5700.000000	88.101	-39.9467
5800.000000	87.785	-39.4259
5900.000000	87.424	-38.6385
6000.000000	86.995	-37.5084
6080.000000	86.476	-36.1943
6150.000000	85.772	-32.7313
6220.000000	85.980	-24.8810
6300.000000	85.860	-22.2693
6400.000000	87.237	-19.4221
6500.000000	86.966	-22.0433
6600.000000	86.612	-20.8051
6700.000000	86.325	-18.4564
6800.000000	86.091	-15.5316
6900.000000	85.904	-12.2018
7000.000000	85.803	-8.5948
7100.000000	85.691	-4.6156
7200.000000	85.678	-0.4764
7300.000000	85.747	3.6745
7400.000000	85.908	7.6984
7500.000000	86.143	11.3063
7620.000000	86.526	14.9012
7750.000000	86.990	17.4468
7880.000000	87.420	18.1324
8000.000000	87.604	17.1896
8120.000000	87.539	15.2609
8250.000000	87.033	13.1942
8380.000000	86.153	12.5823
8500.000000	85.145	13.8892
8620.000000	84.067	17.0615
8750.000000	82.923	22.1940
8850.000000	82.075	27.1673
9000.000000	80.948	35.7695
9120.000000	80.065	43.6611
9250.000000	79.238	52.7752
9380.000000	78.497	62.4030
9500.000000	77.894	71.7133
9620.000000	77.340	81.2900
9750.000000	76.814	91.7265
9880.000000	76.343	102.6714
10000.000000	75.963	112.8378
10150.000000	75.587	125.8106
10300.000000	75.231	138.7119
10440.000000	74.987	151.6536
10600.000000	74.776	165.8133
10750.000000	74.708	178.5153
10900.000000	74.695	-169.4681
11060.000000	74.697	-156.5408
11200.000000	74.732	-145.0408
11380.000000	74.846	-130.1091
11500.000000	74.950	-120.3119
11720.000000	75.290	-101.5628
11800.000000	75.438	-94.7135
12060.000000	76.116	-73.2827
12200.000000	76.562	-61.7355
12410.000000	77.293	-44.8054
12500.000000	77.687	-37.4869
12650.000000	78.414	-25.3976
12800.000000	79.364	-13.8749
13150.000000	82.080	6.5984
13200.000000	82.472	8.6246
13400.000000	83.924	14.0764
13600.000000	84.882	16.2461
13800.000000	85.272	16.8459
14000.000000	85.059	15.9104
14300.000000	82.768	17.4716
14500.000000	80.605	27.6857
14750.000000	78.512	47.4076
15000.000000	77.176	69.7106
15250.000000	76.329	92.1931
15500.000000	75.715	113.1392
15750.000000	75.055	133.0451
16000.000000	74.254	154.3623
16250.000000	73.553	-179.6316
16500.000000	74.406	-154.3592
16750.000000	75.025	-153.4689
17000.000000	70.895	-114.4652
17250.000000	73.541	-90.1827
17500.000000	74.463	-80.7158
17750.000000	73.620	-76.4309
18000.000000	69.871	-63.9300
18250.000000	68.080	-23.2292
18500.000000	69.660	1.5604
18750.000000	70.094	9.8438
19000.000000	67.986	11.7453
19250.000000	64.038	25.7216
19500.000000	59.532	55.2354
19750.000000	56.341	95.3025
