* Measurement data measured by REW V5.30.9
* Source: Headset (Odo By VECLAN.COM), no input selected, L, volume: no control
* Format: 512k Log Swept Sine, 1 sweep at -12.0 dBFS with no timing reference
* Dated: 09 7, 24 7:52:45 PM
* REW Settings:
*  C-weighting compensation: Off
*  Target level: 75.0 dB
* Note: ; 
* Measurement: ew200 dsp L
* Smoothing: None
* Frequency Step: 1/48 octave
* Start Frequency: 1.000 Hz
*
* Freq(Hz)	SPL(dB)	Phase(degrees)
1.000000	55.573	-120.3037
1.015000	55.804	-120.7015
1.030000	56.034	-121.1013
1.044000	56.246	-121.4745
1.060000	56.488	-121.8985
1.075000	56.712	-122.2915
1.090000	56.934	-122.6778
1.106000	57.170	-123.0831
1.120000	57.374	-123.4466
1.138000	57.633	-123.9299
1.150000	57.804	-124.2615
1.172000	58.113	-124.8873
1.180000	58.225	-125.1203
1.206000	58.582	-125.8957
1.220000	58.772	-126.3238
1.241000	59.053	-126.9782
1.250000	59.173	-127.2627
1.265000	59.370	-127.7417
1.280000	59.566	-128.2261
1.315000	60.015	-129.3733
1.320000	60.079	-129.5387
1.340000	60.331	-130.2032
1.360000	60.580	-130.8707
1.380000	60.827	-131.5397
1.400000	61.071	-132.2083
1.430000	61.433	-133.2068
1.450000	61.672	-133.8670
1.475000	61.967	-134.6850
1.500000	62.258	-135.5092
1.525000	62.543	-136.3424
1.550000	62.824	-137.1833
1.575000	63.100	-138.0305
1.600000	63.372	-138.8829
1.625000	63.639	-139.7391
1.650000	63.903	-140.5979
1.675000	64.162	-141.4579
1.700000	64.419	-142.3179
1.725000	64.671	-143.1766
1.750000	64.921	-144.0327
1.775000	65.168	-144.8849
1.800000	65.412	-145.7320
1.825000	65.654	-146.5726
1.850000	65.892	-147.4080
1.875000	66.127	-148.2434
1.900000	66.359	-149.0785
1.925000	66.586	-149.9129
1.950000	66.810	-150.7461
1.975000	67.031	-151.5775
2.000000	67.249	-152.4068
2.030000	67.506	-153.3983
2.060000	67.759	-154.3852
2.090000	68.009	-155.3666
2.120000	68.255	-156.3416
2.140000	68.418	-156.9878
2.180000	68.739	-158.2695
2.200000	68.897	-158.9047
2.240000	69.210	-160.1667
2.270000	69.439	-161.1068
2.300000	69.665	-162.0413
2.330000	69.886	-162.9700
2.360000	70.105	-163.8928
2.400000	70.391	-165.1135
2.430000	70.602	-166.0217
2.470000	70.879	-167.2223
2.500000	71.084	-168.1149
2.540000	71.354	-169.2943
2.580000	71.621	-170.4609
2.620000	71.882	-171.6146
2.650000	72.074	-172.4716
2.690000	72.327	-173.6038
2.720000	72.513	-174.4452
2.760000	72.757	-175.5572
2.800000	72.997	-176.6583
2.850000	73.293	-178.0200
2.900000	73.583	-179.3662
2.950000	73.869	179.3026
3.000000	74.150	177.9899
3.040000	74.370	176.9526
3.070000	74.533	176.1817
3.110000	74.746	175.1625
3.150000	74.957	174.1524
3.200000	75.217	172.9014
3.250000	75.472	171.6618
3.300000	75.725	170.4319
3.350000	75.973	169.2145
3.400000	76.216	168.0116
3.450000	76.455	166.8214
3.500000	76.690	165.6424
3.550000	76.922	164.4730
3.600000	77.149	163.3116
3.650000	77.374	162.1567
3.700000	77.595	161.0085
3.750000	77.812	159.8700
3.820000	78.111	158.2911
3.870000	78.320	157.1726
3.950000	78.647	155.3967
4.000000	78.847	154.2938
4.060000	79.083	152.9765
4.120000	79.314	151.6679
4.180000	79.540	150.3682
4.250000	79.798	148.8626
4.310000	80.014	147.5812
4.370000	80.225	146.3078
4.440000	80.466	144.8318
4.500000	80.667	143.5746
4.550000	80.830	142.5329
4.620000	81.054	141.0848
4.680000	81.242	139.8539
4.750000	81.454	138.4310
4.820000	81.661	137.0214
4.870000	81.804	136.0217
4.940000	82.000	134.6334
5.000000	82.163	133.4552
5.080000	82.374	131.9036
5.150000	82.553	130.5656
5.220000	82.726	129.2435
5.300000	82.917	127.7521
5.380000	83.101	126.2844
5.450000	83.256	125.0217
5.520000	83.407	123.7805
5.600000	83.574	122.3859
5.700000	83.773	120.6789
5.800000	83.963	119.0149
5.900000	84.147	117.3966
6.000000	84.322	115.8233
6.080000	84.456	114.5964
6.150000	84.571	113.5457
6.220000	84.683	112.5160
6.300000	84.808	111.3661
6.400000	84.958	109.9695
6.500000	85.104	108.6136
6.600000	85.247	107.2941
6.700000	85.386	106.0142
6.800000	85.521	104.7730
6.900000	85.654	103.5627
7.000000	85.784	102.3771
7.100000	85.913	101.2233
7.200000	86.040	100.0956
7.300000	86.164	98.9851
7.400000	86.287	97.8884
7.500000	86.409	96.8114
7.620000	86.553	95.5354
7.750000	86.705	94.1616
7.880000	86.853	92.8013
8.000000	86.987	91.5542
8.120000	87.116	90.3100
8.250000	87.251	88.9667
8.380000	87.380	87.6316
8.500000	87.494	86.4072
8.620000	87.601	85.1886
8.750000	87.712	83.8833
8.850000	87.792	82.8938
9.000000	87.904	81.4278
9.120000	87.989	80.2788
9.250000	88.074	79.0640
9.380000	88.154	77.8769
9.500000	88.224	76.8084
9.620000	88.290	75.7686
9.750000	88.359	74.6730
9.880000	88.425	73.6046
10.000000	88.484	72.6427
10.150000	88.555	71.4721
10.300000	88.625	70.3243
10.440000	88.689	69.2750
10.600000	88.760	68.0953
10.750000	88.824	67.0017
10.900000	88.885	65.9227
11.060000	88.948	64.7868
11.200000	89.000	63.8048
11.380000	89.062	62.5667
11.500000	89.102	61.7573
11.720000	89.170	60.3103
11.800000	89.194	59.7981
12.060000	89.268	58.1808
12.200000	89.309	57.3377
12.410000	89.369	56.1051
12.500000	89.396	55.5823
12.650000	89.441	54.7220
12.800000	89.486	53.8661
13.150000	89.593	51.8646
13.200000	89.607	51.5778
13.400000	89.665	50.4260
13.600000	89.719	49.2775
13.800000	89.768	48.1340
14.000000	89.813	47.0100
14.300000	89.873	45.3668
14.500000	89.909	44.3075
14.750000	89.952	43.0179
15.000000	89.991	41.7637
15.250000	90.028	40.5355
15.500000	90.059	39.3392
15.750000	90.085	38.1829
16.000000	90.104	37.0868
16.250000	90.120	36.0702
16.500000	90.136	35.1346
16.750000	90.158	34.2782
17.000000	90.189	33.4590
17.250000	90.228	32.6462
17.500000	90.275	31.7991
17.750000	90.322	30.8912
18.000000	90.362	29.9339
18.250000	90.391	28.9417
18.500000	90.406	27.9741
18.750000	90.409	27.0659
19.000000	90.405	26.2486
19.250000	90.406	25.5309
19.500000	90.411	24.8751
19.750000	90.430	24.2498
20.000000	90.460	23.5836
20.299999	90.501	22.6894
20.600000	90.536	21.6842
20.900000	90.553	20.6102
21.200001	90.547	19.5575
21.400000	90.534	18.9200
21.799999	90.502	17.8340
22.000000	90.492	17.3760
22.400000	90.497	16.5332
22.700001	90.522	15.8453
23.000000	90.552	15.0228
23.299999	90.570	14.0766
23.600000	90.564	13.0825
24.000000	90.515	11.8597
24.299999	90.460	11.1532
24.700001	90.391	10.5579
25.000000	90.367	10.3019
25.400000	90.386	10.0084
25.799999	90.450	9.5122
26.200001	90.524	8.6840
26.500000	90.563	7.8814
26.900000	90.578	6.7025
27.200001	90.562	5.8495
27.600000	90.517	4.8638
28.000000	90.469	4.0714
28.500000	90.432	3.1902
29.000000	90.407	2.1576
29.500000	90.346	0.9468
30.000000	90.219	-0.0390
30.400000	90.104	-0.3309
30.700001	90.048	-0.2303
31.100000	90.060	0.0351
31.500000	90.162	-0.0199
32.000000	90.317	-1.0073
32.500000	90.368	-2.6682
33.000000	90.291	-3.9998
33.500000	90.208	-4.4548
34.000000	90.244	-4.6011
34.500000	90.355	-5.4364
35.000000	90.387	-7.0396
35.500000	90.261	-8.4803
36.000000	90.071	-8.8909
36.500000	89.974	-8.4343
37.000000	90.016	-8.1144
37.500000	90.094	-8.4956
38.200001	90.108	-9.5538
38.700001	90.082	-10.1462
39.500000	90.069	-11.2448
40.000000	90.020	-12.2018
40.599998	89.889	-13.1088
41.200001	89.768	-13.4150
41.799999	89.722	-13.6143
42.500000	89.689	-14.2737
43.099998	89.614	-14.8180
43.700001	89.548	-15.0232
44.400002	89.537	-15.2593
45.000000	89.538	-15.7781
45.500000	89.519	-16.3074
46.200001	89.478	-17.0594
46.799999	89.432	-17.8138
47.500000	89.335	-18.7015
48.200001	89.225	-19.2782
48.700001	89.173	-19.5742
49.400002	89.133	-20.0856
50.000000	89.108	-20.5836
50.799999	89.101	-21.3062
51.500000	89.094	-22.1694
52.200001	89.034	-23.0072
53.000000	88.934	-23.4008
53.799999	88.891	-23.3568
54.500000	88.898	-23.5052
55.200001	88.870	-23.9937
56.000000	88.744	-24.3510
57.000000	88.626	-24.0212
58.000000	88.597	-24.3287
59.000000	88.477	-25.0195
60.000000	88.339	-25.3243
60.799999	88.286	-25.3384
61.500000	88.297	-25.6652
62.200001	88.252	-26.4218
63.000000	88.105	-26.6462
64.000000	88.099	-26.0955
65.000000	88.121	-27.0262
66.000000	87.923	-27.5693
67.000000	87.821	-27.1295
68.000000	87.814	-27.4915
69.000000	87.694	-28.3080
70.000000	87.542	-28.3683
71.000000	87.485	-28.2694
72.000000	87.448	-28.2172
73.000000	87.468	-28.3013
74.000000	87.429	-28.9550
75.000000	87.290	-29.1509
76.199997	87.179	-28.9828
77.500000	87.083	-28.8320
78.800003	87.048	-29.2264
80.000000	86.946	-29.5272
81.199997	86.890	-29.9510
82.500000	86.740	-29.8330
83.800003	86.713	-29.6556
85.000000	86.625	-29.6927
86.199997	86.511	-29.7692
87.500000	86.398	-29.3292
88.500000	86.365	-29.5388
90.000000	86.194	-29.4650
91.199997	86.153	-29.2629
92.500000	86.041	-29.1072
93.800003	86.033	-28.5155
95.000000	85.930	-29.4277
96.199997	85.608	-28.3949
97.500000	85.622	-27.0795
98.800003	85.612	-26.9315
100.000000	85.496	-27.2128
101.500000	85.518	-26.4824
103.000000	85.289	-27.0772
104.400002	85.370	-26.1918
106.000000	85.319	-25.6837
107.500000	85.278	-26.5445
109.000000	85.343	-25.2982
110.599998	85.163	-25.7890
112.000000	85.254	-25.3514
113.800003	85.092	-25.1578
115.000000	85.122	-25.1432
117.199997	84.924	-24.6138
118.000000	84.997	-24.2870
120.599998	84.916	-24.1368
122.000000	84.917	-24.8517
124.099998	84.867	-23.8447
125.000000	84.746	-23.9329
126.500000	84.852	-23.3214
128.000000	84.509	-23.4180
131.500000	84.563	-23.1154
132.000000	84.520	-23.0536
134.000000	84.517	-23.0460
136.000000	84.515	-23.2129
138.000000	84.403	-22.6992
140.000000	84.265	-22.5739
143.000000	84.285	-22.5677
145.000000	84.212	-22.5714
147.500000	84.120	-22.1647
150.000000	83.951	-22.5948
152.500000	83.916	-22.4023
155.000000	83.829	-21.7631
157.500000	83.784	-20.8538
160.000000	83.651	-21.1006
162.500000	83.690	-20.9654
165.000000	83.579	-21.2913
167.500000	83.404	-20.2316
170.000000	83.348	-20.0067
172.500000	83.274	-19.5743
175.000000	83.252	-18.6904
177.500000	83.182	-18.5781
180.000000	83.078	-18.1270
182.500000	83.044	-17.7327
185.000000	82.956	-17.2688
187.500000	82.944	-17.2405
190.000000	82.897	-16.8612
192.500000	82.925	-16.3870
195.000000	82.896	-16.4128
197.500000	82.925	-16.0506
200.000000	82.873	-14.9807
203.000000	82.899	-15.2396
206.000000	82.902	-15.7576
209.000000	82.858	-15.8341
212.000000	82.866	-15.9554
214.000000	82.730	-15.9933
218.000000	82.738	-16.0308
220.000000	82.722	-16.1422
224.000000	82.633	-16.0604
227.000000	82.561	-15.9828
230.000000	82.535	-15.9431
233.000000	82.518	-15.9343
236.000000	82.461	-16.1288
240.000000	82.422	-15.7253
243.000000	82.397	-15.8090
247.000000	82.293	-15.8977
250.000000	82.247	-15.8970
254.000000	82.254	-15.9941
258.000000	82.180	-16.2951
262.000000	82.153	-16.2542
265.000000	82.133	-16.2581
269.000000	82.063	-16.3083
272.000000	82.059	-16.3209
276.000000	81.995	-16.6542
280.000000	81.989	-16.9642
285.000000	81.951	-16.9669
290.000000	81.916	-17.0930
295.000000	81.888	-17.5189
300.000000	81.850	-17.9312
304.000000	81.833	-18.0911
307.000000	81.824	-18.4063
311.000000	81.803	-18.6268
315.000000	81.771	-19.1702
320.000000	81.750	-19.5805
325.000000	81.748	-20.0978
330.000000	81.722	-20.7366
335.000000	81.691	-21.2471
340.000000	81.657	-21.9157
345.000000	81.674	-22.7011
350.000000	81.647	-23.1429
355.000000	81.633	-23.9627
360.000000	81.625	-24.7565
365.000000	81.614	-25.6300
370.000000	81.584	-26.5066
375.000000	81.612	-27.6550
382.000000	81.573	-28.8671
387.000000	81.547	-29.8267
395.000000	81.531	-31.4998
400.000000	81.529	-32.4191
406.000000	81.515	-33.6735
412.000000	81.511	-34.9684
418.000000	81.496	-36.2814
425.000000	81.487	-37.8073
431.000000	81.501	-38.9698
437.000000	81.488	-40.3911
444.000000	81.465	-41.9768
450.000000	81.477	-43.3180
455.000000	81.461	-44.5930
462.000000	81.468	-46.1854
468.000000	81.456	-47.7141
475.000000	81.443	-49.3168
482.000000	81.460	-51.0763
487.000000	81.438	-52.2753
494.000000	81.425	-54.1071
500.000000	81.422	-55.6237
508.000000	81.417	-57.6740
515.000000	81.416	-59.5042
522.000000	81.412	-61.3185
530.000000	81.407	-63.4622
538.000000	81.397	-65.5499
545.000000	81.400	-67.4536
552.000000	81.394	-69.3276
560.000000	81.405	-71.4674
570.000000	81.402	-74.2297
580.000000	81.402	-77.0374
590.000000	81.399	-79.7261
600.000000	81.406	-82.5944
608.000000	81.398	-84.8579
615.000000	81.397	-86.8383
622.000000	81.402	-88.8458
630.000000	81.411	-91.2354
640.000000	81.411	-94.0970
650.000000	81.422	-97.0292
660.000000	81.447	-100.0881
670.000000	81.444	-103.0964
680.000000	81.451	-106.1455
690.000000	81.459	-109.2048
700.000000	81.481	-112.2506
710.000000	81.495	-115.3635
720.000000	81.505	-118.5135
730.000000	81.531	-121.6476
740.000000	81.548	-124.8506
750.000000	81.563	-128.0536
762.000000	81.598	-131.8700
775.000000	81.627	-136.0668
788.000000	81.666	-140.2963
800.000000	81.670	-144.3139
812.000000	81.660	-148.1315
825.000000	81.701	-152.0330
838.000000	81.761	-156.1366
850.000000	81.826	-160.2017
862.000000	81.898	-164.2000
875.000000	81.957	-168.5770
885.000000	82.001	-172.0380
900.000000	82.100	-177.2650
912.000000	82.167	178.6470
925.000000	82.238	174.0126
938.000000	82.334	169.3044
950.000000	82.419	164.9099
962.000000	82.507	160.5670
975.000000	82.548	155.6096
988.000000	82.632	150.8073
1000.000000	82.769	146.2968
1015.000000	82.833	140.7405
1030.000000	82.949	134.9750
1044.000000	83.058	129.5525
1060.000000	83.196	123.3882
1075.000000	83.307	117.5801
1090.000000	83.426	111.7142
1106.000000	83.545	105.4722
1120.000000	83.662	99.9293
1138.000000	83.793	92.8513
1150.000000	83.882	88.1602
1172.000000	84.047	79.5447
1180.000000	84.107	76.4020
1206.000000	84.283	66.1832
1220.000000	84.375	60.6946
1241.000000	84.516	52.4824
1250.000000	84.578	48.9761
1265.000000	84.676	43.1287
1280.000000	84.762	37.2865
1315.000000	84.967	23.7606
1320.000000	85.000	21.8446
1340.000000	85.109	14.1678
1360.000000	85.223	6.6017
1380.000000	85.327	-0.9954
1400.000000	85.443	-8.5346
1430.000000	85.590	-19.7373
1450.000000	85.704	-27.2065
1475.000000	85.836	-36.4371
1500.000000	85.967	-45.6324
1525.000000	86.092	-54.7432
1550.000000	86.220	-63.8080
1575.000000	86.339	-72.7567
1600.000000	86.462	-81.6793
1625.000000	86.582	-90.5363
1650.000000	86.699	-99.2874
1675.000000	86.817	-108.0162
1700.000000	86.936	-116.6227
1725.000000	87.052	-125.1748
1750.000000	87.174	-133.6399
1775.000000	87.294	-142.0491
1800.000000	87.415	-150.3650
1825.000000	87.535	-158.6362
1850.000000	87.656	-166.8651
1875.000000	87.779	-174.9824
1900.000000	87.898	176.9397
1925.000000	88.023	168.9387
1950.000000	88.145	160.9932
1975.000000	88.265	153.1011
2000.000000	88.364	145.1053
2030.000000	88.533	135.9736
2060.000000	88.678	126.7275
2090.000000	88.824	117.5675
2120.000000	88.961	108.4988
2140.000000	89.059	102.4993
2180.000000	89.237	90.6202
2200.000000	89.324	84.7192
2240.000000	89.498	73.1208
2270.000000	89.620	64.5305
2300.000000	89.747	56.0928
2330.000000	89.876	47.7317
2360.000000	90.013	39.4626
2400.000000	90.199	28.5911
2430.000000	90.344	20.5654
2470.000000	90.562	9.8242
2500.000000	90.726	1.7256
2540.000000	90.928	-9.1755
2580.000000	91.091	-20.0270
2620.000000	91.219	-30.7366
2650.000000	91.290	-38.6470
2690.000000	91.370	-48.9548
2720.000000	91.419	-56.5312
2760.000000	91.474	-66.2710
2800.000000	91.534	-75.8586
2850.000000	91.625	-87.5244
2900.000000	91.701	-99.0865
2950.000000	91.760	-110.5247
3000.000000	91.753	-121.7850
3040.000000	91.768	-130.3730
3070.000000	91.754	-136.7244
3110.000000	91.720	-144.9952
3150.000000	91.674	-153.0001
3200.000000	91.603	-162.7004
3250.000000	91.523	-171.9653
3300.000000	91.434	179.1482
3350.000000	91.338	170.6497
3400.000000	91.241	162.5037
3450.000000	91.138	154.6729
3500.000000	91.031	147.2562
3550.000000	90.928	140.1508
3600.000000	90.821	133.4261
3650.000000	90.725	127.0128
3700.000000	90.626	120.9648
3750.000000	90.547	115.2205
3820.000000	90.442	107.6393
3870.000000	90.380	102.4963
3950.000000	90.281	94.7849
4000.000000	90.234	90.3180
4060.000000	90.145	84.9348
4120.000000	90.067	79.6047
4180.000000	89.986	74.4534
4250.000000	89.902	68.6599
4310.000000	89.841	63.8418
4370.000000	89.776	59.1871
4440.000000	89.704	53.9003
4500.000000	89.643	49.5500
4550.000000	89.593	46.0172
4620.000000	89.534	41.2118
4680.000000	89.479	37.1642
4750.000000	89.415	32.6156
4820.000000	89.343	28.2231
4870.000000	89.291	25.1975
4940.000000	89.217	21.0215
5000.000000	89.153	17.5800
5080.000000	89.066	13.1552
5150.000000	88.971	9.4447
5220.000000	88.871	5.8710
5300.000000	88.757	2.0017
5380.000000	88.633	-1.6846
5450.000000	88.511	-4.7291
5520.000000	88.385	-7.6045
5600.000000	88.235	-10.6897
5700.000000	88.026	-14.1688
5800.000000	87.804	-17.3033
5900.000000	87.567	-20.1215
6000.000000	87.281	-22.9395
6080.000000	87.021	-24.9856
6150.000000	86.734	-25.4751
6220.000000	86.806	-25.0956
6300.000000	86.859	-27.4360
6400.000000	86.676	-29.5864
6500.000000	86.478	-30.9567
6600.000000	86.297	-31.8104
6700.000000	86.136	-32.2456
6800.000000	85.999	-32.2913
6900.000000	85.886	-32.0017
7000.000000	85.855	-31.3215
7100.000000	85.803	-30.4324
7200.000000	85.847	-29.2603
7300.000000	85.958	-28.0936
7400.000000	86.154	-27.0588
7500.000000	86.416	-26.4498
7620.000000	86.782	-26.4891
7750.000000	87.178	-27.9556
7880.000000	87.434	-30.9373
8000.000000	87.380	-34.7251
8120.000000	87.028	-38.7743
8250.000000	86.250	-41.9320
8380.000000	85.208	-43.0588
8500.000000	84.154	-42.1476
8620.000000	83.083	-39.3383
8750.000000	81.973	-34.7462
8850.000000	81.173	-30.7450
9000.000000	80.028	-24.1764
9120.000000	79.276	-17.9612
9250.000000	78.502	-10.6367
9380.000000	77.794	-2.7198
9500.000000	77.231	5.0217
9620.000000	76.714	13.2084
9750.000000	76.225	22.4646
9880.000000	75.783	31.9337
10000.000000	75.450	40.9417
10150.000000	75.088	52.8445
10300.000000	74.776	64.4265
10440.000000	74.536	76.2002
10600.000000	74.319	89.6970
10750.000000	74.172	102.7104
10900.000000	74.090	116.0240
11060.000000	74.063	130.6069
11200.000000	74.110	143.5242
11380.000000	74.232	160.4225
11500.000000	74.372	172.0840
11720.000000	74.744	-166.8163
11800.000000	74.908	-158.8945
12060.000000	75.618	-133.2521
12200.000000	76.091	-119.4445
12410.000000	76.963	-98.9971
12500.000000	77.384	-90.3557
12650.000000	78.182	-76.0654
12800.000000	79.080	-62.2800
13150.000000	81.531	-33.1619
13200.000000	81.911	-29.5842
13400.000000	83.402	-16.8008
13600.000000	84.769	-8.2183
13800.000000	86.003	-3.2365
14000.000000	86.748	-4.4240
14300.000000	85.048	-6.1954
14500.000000	83.230	1.5846
14750.000000	81.438	17.2249
15000.000000	80.237	34.5875
15250.000000	79.472	51.5511
15500.000000	79.037	66.3569
15750.000000	78.614	78.3330
16000.000000	77.857	87.2668
16250.000000	76.604	96.0181
16500.000000	74.882	107.4572
16750.000000	73.605	122.2271
17000.000000	72.164	135.7081
17250.000000	71.421	151.8561
17500.000000	70.828	161.4136
17750.000000	69.051	168.6777
18000.000000	66.605	-171.8293
18250.000000	67.483	-148.1138
18500.000000	68.421	-142.1479
18750.000000	68.535	-143.8430
19000.000000	67.419	-151.3269
19250.000000	64.660	-153.1023
19500.000000	61.208	-151.1012
19750.000000	57.521	-140.7280
