* Measurement data measured by REW V5.30.9
* Source: Headset (Odo By VECLAN.COM), no input selected, L, volume: no control
* Format: 512k Log Swept Sine, 1 sweep at -12.0 dBFS with no timing reference
* Dated: 09 3, 24 1:10:26 AM
* REW Settings:
*  C-weighting compensation: Off
*  Target level: 75.0 dB
* Note: ; 
* Measurement: ew300 gg R
* Smoothing: None
* Frequency Step: 1/48 octave
* Start Frequency: 1.000 Hz
*
* Freq(Hz)	SPL(dB)	Phase(degrees)
1.000000	50.420	-79.8858
1.015000	51.070	-83.9486
1.030000	51.701	-87.8398
1.044000	52.269	-91.3010
1.060000	52.889	-95.0362
1.075000	53.437	-98.3059
1.090000	53.949	-101.3328
1.106000	54.454	-104.2786
1.120000	54.882	-106.6365
1.138000	55.421	-109.3909
1.150000	55.774	-111.0646
1.172000	56.405	-113.8217
1.180000	56.630	-114.7311
1.206000	57.346	-117.3770
1.220000	57.721	-118.6237
1.241000	58.272	-120.2903
1.250000	58.504	-120.9379
1.265000	58.885	-121.9391
1.280000	59.258	-122.8547
1.315000	60.105	-124.7347
1.320000	60.224	-124.9813
1.340000	60.690	-125.9336
1.360000	61.146	-126.8550
1.380000	61.593	-127.7779
1.400000	62.032	-128.7348
1.430000	62.673	-130.3045
1.450000	63.092	-131.4878
1.475000	63.605	-133.1496
1.500000	64.097	-134.8037
1.525000	64.569	-136.3982
1.550000	65.021	-137.9387
1.575000	65.456	-139.4301
1.600000	65.874	-140.8779
1.625000	66.278	-142.2872
1.650000	66.668	-143.6633
1.675000	67.047	-145.0115
1.700000	67.416	-146.3369
1.725000	67.776	-147.6449
1.750000	68.129	-148.9407
1.775000	68.477	-150.2296
1.800000	68.821	-151.5167
1.825000	69.162	-152.8074
1.850000	69.500	-154.0978
1.875000	69.827	-155.3691
1.900000	70.144	-156.6217
1.925000	70.452	-157.8564
1.950000	70.751	-159.0744
1.975000	71.043	-160.2766
2.000000	71.326	-161.4642
2.030000	71.658	-162.8715
2.060000	71.980	-164.2611
2.090000	72.295	-165.6346
2.120000	72.603	-166.9941
2.140000	72.805	-167.8934
2.180000	73.202	-169.6778
2.200000	73.398	-170.5639
2.240000	73.780	-172.3166
2.270000	74.055	-173.6122
2.300000	74.323	-174.8918
2.330000	74.583	-176.1562
2.360000	74.835	-177.4057
2.400000	75.162	-179.0494
2.430000	75.400	179.7339
2.470000	75.710	178.1323
2.500000	75.936	176.9460
2.540000	76.232	175.3831
2.580000	76.522	173.8410
2.620000	76.801	172.3225
2.650000	77.004	171.1994
2.690000	77.265	169.7225
2.720000	77.456	168.6301
2.760000	77.702	167.1937
2.800000	77.941	165.7800
2.850000	78.230	164.0441
2.900000	78.512	162.3422
2.950000	78.785	160.6742
3.000000	79.047	159.0421
3.040000	79.249	157.7621
3.070000	79.396	156.8168
3.110000	79.586	155.5756
3.150000	79.771	154.3560
3.200000	79.996	152.8609
3.250000	80.215	151.3977
3.300000	80.429	149.9654
3.350000	80.636	148.5671
3.400000	80.835	147.2041
3.450000	81.027	145.8741
3.500000	81.212	144.5753
3.550000	81.393	143.3053
3.600000	81.570	142.0623
3.650000	81.744	140.8439
3.700000	81.914	139.6520
3.750000	82.080	138.4924
3.820000	82.303	136.9178
3.870000	82.459	135.8235
3.950000	82.701	134.1165
4.000000	82.850	133.0720
4.060000	83.027	131.8392
4.120000	83.199	130.6406
4.180000	83.368	129.4730
4.250000	83.561	128.1418
4.310000	83.724	127.0207
4.370000	83.884	125.9115
4.440000	84.069	124.6306
4.500000	84.224	123.5544
4.550000	84.352	122.6706
4.620000	84.528	121.4483
4.680000	84.677	120.4100
4.750000	84.846	119.2035
4.820000	85.013	118.0020
4.870000	85.131	117.1509
4.940000	85.292	115.9678
5.000000	85.427	114.9600
5.080000	85.603	113.6228
5.150000	85.753	112.4565
5.220000	85.899	111.2937
5.300000	86.060	109.9712
5.380000	86.217	108.6576
5.450000	86.349	107.5173
5.520000	86.476	106.3864
5.600000	86.617	105.1011
5.700000	86.784	103.5092
5.800000	86.943	101.9417
5.900000	87.094	100.4057
6.000000	87.235	98.8953
6.080000	87.343	97.7075
6.150000	87.433	96.6859
6.220000	87.521	95.6834
6.300000	87.618	94.5609
6.400000	87.732	93.1899
6.500000	87.840	91.8547
6.600000	87.945	90.5556
6.700000	88.046	89.2956
6.800000	88.143	88.0725
6.900000	88.237	86.8801
7.000000	88.329	85.7138
7.100000	88.420	84.5800
7.200000	88.508	83.4730
7.300000	88.594	82.3838
7.400000	88.680	81.3091
7.500000	88.764	80.2546
7.620000	88.863	79.0074
7.750000	88.967	77.6684
7.880000	89.068	76.3451
8.000000	89.157	75.1374
8.120000	89.242	73.9408
8.250000	89.330	72.6559
8.380000	89.413	71.3899
8.500000	89.485	70.2419
8.620000	89.552	69.1106
8.750000	89.620	67.9118
8.850000	89.669	67.0130
9.000000	89.738	65.6989
9.120000	89.789	64.6794
9.250000	89.843	63.6099
9.380000	89.894	62.5759
9.500000	89.940	61.6471
9.620000	89.986	60.7423
9.750000	90.034	59.7904
9.880000	90.083	58.8561
10.000000	90.128	58.0065
10.150000	90.183	56.9636
10.300000	90.238	55.9284
10.440000	90.288	54.9687
10.600000	90.343	53.8804
10.750000	90.391	52.8650
10.900000	90.435	51.8575
11.060000	90.478	50.8005
11.200000	90.512	49.8885
11.380000	90.551	48.7466
11.500000	90.574	48.0067
11.720000	90.611	46.6955
11.800000	90.624	46.2353
12.060000	90.662	44.7953
12.200000	90.683	44.0507
12.410000	90.713	42.9709
12.500000	90.726	42.5166
12.650000	90.748	41.7728
12.800000	90.770	41.0420
13.150000	90.818	39.3770
13.200000	90.825	39.1448
13.400000	90.850	38.2297
13.600000	90.875	37.3414
13.800000	90.899	36.4832
14.000000	90.925	35.6487
14.300000	90.969	34.4316
14.500000	91.002	33.6239
14.750000	91.046	32.5907
15.000000	91.091	31.5190
15.250000	91.131	30.3965
15.500000	91.160	29.2476
15.750000	91.176	28.0940
16.000000	91.177	26.9800
16.250000	91.168	25.9459
16.500000	91.152	25.0070
16.750000	91.136	24.1769
17.000000	91.126	23.4292
17.250000	91.124	22.7388
17.500000	91.131	22.0718
17.750000	91.145	21.3915
18.000000	91.163	20.6900
18.250000	91.181	19.9597
18.500000	91.194	19.2147
18.750000	91.203	18.4695
19.000000	91.208	17.7373
19.250000	91.208	17.0339
19.500000	91.206	16.3610
19.750000	91.204	15.7198
20.000000	91.202	15.1039
20.299999	91.203	14.3836
20.600000	91.206	13.6673
20.900000	91.209	12.9384
21.200001	91.210	12.1865
21.400000	91.208	11.6751
21.799999	91.193	10.6522
22.000000	91.180	10.1566
22.400000	91.147	9.2323
22.700001	91.120	8.6077
23.000000	91.097	8.0276
23.299999	91.080	7.4592
23.600000	91.065	6.8787
24.000000	91.043	6.0796
24.299999	91.020	5.4925
24.700001	90.985	4.7882
25.000000	90.963	4.3379
25.400000	90.952	3.7969
25.799999	90.965	3.1971
26.200001	90.987	2.4334
26.500000	90.994	1.7642
26.900000	90.980	0.8403
27.200001	90.956	0.2088
27.600000	90.920	-0.4929
28.000000	90.896	-1.0867
28.500000	90.886	-1.8628
29.000000	90.868	-2.7554
29.500000	90.824	-3.5927
30.000000	90.776	-4.2004
30.400000	90.759	-4.5958
30.700001	90.760	-4.9398
31.100000	90.762	-5.5427
31.500000	90.741	-6.2563
32.000000	90.673	-7.0455
32.500000	90.593	-7.4889
33.000000	90.554	-7.7183
33.500000	90.561	-8.1013
34.000000	90.561	-8.7980
34.500000	90.518	-9.5740
35.000000	90.449	-10.1434
35.500000	90.398	-10.5162
36.000000	90.377	-10.9616
36.500000	90.350	-11.6053
37.000000	90.290	-12.2482
37.500000	90.218	-12.6508
38.200001	90.179	-13.0179
38.700001	90.182	-13.5577
39.500000	90.113	-14.7833
40.000000	90.027	-15.2404
40.599998	89.968	-15.4330
41.200001	89.970	-15.8519
41.799999	89.943	-16.6274
42.500000	89.844	-17.2455
43.099998	89.799	-17.3729
43.700001	89.803	-17.7661
44.400002	89.746	-18.5922
45.000000	89.636	-18.8346
45.500000	89.596	-18.6240
46.200001	89.654	-18.6808
46.799999	89.684	-19.5046
47.500000	89.593	-20.4975
48.200001	89.470	-20.8322
48.700001	89.424	-20.9111
49.400002	89.391	-21.2521
50.000000	89.352	-21.7465
50.799999	89.259	-22.4475
51.500000	89.152	-22.8288
52.200001	89.077	-22.9420
53.000000	89.051	-23.3264
53.799999	88.979	-24.0876
54.500000	88.875	-24.4532
55.200001	88.813	-24.6146
56.000000	88.759	-25.0652
57.000000	88.648	-25.4670
58.000000	88.599	-25.7526
59.000000	88.506	-26.4044
60.000000	88.390	-26.4792
60.799999	88.351	-26.6246
61.500000	88.288	-26.9122
62.200001	88.211	-26.9589
63.000000	88.177	-27.0095
64.000000	88.108	-27.6816
65.000000	87.962	-28.0157
66.000000	87.878	-28.2615
67.000000	87.755	-28.6050
68.000000	87.707	-28.5518
69.000000	87.668	-29.3418
70.000000	87.498	-29.5903
71.000000	87.446	-29.3391
72.000000	87.367	-29.6578
73.000000	87.257	-29.5078
74.000000	87.191	-29.5896
75.000000	87.060	-29.6892
76.199997	86.956	-29.5353
77.500000	86.804	-29.5730
78.800003	86.776	-29.2759
80.000000	86.633	-29.7983
81.199997	86.552	-28.9786
82.500000	86.493	-29.3708
83.800003	86.370	-28.9639
85.000000	86.308	-29.0746
86.199997	86.198	-29.0730
87.500000	86.139	-28.9937
88.500000	86.043	-29.1600
90.000000	85.991	-28.1923
91.199997	85.991	-28.3965
92.500000	85.940	-28.1442
93.800003	85.855	-28.4768
95.000000	85.728	-28.1960
96.199997	85.664	-28.0369
97.500000	85.593	-28.0601
98.800003	85.508	-28.1406
100.000000	85.426	-28.0101
101.500000	85.344	-27.7321
103.000000	85.278	-27.4560
104.400002	85.199	-27.2947
106.000000	85.096	-27.1137
107.500000	85.012	-26.8475
109.000000	84.921	-26.5983
110.599998	84.866	-26.2417
112.000000	84.810	-26.1951
113.800003	84.681	-25.8499
115.000000	84.656	-25.6351
117.199997	84.552	-25.8293
118.000000	84.476	-25.6543
120.599998	84.357	-25.0995
122.000000	84.324	-24.7673
124.099998	84.200	-24.0990
125.000000	84.171	-23.9554
126.500000	84.123	-23.7071
128.000000	84.040	-23.6268
131.500000	83.916	-23.2390
132.000000	83.883	-23.2024
134.000000	83.807	-22.6243
136.000000	83.728	-22.4342
138.000000	83.609	-21.9596
140.000000	83.549	-21.7170
143.000000	83.402	-21.1715
145.000000	83.332	-20.6596
147.500000	83.278	-20.2001
150.000000	83.172	-19.6282
152.500000	83.140	-18.7630
155.000000	83.076	-18.4248
157.500000	83.022	-18.1454
160.000000	82.981	-17.8306
162.500000	82.919	-17.7975
165.000000	82.856	-17.6024
167.500000	82.774	-17.3818
170.000000	82.700	-17.1531
172.500000	82.634	-16.9387
175.000000	82.556	-16.6740
177.500000	82.471	-16.4449
180.000000	82.400	-16.1704
182.500000	82.327	-15.8640
185.000000	82.269	-15.5815
187.500000	82.194	-15.2927
190.000000	82.112	-15.0583
192.500000	82.072	-14.7910
195.000000	82.014	-14.5840
197.500000	81.922	-14.2324
200.000000	81.876	-14.0111
203.000000	81.793	-13.8033
206.000000	81.756	-13.5732
209.000000	81.699	-13.3641
212.000000	81.639	-13.0061
214.000000	81.584	-12.8600
218.000000	81.517	-12.6329
220.000000	81.473	-12.3717
224.000000	81.408	-12.1580
227.000000	81.357	-12.0985
230.000000	81.320	-11.8854
233.000000	81.269	-11.7579
236.000000	81.141	-11.4315
240.000000	81.135	-11.4200
243.000000	81.102	-11.3193
247.000000	81.048	-11.2717
250.000000	81.009	-11.3444
254.000000	80.926	-11.0942
258.000000	80.896	-11.0888
262.000000	80.813	-10.9980
265.000000	80.792	-10.9326
269.000000	80.754	-10.8018
272.000000	80.720	-10.7025
276.000000	80.701	-10.6220
280.000000	80.641	-10.7624
285.000000	80.587	-10.7679
290.000000	80.537	-10.6685
295.000000	80.496	-10.7261
300.000000	80.451	-10.7606
304.000000	80.420	-10.7799
307.000000	80.401	-10.7704
311.000000	80.359	-10.7634
315.000000	80.339	-10.8367
320.000000	80.302	-10.9688
325.000000	80.282	-10.9625
330.000000	80.242	-11.0435
335.000000	80.203	-11.2748
340.000000	80.172	-11.5146
345.000000	80.145	-11.5142
350.000000	80.143	-11.7188
355.000000	80.091	-12.0518
360.000000	80.117	-12.0290
365.000000	80.052	-12.3289
370.000000	80.024	-12.5251
375.000000	79.981	-12.7186
382.000000	79.972	-13.2198
387.000000	79.965	-13.4619
395.000000	79.913	-13.7591
400.000000	79.904	-14.1875
406.000000	79.894	-14.5933
412.000000	79.858	-14.8812
418.000000	79.855	-15.3336
425.000000	79.798	-15.7599
431.000000	79.806	-16.0334
437.000000	79.785	-16.4960
444.000000	79.767	-17.0156
450.000000	79.754	-17.4523
455.000000	79.757	-17.7811
462.000000	79.728	-18.4360
468.000000	79.704	-18.8210
475.000000	79.678	-19.4216
482.000000	79.673	-20.0504
487.000000	79.653	-20.5333
494.000000	79.640	-20.9541
500.000000	79.616	-21.5715
508.000000	79.604	-22.2881
515.000000	79.589	-22.9298
522.000000	79.564	-23.5343
530.000000	79.547	-24.3042
538.000000	79.531	-24.9825
545.000000	79.516	-25.6972
552.000000	79.503	-26.4178
560.000000	79.489	-27.1823
570.000000	79.474	-28.1311
580.000000	79.440	-29.2738
590.000000	79.433	-30.2521
600.000000	79.410	-31.4317
608.000000	79.399	-32.2626
615.000000	79.386	-33.0238
622.000000	79.394	-33.7725
630.000000	79.373	-34.7375
640.000000	79.357	-35.8405
650.000000	79.339	-36.9047
660.000000	79.335	-38.1715
670.000000	79.322	-39.3334
680.000000	79.297	-40.5342
690.000000	79.305	-41.6971
700.000000	79.285	-42.9437
710.000000	79.284	-44.1155
720.000000	79.281	-45.3947
730.000000	79.267	-46.6172
740.000000	79.268	-47.7799
750.000000	79.271	-49.0603
762.000000	79.269	-50.3723
775.000000	79.277	-51.8734
788.000000	79.291	-53.4392
800.000000	79.310	-54.8932
812.000000	79.326	-56.3237
825.000000	79.350	-57.9319
838.000000	79.372	-59.6721
850.000000	79.408	-60.9995
862.000000	79.442	-62.5732
875.000000	79.483	-64.3208
885.000000	79.520	-65.5867
900.000000	79.578	-67.6094
912.000000	79.632	-69.2853
925.000000	79.683	-71.0114
938.000000	79.747	-72.9426
950.000000	79.815	-74.6855
962.000000	79.863	-76.4078
975.000000	79.944	-78.3693
988.000000	80.019	-80.3334
1000.000000	80.089	-82.1743
1015.000000	80.196	-84.6838
1030.000000	80.291	-87.0869
1044.000000	80.388	-89.4606
1060.000000	80.503	-92.2352
1075.000000	80.612	-94.8842
1090.000000	80.715	-97.5867
1106.000000	80.825	-100.6140
1120.000000	80.939	-103.2925
1138.000000	81.067	-106.7680
1150.000000	81.142	-109.1358
1172.000000	81.291	-113.5862
1180.000000	81.342	-115.2506
1206.000000	81.502	-120.7214
1220.000000	81.586	-123.7494
1241.000000	81.709	-128.3401
1250.000000	81.754	-130.3242
1265.000000	81.832	-133.6805
1280.000000	81.911	-137.0669
1315.000000	82.077	-145.0151
1320.000000	82.098	-146.1736
1340.000000	82.189	-150.8121
1360.000000	82.258	-155.4083
1380.000000	82.334	-159.9251
1400.000000	82.405	-164.3839
1430.000000	82.494	-170.9415
1450.000000	82.555	-175.2432
1475.000000	82.631	179.4240
1500.000000	82.694	174.2434
1525.000000	82.768	169.1147
1550.000000	82.831	164.0920
1575.000000	82.898	159.1449
1600.000000	82.962	154.3411
1625.000000	83.030	149.5844
1650.000000	83.095	144.9404
1675.000000	83.154	140.3456
1700.000000	83.226	135.8756
1725.000000	83.293	131.4348
1750.000000	83.363	127.1164
1775.000000	83.430	122.9135
1800.000000	83.493	118.7545
1825.000000	83.566	114.6344
1850.000000	83.634	110.6686
1875.000000	83.714	106.7314
1900.000000	83.775	102.9153
1925.000000	83.848	99.1713
1950.000000	83.920	95.4980
1975.000000	83.993	91.8791
2000.000000	84.062	88.4070
2030.000000	84.155	84.1550
2060.000000	84.238	80.0936
2090.000000	84.311	76.2576
2120.000000	84.386	72.4649
2140.000000	84.432	69.9642
2180.000000	84.536	65.3376
2200.000000	84.576	63.0719
2240.000000	84.689	59.1472
2270.000000	84.784	56.3788
2300.000000	84.937	53.8160
2330.000000	85.123	51.1229
2360.000000	85.342	48.4171
2400.000000	85.639	44.3543
2430.000000	85.833	41.2065
2470.000000	86.056	37.0120
2500.000000	86.210	34.0016
2540.000000	86.405	30.0679
2580.000000	86.577	26.2322
2620.000000	86.715	22.5749
2650.000000	86.809	19.9360
2690.000000	86.921	16.7192
2720.000000	87.006	14.4094
2760.000000	87.112	11.5640
2800.000000	87.234	8.8194
2850.000000	87.367	5.3868
2900.000000	87.491	1.7027
2950.000000	87.594	-2.0424
3000.000000	87.672	-5.7281
3040.000000	87.715	-8.7498
3070.000000	87.741	-10.9831
3110.000000	87.761	-13.9219
3150.000000	87.756	-16.8073
3200.000000	87.721	-20.3077
3250.000000	87.668	-23.6846
3300.000000	87.593	-26.8953
3350.000000	87.500	-29.9627
3400.000000	87.397	-32.9158
3450.000000	87.267	-35.7149
3500.000000	87.127	-38.3425
3550.000000	86.980	-40.8469
3600.000000	86.815	-43.1072
3650.000000	86.654	-45.2267
3700.000000	86.495	-47.1802
3750.000000	86.330	-48.9974
3820.000000	86.092	-51.3792
3870.000000	85.915	-52.9308
3950.000000	85.626	-55.0731
4000.000000	85.449	-56.1682
4060.000000	85.225	-57.4044
4120.000000	85.014	-58.3853
4180.000000	84.797	-59.2149
4250.000000	84.554	-59.9284
4310.000000	84.347	-60.3140
4370.000000	84.152	-60.5903
4440.000000	83.934	-60.7032
4500.000000	83.756	-60.6121
4550.000000	83.609	-60.4131
4620.000000	83.434	-59.9942
4680.000000	83.294	-59.4915
4750.000000	83.140	-58.7376
4820.000000	83.014	-57.9042
4870.000000	82.933	-57.2781
4940.000000	82.829	-56.2926
5000.000000	82.749	-55.4188
5080.000000	82.649	-54.0075
5150.000000	82.585	-52.7134
5220.000000	82.522	-51.2833
5300.000000	82.481	-49.5228
5380.000000	82.470	-47.7567
5450.000000	82.474	-46.0975
5520.000000	82.500	-44.4823
5600.000000	82.558	-42.5978
5700.000000	82.649	-40.3157
5800.000000	82.779	-38.4531
5900.000000	82.936	-37.1989
6000.000000	83.080	-36.2352
6080.000000	83.205	-35.7128
6150.000000	83.282	-35.5463
6220.000000	83.314	-35.4736
6300.000000	83.291	-35.3969
6400.000000	83.165	-35.2487
6500.000000	82.935	-34.5643
6600.000000	82.638	-33.0466
6700.000000	82.325	-30.6080
6800.000000	82.059	-27.3296
6900.000000	81.873	-23.3782
7000.000000	81.800	-18.9742
7100.000000	81.855	-14.2376
7200.000000	82.049	-9.7153
7300.000000	82.339	-5.3866
7400.000000	82.754	-1.8438
7500.000000	83.238	0.8983
7620.000000	83.860	2.7485
7750.000000	84.478	2.6526
7880.000000	84.843	0.4427
8000.000000	84.787	-2.7449
8120.000000	84.337	-5.4816
8250.000000	83.471	-6.7526
8380.000000	82.419	-5.7159
8500.000000	81.406	-2.8216
8620.000000	80.416	1.6672
8750.000000	79.412	7.8676
8850.000000	78.750	13.5601
9000.000000	77.863	22.8193
9120.000000	77.299	30.2004
9250.000000	76.718	38.5129
9380.000000	76.183	46.9719
9500.000000	75.715	55.1360
9620.000000	75.277	63.3196
9750.000000	74.838	72.4556
9880.000000	74.391	81.8450
10000.000000	74.030	90.8146
10150.000000	73.599	102.1031
10300.000000	73.229	113.9651
10440.000000	72.813	125.0140
10600.000000	72.409	138.2729
10750.000000	72.047	150.9379
10900.000000	71.664	164.2628
11060.000000	71.251	179.5618
11200.000000	70.951	-166.0372
11380.000000	70.752	-144.8234
11500.000000	70.950	-129.8311
11720.000000	72.206	-103.6691
11800.000000	72.814	-95.9152
12060.000000	74.716	-75.2603
12200.000000	75.515	-65.9680
12410.000000	76.467	-52.3785
12500.000000	76.833	-46.6702
12650.000000	77.370	-38.1355
12800.000000	77.884	-30.3309
13150.000000	78.887	-12.9143
13200.000000	79.018	-10.6295
13400.000000	79.424	-1.0834
13600.000000	79.733	8.0625
13800.000000	79.917	17.2032
14000.000000	80.021	26.2074
14300.000000	79.907	39.9876
14500.000000	79.743	49.3199
14750.000000	79.362	60.7672
15000.000000	78.722	72.3567
15250.000000	77.804	84.8588
15500.000000	76.629	98.8594
15750.000000	75.281	114.9101
16000.000000	73.957	132.7613
16250.000000	72.552	152.4785
16500.000000	71.184	173.4998
16750.000000	69.859	-163.7325
17000.000000	68.642	-140.3080
17250.000000	67.664	-114.9741
17500.000000	66.632	-89.5225
17750.000000	65.708	-62.9891
18000.000000	65.026	-35.6976
18250.000000	64.252	-7.9239
18500.000000	63.661	20.0970
18750.000000	63.279	48.4351
19000.000000	62.753	75.6438
19250.000000	62.552	104.0088
19500.000000	62.349	132.3533
19750.000000	62.225	159.7400
