* Measurement data measured by REW V5.30.9
* Source: Headset (Odo By VECLAN.COM), MICROPHONE (Master Volume), L, volume: 0.500
* Format: 512k Log Swept Sine, 1 sweep at -12.0 dBFS with no timing reference
* Dated: 08 20, 24 12:11:05 PM
* REW Settings:
*  C-weighting compensation: Off
*  Target level: 75.0 dB
* Note: ; 
* Measurement: ew300 moa L
* Smoothing: None
* Frequency Step: 1/48 octave
* Start Frequency: 1.000 Hz
*
* Freq(Hz)	SPL(dB)	Phase(degrees)
1.000000	64.057	-44.6697
1.015000	64.584	-45.4850
1.030000	65.095	-46.3133
1.044000	65.556	-47.1153
1.060000	66.062	-48.0865
1.075000	66.512	-49.0699
1.090000	66.936	-50.1436
1.106000	67.361	-51.3877
1.120000	67.720	-52.4449
1.138000	68.169	-53.7296
1.150000	68.461	-54.5422
1.172000	68.979	-55.9468
1.180000	69.162	-56.4319
1.206000	69.740	-57.9221
1.220000	70.039	-58.6742
1.241000	70.473	-59.7433
1.250000	70.653	-60.1819
1.265000	70.947	-60.8891
1.280000	71.232	-61.5696
1.315000	71.864	-63.0723
1.320000	71.951	-63.2790
1.340000	72.287	-64.0907
1.360000	72.610	-64.8842
1.380000	72.918	-65.6673
1.400000	73.212	-66.4478
1.430000	73.628	-67.6305
1.450000	73.889	-68.4385
1.475000	74.195	-69.4765
1.500000	74.464	-70.4896
1.525000	74.697	-71.4656
1.550000	74.896	-72.4073
1.575000	75.067	-73.3179
1.600000	75.214	-74.2003
1.625000	75.340	-75.0575
1.650000	75.450	-75.8924
1.675000	75.547	-76.7081
1.700000	75.637	-77.5075
1.725000	75.722	-78.2936
1.750000	75.808	-79.0694
1.775000	75.898	-79.8378
1.800000	75.995	-80.6019
1.825000	76.106	-81.3647
1.850000	76.226	-82.1234
1.875000	76.344	-82.8663
1.900000	76.459	-83.5939
1.925000	76.571	-84.3072
1.950000	76.680	-85.0072
1.975000	76.786	-85.6948
2.000000	76.890	-86.3711
2.030000	77.012	-87.1690
2.060000	77.131	-87.9537
2.090000	77.248	-88.7269
2.120000	77.362	-89.4903
2.140000	77.438	-89.9946
2.180000	77.586	-90.9944
2.200000	77.659	-91.4909
2.240000	77.802	-92.4686
2.270000	77.906	-93.1865
2.300000	78.007	-93.8923
2.330000	78.106	-94.5867
2.360000	78.202	-95.2709
2.400000	78.327	-96.1687
2.430000	78.419	-96.8323
2.470000	78.538	-97.7060
2.500000	78.626	-98.3541
2.540000	78.740	-99.2104
2.580000	78.852	-100.0591
2.620000	78.961	-100.8961
2.650000	79.041	-101.5156
2.690000	79.144	-102.3306
2.720000	79.219	-102.9338
2.760000	79.317	-103.7275
2.800000	79.412	-104.5092
2.850000	79.527	-105.4700
2.900000	79.638	-106.4129
2.950000	79.745	-107.3383
3.000000	79.847	-108.2455
3.040000	79.925	-108.9581
3.070000	79.981	-109.4849
3.110000	80.055	-110.1772
3.150000	80.125	-110.8578
3.200000	80.211	-111.6923
3.250000	80.294	-112.5087
3.300000	80.374	-113.3071
3.350000	80.451	-114.0867
3.400000	80.525	-114.8475
3.450000	80.595	-115.5900
3.500000	80.663	-116.3148
3.550000	80.728	-117.0225
3.600000	80.791	-117.7136
3.650000	80.853	-118.3887
3.700000	80.912	-119.0475
3.750000	80.969	-119.6884
3.820000	81.046	-120.5568
3.870000	81.098	-121.1578
3.950000	81.179	-122.0878
4.000000	81.228	-122.6507
4.060000	81.286	-123.3078
4.120000	81.343	-123.9408
4.180000	81.397	-124.5514
4.250000	81.459	-125.2387
4.310000	81.511	-125.8095
4.370000	81.562	-126.3660
4.440000	81.622	-126.9973
4.500000	81.673	-127.5173
4.550000	81.715	-127.9377
4.620000	81.772	-128.5102
4.680000	81.822	-128.9896
4.750000	81.880	-129.5404
4.820000	81.939	-130.0805
4.870000	81.981	-130.4559
4.940000	82.040	-130.9702
5.000000	82.091	-131.4040
5.080000	82.159	-131.9778
5.150000	82.219	-132.4799
5.220000	82.279	-132.9758
5.300000	82.348	-133.5356
5.380000	82.417	-134.0937
5.450000	82.477	-134.5852
5.520000	82.535	-135.0832
5.600000	82.602	-135.6560
5.700000	82.685	-136.3767
5.800000	82.765	-137.1046
5.900000	82.842	-137.8419
6.000000	82.916	-138.5908
6.080000	82.972	-139.1950
6.150000	83.020	-139.7249
6.220000	83.065	-140.2539
6.300000	83.113	-140.8596
6.400000	83.169	-141.6211
6.500000	83.220	-142.3781
6.600000	83.266	-143.1206
6.700000	83.306	-143.8525
6.800000	83.342	-144.5743
6.900000	83.373	-145.2764
7.000000	83.400	-145.9509
7.100000	83.423	-146.6042
7.200000	83.441	-147.2331
7.300000	83.458	-147.8312
7.400000	83.472	-148.3947
7.500000	83.482	-148.9268
7.620000	83.493	-149.5251
7.750000	83.506	-150.1233
7.880000	83.518	-150.6666
8.000000	83.529	-151.1280
8.120000	83.543	-151.5570
8.250000	83.560	-151.9774
8.380000	83.580	-152.3712
8.500000	83.603	-152.7245
8.620000	83.629	-153.0595
8.750000	83.661	-153.4173
8.850000	83.687	-153.6978
9.000000	83.728	-154.1182
9.120000	83.762	-154.4610
9.250000	83.800	-154.8450
9.380000	83.839	-155.2391
9.500000	83.874	-155.6109
9.620000	83.908	-155.9906
9.750000	83.945	-156.4110
9.880000	83.974	-156.8377
10.000000	83.991	-157.2403
10.150000	84.002	-157.7506
10.300000	84.007	-158.2434
10.440000	84.005	-158.6878
10.600000	83.998	-159.1746
10.750000	83.989	-159.5967
10.900000	83.978	-159.9984
11.060000	83.966	-160.4495
11.200000	83.958	-160.8657
11.380000	83.943	-161.3846
11.500000	83.931	-161.7116
11.720000	83.902	-162.2806
11.800000	83.890	-162.4763
12.060000	83.846	-163.0748
12.200000	83.820	-163.3822
12.410000	83.783	-163.8122
12.500000	83.772	-163.9700
12.650000	83.760	-164.1944
12.800000	83.754	-164.3995
13.150000	83.761	-164.8590
13.200000	83.764	-164.9329
13.400000	83.784	-165.2500
13.600000	83.807	-165.6225
13.800000	83.831	-166.0569
14.000000	83.849	-166.5782
14.300000	83.860	-167.5031
14.500000	83.847	-168.1449
14.750000	83.813	-168.8813
15.000000	83.760	-169.5054
15.250000	83.706	-170.0073
15.500000	83.662	-170.3781
15.750000	83.636	-170.6495
16.000000	83.635	-170.9367
16.250000	83.653	-171.3466
16.500000	83.677	-171.8989
16.750000	83.688	-172.5833
17.000000	83.677	-173.3160
17.250000	83.642	-174.0188
17.500000	83.587	-174.5838
17.750000	83.531	-174.9266
18.000000	83.488	-175.0928
18.250000	83.474	-175.1405
18.500000	83.493	-175.2112
18.750000	83.534	-175.3824
19.000000	83.585	-175.7246
19.250000	83.623	-176.2387
19.500000	83.640	-176.8103
19.750000	83.629	-177.3513
20.000000	83.601	-177.7256
20.299999	83.570	-177.9321
20.600000	83.567	-177.9313
20.900000	83.608	-177.8903
21.200001	83.685	-178.0665
21.400000	83.737	-178.3696
21.799999	83.802	-179.3057
22.000000	83.802	-179.8315
22.400000	83.736	179.3168
22.700001	83.660	179.0770
23.000000	83.610	179.1917
23.299999	83.615	179.4024
23.600000	83.669	179.4406
24.000000	83.768	178.9131
24.299999	83.805	178.0993
24.700001	83.755	176.8483
25.000000	83.650	176.1657
25.400000	83.480	175.9307
25.799999	83.376	176.3760
26.200001	83.391	176.8856
26.500000	83.457	176.9296
26.900000	83.548	176.4024
27.200001	83.577	175.7133
27.600000	83.546	174.7611
28.000000	83.464	174.1242
28.500000	83.371	173.8610
29.000000	83.342	173.8148
29.500000	83.357	173.5875
30.000000	83.372	173.1226
30.400000	83.369	172.6453
30.700001	83.355	172.2653
31.100000	83.318	171.7740
31.500000	83.259	171.3751
32.000000	83.176	171.1464
32.500000	83.123	171.1768
33.000000	83.119	171.1758
33.500000	83.135	170.8837
34.000000	83.128	170.3763
34.500000	83.096	169.9030
35.000000	83.067	169.5485
35.500000	83.057	169.1273
36.000000	83.036	168.5297
36.500000	82.977	167.9316
37.000000	82.894	167.6356
37.500000	82.838	167.6772
38.200001	82.846	167.7980
38.700001	82.884	167.6305
39.500000	82.927	166.9971
40.000000	82.931	166.4413
40.599998	82.887	165.6697
41.200001	82.773	165.1547
41.799999	82.654	165.2598
42.500000	82.634	165.7018
43.099998	82.688	165.4811
43.700001	82.687	164.7271
44.400002	82.599	163.9897
45.000000	82.528	163.6624
45.500000	82.481	163.3508
46.200001	82.393	162.9681
46.799999	82.333	163.0032
47.500000	82.356	162.9578
48.200001	82.370	162.2499
48.700001	82.315	161.7791
49.400002	82.246	161.7806
50.000000	82.285	161.7419
50.799999	82.314	160.6487
51.500000	82.173	159.7949
52.200001	82.032	159.9932
53.000000	82.038	160.2414
53.799999	82.016	159.5068
54.500000	81.870	159.2283
55.200001	81.788	159.9532
56.000000	81.913	160.3333
57.000000	81.951	158.7281
58.000000	81.703	158.3275
59.000000	81.661	159.1052
60.000000	81.676	158.9267
60.799999	81.671	158.7552
61.500000	81.678	158.3569
62.200001	81.638	157.7946
63.000000	81.572	157.5010
64.000000	81.551	157.0269
65.000000	81.459	156.4099
66.000000	81.392	156.4793
67.000000	81.381	156.3878
68.000000	81.390	156.4599
69.000000	81.442	155.7462
70.000000	81.295	154.9123
71.000000	81.173	155.2279
72.000000	81.140	155.0687
73.000000	81.050	154.8469
74.000000	80.997	154.7934
75.000000	80.962	154.5052
76.199997	80.908	154.1342
77.500000	80.844	153.8081
78.800003	80.780	153.5748
80.000000	80.707	153.3632
81.199997	80.637	153.3028
82.500000	80.568	153.1409
83.800003	80.519	152.9786
85.000000	80.457	152.5777
86.199997	80.374	152.4213
87.500000	80.314	152.2882
88.500000	80.260	152.1688
90.000000	80.188	152.0090
91.199997	80.134	151.8723
92.500000	80.080	151.6302
93.800003	80.018	151.4593
95.000000	79.961	151.2984
96.199997	79.898	151.1987
97.500000	79.821	151.1658
98.800003	79.769	151.1504
100.000000	79.707	150.9413
101.500000	79.622	150.8083
103.000000	79.568	150.7062
104.400002	79.498	150.5009
106.000000	79.440	150.5023
107.500000	79.371	150.4103
109.000000	79.308	150.3244
110.599998	79.242	150.2521
112.000000	79.179	150.1630
113.800003	79.107	150.0405
115.000000	79.072	150.0555
117.199997	78.974	149.8835
118.000000	78.928	149.8914
120.599998	78.867	149.5663
122.000000	78.755	149.7190
124.099998	78.670	149.7621
125.000000	78.635	149.7064
126.500000	78.577	149.7708
128.000000	78.522	149.5550
131.500000	78.426	149.6113
132.000000	78.411	149.3438
134.000000	78.270	149.8476
136.000000	78.198	150.0308
138.000000	78.138	149.5185
140.000000	78.088	149.9384
143.000000	78.021	150.3889
145.000000	77.982	150.3395
147.500000	77.929	150.6366
150.000000	77.874	150.3526
152.500000	77.787	150.4841
155.000000	77.740	150.3276
157.500000	77.668	150.4841
160.000000	77.614	150.4755
162.500000	77.534	150.1804
165.000000	77.428	150.5288
167.500000	77.356	150.3868
170.000000	77.255	150.6374
172.500000	77.186	150.6108
175.000000	77.107	150.6893
177.500000	77.019	150.7962
180.000000	76.943	150.8401
182.500000	76.863	150.9610
185.000000	76.785	151.0937
187.500000	76.717	151.2281
190.000000	76.642	151.3500
192.500000	76.548	151.4125
195.000000	76.502	151.5526
197.500000	76.424	151.7169
200.000000	76.352	151.8770
203.000000	76.272	152.0986
206.000000	76.220	152.5143
209.000000	76.158	152.5952
212.000000	76.096	152.6801
214.000000	76.038	152.8229
218.000000	75.971	153.0903
220.000000	75.923	153.3968
224.000000	75.848	153.5276
227.000000	75.773	153.6813
230.000000	75.713	153.9128
233.000000	75.677	153.9998
236.000000	75.623	154.2868
240.000000	75.561	154.3876
243.000000	75.519	154.7554
247.000000	75.444	155.1221
250.000000	75.391	155.2365
254.000000	75.319	155.5803
258.000000	75.265	155.9152
262.000000	75.203	156.1727
265.000000	75.156	156.4906
269.000000	75.088	156.6135
272.000000	75.042	156.9280
276.000000	74.966	157.0686
280.000000	74.936	157.4970
285.000000	74.847	157.9416
290.000000	74.778	158.3736
295.000000	74.716	158.7195
300.000000	74.649	159.1102
304.000000	74.612	159.4794
307.000000	74.561	159.6512
311.000000	74.521	160.0387
315.000000	74.474	160.2511
320.000000	74.406	160.6418
325.000000	74.359	161.0940
330.000000	74.299	161.4744
335.000000	74.234	161.8221
340.000000	74.185	162.1807
345.000000	74.106	162.7024
350.000000	74.109	162.8989
355.000000	74.065	163.3951
360.000000	74.004	163.7988
365.000000	73.975	164.2788
370.000000	73.931	164.5999
375.000000	73.896	164.9283
382.000000	73.832	165.5620
387.000000	73.781	165.7963
395.000000	73.729	166.5579
400.000000	73.684	166.9220
406.000000	73.660	167.2914
412.000000	73.602	167.8344
418.000000	73.575	168.2701
425.000000	73.547	168.7578
431.000000	73.498	169.2064
437.000000	73.490	169.6851
444.000000	73.437	170.1893
450.000000	73.407	170.6797
455.000000	73.390	170.9603
462.000000	73.365	171.4689
468.000000	73.321	171.9522
475.000000	73.290	172.4222
482.000000	73.273	172.9064
487.000000	73.254	173.2774
494.000000	73.221	173.8164
500.000000	73.193	174.2630
508.000000	73.166	174.7892
515.000000	73.144	175.2592
522.000000	73.116	175.8328
530.000000	73.096	176.3921
538.000000	73.072	176.9334
545.000000	73.057	177.3909
552.000000	73.043	178.0107
560.000000	73.021	178.4963
570.000000	72.990	179.1763
580.000000	72.978	179.8806
590.000000	72.952	-179.4252
600.000000	72.941	-178.7800
608.000000	72.927	-178.2177
615.000000	72.913	-177.7105
622.000000	72.906	-177.2135
630.000000	72.898	-176.7323
640.000000	72.879	-175.9767
650.000000	72.886	-175.1961
660.000000	72.869	-174.5482
670.000000	72.871	-173.8692
680.000000	72.860	-173.3169
690.000000	72.865	-172.5182
700.000000	72.858	-171.8215
710.000000	72.877	-171.0748
720.000000	72.882	-170.4252
730.000000	72.878	-169.7016
740.000000	72.903	-168.9990
750.000000	72.912	-168.4508
762.000000	72.941	-167.3867
775.000000	72.957	-166.5418
788.000000	72.977	-165.6767
800.000000	73.014	-164.7829
812.000000	73.043	-163.9161
825.000000	73.076	-163.0965
838.000000	73.129	-162.2584
850.000000	73.170	-161.3395
862.000000	73.215	-160.5854
875.000000	73.267	-159.7582
885.000000	73.305	-159.0475
900.000000	73.372	-158.0657
912.000000	73.425	-157.3952
925.000000	73.493	-156.5015
938.000000	73.567	-155.7275
950.000000	73.637	-155.0621
962.000000	73.712	-154.2867
975.000000	73.799	-153.6343
988.000000	73.899	-152.9749
1000.000000	73.985	-152.3620
1015.000000	74.095	-151.6168
1030.000000	74.209	-150.9542
1044.000000	74.321	-150.3072
1060.000000	74.441	-149.6183
1075.000000	74.561	-149.1115
1090.000000	74.692	-148.6111
1106.000000	74.816	-148.0069
1120.000000	74.932	-147.6006
1138.000000	75.082	-147.1536
1150.000000	75.179	-146.7850
1172.000000	75.346	-146.2943
1180.000000	75.405	-146.1489
1206.000000	75.614	-145.7293
1220.000000	75.718	-145.4373
1241.000000	75.871	-145.1673
1250.000000	75.936	-145.0625
1265.000000	76.045	-144.8688
1280.000000	76.164	-144.6753
1315.000000	76.405	-144.3705
1320.000000	76.440	-144.3490
1340.000000	76.571	-144.1501
1360.000000	76.700	-144.0477
1380.000000	76.834	-143.9358
1400.000000	76.955	-143.8279
1430.000000	77.142	-143.6344
1450.000000	77.259	-143.5475
1475.000000	77.414	-143.4287
1500.000000	77.552	-143.3238
1525.000000	77.692	-143.2280
1550.000000	77.844	-143.1486
1575.000000	77.983	-143.0907
1600.000000	78.126	-143.0080
1625.000000	78.262	-142.9614
1650.000000	78.408	-142.9426
1675.000000	78.549	-142.9055
1700.000000	78.684	-142.8936
1725.000000	78.827	-142.9266
1750.000000	78.974	-142.9672
1775.000000	79.122	-143.0058
1800.000000	79.259	-143.0917
1825.000000	79.409	-143.1756
1850.000000	79.551	-143.3550
1875.000000	79.696	-143.4982
1900.000000	79.830	-143.6575
1925.000000	79.979	-143.8879
1950.000000	80.116	-144.1647
1975.000000	80.256	-144.4357
2000.000000	80.386	-144.7537
2030.000000	80.552	-145.1929
2060.000000	80.714	-145.6458
2090.000000	80.872	-146.1602
2120.000000	81.023	-146.7389
2140.000000	81.126	-147.1169
2180.000000	81.309	-147.9172
2200.000000	81.396	-148.3583
2240.000000	81.554	-149.1272
2270.000000	81.679	-149.6520
2300.000000	81.804	-150.1329
2330.000000	81.950	-150.6173
2360.000000	82.117	-151.2081
2400.000000	82.345	-152.4077
2430.000000	82.476	-153.5281
2470.000000	82.616	-155.1521
2500.000000	82.688	-156.3293
2540.000000	82.777	-157.8229
2580.000000	82.821	-159.2155
2620.000000	82.858	-160.4725
2650.000000	82.866	-161.3492
2690.000000	82.881	-162.3397
2720.000000	82.899	-162.9037
2760.000000	82.951	-163.6158
2800.000000	83.036	-164.4653
2850.000000	83.138	-165.9321
2900.000000	83.188	-167.5851
2950.000000	83.183	-169.2616
3000.000000	83.166	-170.8109
3040.000000	83.109	-171.8770
3070.000000	83.074	-172.6399
3110.000000	83.011	-173.5747
3150.000000	82.950	-174.3888
3200.000000	82.836	-175.3292
3250.000000	82.742	-176.1597
3300.000000	82.633	-176.8483
3350.000000	82.528	-177.4327
3400.000000	82.436	-177.9995
3450.000000	82.336	-178.4371
3500.000000	82.239	-178.8357
3550.000000	82.154	-179.1583
3600.000000	82.073	-179.4484
3650.000000	82.003	-179.7036
3700.000000	81.933	-179.8950
3750.000000	81.877	179.9206
3820.000000	81.817	179.6377
3870.000000	81.774	179.3957
3950.000000	81.723	179.0158
4000.000000	81.686	178.7535
4060.000000	81.674	178.3719
4120.000000	81.655	177.9716
4180.000000	81.630	177.5028
4250.000000	81.609	176.9543
4310.000000	81.584	176.4744
4370.000000	81.559	175.9214
4440.000000	81.514	175.2584
4500.000000	81.480	174.6855
4550.000000	81.445	174.2099
4620.000000	81.385	173.4979
4680.000000	81.340	172.8556
4750.000000	81.265	172.1217
4820.000000	81.172	171.3671
4870.000000	81.100	170.8622
4940.000000	81.001	170.1451
5000.000000	80.904	169.5621
5080.000000	80.712	168.7832
5150.000000	80.527	168.1816
5220.000000	80.343	167.6867
5300.000000	80.107	167.1884
5380.000000	79.876	166.8202
5450.000000	79.659	166.6163
5520.000000	79.443	166.5294
5600.000000	79.199	166.6051
5700.000000	78.897	166.9025
5800.000000	78.615	167.4049
5900.000000	78.338	168.1306
6000.000000	78.102	169.0974
6080.000000	77.928	169.9701
6150.000000	77.793	170.7940
6220.000000	77.676	171.7370
6300.000000	77.560	172.8172
6400.000000	77.496	174.2657
6500.000000	77.486	175.8326
6600.000000	77.507	177.3412
6700.000000	77.573	178.9249
6800.000000	77.688	-179.5248
6900.000000	77.846	-178.0926
7000.000000	78.059	-176.6857
7100.000000	78.319	-175.4836
7200.000000	78.642	-174.3553
7300.000000	79.030	-173.5934
7400.000000	79.486	-173.1355
7500.000000	80.015	-173.4039
7620.000000	80.715	-174.4702
7750.000000	81.545	-177.4864
7880.000000	82.345	177.4531
8000.000000	82.933	170.4510
8120.000000	83.112	161.5727
8250.000000	82.774	151.4344
8380.000000	81.901	142.3073
8500.000000	80.842	136.0733
8620.000000	79.614	131.6576
8750.000000	78.297	129.0881
8850.000000	77.268	128.1949
9000.000000	75.868	128.3495
9120.000000	74.803	129.2462
9250.000000	73.712	130.9911
9380.000000	72.665	133.6149
9500.000000	71.787	136.6223
9620.000000	71.011	140.1153
9750.000000	70.239	143.8298
9880.000000	69.553	148.0879
10000.000000	68.979	152.1112
10150.000000	68.409	157.2150
10300.000000	67.929	162.6341
10440.000000	67.557	167.2059
10600.000000	67.170	172.9384
10750.000000	66.867	178.4286
10900.000000	66.608	-175.8876
11060.000000	66.411	-169.5643
11200.000000	66.346	-163.2788
11380.000000	66.527	-154.8613
11500.000000	66.891	-149.5601
11720.000000	67.931	-142.2225
11800.000000	68.354	-140.3779
12060.000000	69.688	-137.5418
12200.000000	70.338	-137.1166
12410.000000	71.294	-137.5134
12500.000000	71.672	-138.2147
12650.000000	72.289	-139.7893
12800.000000	72.851	-142.3379
13150.000000	73.769	-150.8164
13200.000000	73.839	-152.1497
13400.000000	73.970	-158.0297
13600.000000	73.854	-163.3074
13800.000000	73.509	-167.7996
14000.000000	73.103	-170.7620
14300.000000	72.445	-173.2656
14500.000000	72.101	-173.4268
14750.000000	71.874	-172.9209
15000.000000	71.891	-172.6360
15250.000000	72.153	-173.5036
15500.000000	72.537	-177.2808
15750.000000	72.698	175.2465
16000.000000	72.171	164.7621
16250.000000	71.010	154.2869
16500.000000	69.136	147.3435
16750.000000	66.811	144.5179
17000.000000	64.498	146.0687
17250.000000	62.200	150.6373
17500.000000	60.113	157.5122
17750.000000	58.123	166.7977
18000.000000	56.425	177.7889
18250.000000	54.984	-171.9248
18500.000000	53.728	-159.0840
18750.000000	52.692	-147.7897
19000.000000	51.930	-137.1384
19250.000000	51.414	-123.6045
19500.000000	51.485	-113.4043
19750.000000	52.582	-109.0244
