* Measurement data measured by REW V5.30.9
* Source: Headset (Odo By VECLAN.COM), MICROPHONE (Master Volume), L, volume: 0.500
* Format: 512k Log Swept Sine, 1 sweep at -12.0 dBFS with no timing reference
* Dated: 08 20, 24 12:02:37 PM
* REW Settings:
*  C-weighting compensation: Off
*  Target level: 75.0 dB
* Note: ; 
* Measurement: ew300 dsp g L
* Smoothing: None
* Frequency Step: 1/48 octave
* Start Frequency: 1.000 Hz
*
* Freq(Hz)	SPL(dB)	Phase(degrees)
1.000000	46.486	-91.2164
1.015000	46.992	-92.1797
1.030000	47.485	-93.1630
1.044000	47.932	-94.1159
1.060000	48.426	-95.2670
1.075000	48.871	-96.4263
1.090000	49.296	-97.6828
1.106000	49.727	-99.1303
1.120000	50.091	-100.3767
1.138000	50.545	-101.9207
1.150000	50.839	-102.9154
1.172000	51.361	-104.6715
1.180000	51.546	-105.2897
1.206000	52.127	-107.2301
1.220000	52.430	-108.2346
1.241000	52.870	-109.6938
1.250000	53.055	-110.3033
1.265000	53.357	-111.2997
1.280000	53.652	-112.2742
1.315000	54.320	-114.4765
1.320000	54.413	-114.7843
1.340000	54.781	-116.0022
1.360000	55.142	-117.2032
1.380000	55.498	-118.3932
1.400000	55.850	-119.5781
1.430000	56.373	-121.3588
1.450000	56.720	-122.5568
1.475000	57.153	-124.0712
1.500000	57.575	-125.5621
1.525000	57.983	-127.0201
1.550000	58.380	-128.4476
1.575000	58.765	-129.8466
1.600000	59.140	-131.2195
1.625000	59.505	-132.5683
1.650000	59.861	-133.8954
1.675000	60.210	-135.2030
1.700000	60.551	-136.4932
1.725000	60.885	-137.7683
1.750000	61.214	-139.0305
1.775000	61.539	-140.2820
1.800000	61.860	-141.5250
1.825000	62.177	-142.7617
1.850000	62.491	-143.9901
1.875000	62.797	-145.2013
1.900000	63.095	-146.3957
1.925000	63.387	-147.5741
1.950000	63.672	-148.7373
1.975000	63.952	-149.8860
2.000000	64.225	-151.0211
2.030000	64.546	-152.3664
2.060000	64.860	-153.6945
2.090000	65.168	-155.0069
2.120000	65.471	-156.3048
2.140000	65.670	-157.1628
2.180000	66.063	-158.8630
2.200000	66.256	-159.7060
2.240000	66.636	-161.3711
2.270000	66.912	-162.6001
2.300000	67.182	-163.8128
2.330000	67.445	-165.0099
2.360000	67.703	-166.1923
2.400000	68.039	-167.7469
2.430000	68.286	-168.8975
2.470000	68.607	-170.4123
2.500000	68.844	-171.5349
2.540000	69.155	-173.0151
2.580000	69.461	-174.4770
2.620000	69.758	-175.9155
2.650000	69.976	-176.9788
2.690000	70.259	-178.3766
2.720000	70.467	-179.4109
2.760000	70.738	179.2281
2.800000	71.002	177.8864
2.850000	71.326	176.2345
2.900000	71.642	174.6084
2.950000	71.952	173.0067
3.000000	72.252	171.4352
3.040000	72.486	170.1997
3.070000	72.658	169.2851
3.110000	72.883	168.0807
3.150000	73.102	166.8926
3.200000	73.371	165.4287
3.250000	73.634	163.9865
3.300000	73.893	162.5638
3.350000	74.145	161.1641
3.400000	74.390	159.7894
3.450000	74.628	158.4382
3.500000	74.861	157.1086
3.550000	75.088	155.7989
3.600000	75.311	154.5074
3.650000	75.530	153.2324
3.700000	75.744	151.9743
3.750000	75.952	150.7366
3.820000	76.236	149.0362
3.870000	76.433	147.8430
3.950000	76.739	145.9675
4.000000	76.926	144.8146
4.060000	77.146	143.4494
4.120000	77.359	142.1082
4.180000	77.566	140.7900
4.250000	77.801	139.2795
4.310000	77.998	138.0065
4.370000	78.190	136.7519
4.440000	78.408	135.3111
4.500000	78.590	134.0989
4.550000	78.738	133.1038
4.620000	78.940	131.7322
4.680000	79.109	130.5748
4.750000	79.302	129.2436
4.820000	79.490	127.9342
4.870000	79.621	127.0143
4.940000	79.800	125.7457
5.000000	79.950	124.6741
5.080000	80.145	123.2642
5.150000	80.312	122.0457
5.220000	80.475	120.8463
5.300000	80.656	119.4977
5.380000	80.831	118.1675
5.450000	80.981	117.0146
5.520000	81.128	115.8691
5.600000	81.291	114.5748
5.700000	81.488	112.9768
5.800000	81.678	111.3943
5.900000	81.860	109.8209
6.000000	82.034	108.2588
6.080000	82.168	107.0184
6.150000	82.281	105.9398
6.220000	82.389	104.8674
6.300000	82.507	103.6473
6.400000	82.647	102.1309
6.500000	82.778	100.6315
6.600000	82.900	99.1573
6.700000	83.012	97.7029
6.800000	83.114	96.2697
6.900000	83.208	94.8700
7.000000	83.295	93.5137
7.100000	83.371	92.1925
7.200000	83.441	90.9111
7.300000	83.505	89.6783
7.400000	83.564	88.5001
7.500000	83.617	87.3720
7.620000	83.676	86.0812
7.750000	83.741	84.7593
7.880000	83.802	83.5258
8.000000	83.859	82.4415
8.120000	83.921	81.3903
8.250000	83.991	80.3067
8.380000	84.065	79.2430
8.500000	84.137	78.2513
8.620000	84.214	77.2662
8.750000	84.298	76.1821
8.850000	84.362	75.3205
9.000000	84.460	73.9946
9.120000	84.535	72.9074
9.250000	84.610	71.6985
9.380000	84.680	70.4576
9.500000	84.738	69.3067
9.620000	84.788	68.1567
9.750000	84.836	66.9052
9.880000	84.870	65.6806
10.000000	84.886	64.5829
10.150000	84.889	63.2478
10.300000	84.884	61.9817
10.440000	84.871	60.8653
10.600000	84.852	59.6574
10.750000	84.839	58.5935
10.900000	84.827	57.5896
11.060000	84.819	56.5557
11.200000	84.816	55.6876
11.380000	84.816	54.5938
11.500000	84.818	53.8715
11.720000	84.825	52.5691
11.800000	84.827	52.1000
12.060000	84.834	50.6043
12.200000	84.834	49.8345
12.410000	84.836	48.7287
12.500000	84.843	48.2809
12.650000	84.860	47.5706
12.800000	84.885	46.8914
13.150000	84.968	45.4056
13.200000	84.983	45.1893
13.400000	85.052	44.3207
13.600000	85.128	43.3747
13.800000	85.209	42.3229
14.000000	85.281	41.1544
14.300000	85.361	39.2019
14.500000	85.381	37.8186
14.750000	85.363	36.1450
15.000000	85.298	34.6197
15.250000	85.195	33.4217
15.500000	85.084	32.6177
15.750000	84.986	32.2107
16.000000	84.935	32.1295
16.250000	84.947	32.1221
16.500000	85.017	32.0321
16.750000	85.130	31.6354
17.000000	85.246	30.8629
17.250000	85.344	29.7615
17.500000	85.397	28.4139
17.750000	85.395	27.0552
18.000000	85.346	25.8221
18.250000	85.260	24.8641
18.500000	85.174	24.2689
18.750000	85.109	23.9602
19.000000	85.086	23.8633
19.250000	85.115	23.7291
19.500000	85.180	23.4224
19.750000	85.267	22.8435
20.000000	85.344	21.9689
20.299999	85.398	20.6821
20.600000	85.400	19.3230
20.900000	85.355	18.1023
21.200001	85.287	17.1676
21.400000	85.246	16.7004
21.799999	85.195	15.9861
22.000000	85.188	15.6439
22.400000	85.197	14.8015
22.700001	85.197	14.0083
23.000000	85.173	13.1671
23.299999	85.125	12.4176
23.600000	85.067	11.8443
24.000000	85.003	11.3676
24.299999	84.985	11.1113
24.700001	85.000	10.6848
25.000000	85.024	10.2008
25.400000	85.042	9.3568
25.799999	85.029	8.4638
26.200001	84.997	7.6954
26.500000	84.976	7.2170
26.900000	84.964	6.6285
27.200001	84.964	6.1489
27.600000	84.965	5.4176
28.000000	84.953	4.6407
28.500000	84.922	3.7443
29.000000	84.896	2.9313
29.500000	84.873	2.0571
30.000000	84.824	1.1207
30.400000	84.758	0.4881
30.700001	84.704	0.1602
31.100000	84.648	-0.1068
31.500000	84.623	-0.3331
32.000000	84.620	-0.8181
32.500000	84.597	-1.5359
33.000000	84.540	-2.2066
33.500000	84.482	-2.6789
34.000000	84.449	-3.1223
34.500000	84.421	-3.7163
35.000000	84.372	-4.3439
35.500000	84.320	-4.7950
36.000000	84.302	-5.1664
36.500000	84.312	-5.7638
37.000000	84.294	-6.6282
37.500000	84.222	-7.4069
38.200001	84.118	-7.8511
38.700001	84.109	-8.0045
39.500000	84.132	-8.8955
40.000000	84.093	-9.6653
40.599998	83.996	-10.3202
41.200001	83.908	-10.5869
41.799999	83.863	-10.7472
42.500000	83.841	-11.1934
43.099998	83.794	-11.8248
43.700001	83.704	-12.3561
44.400002	83.604	-12.6384
45.000000	83.550	-12.8889
45.500000	83.498	-13.1917
46.200001	83.412	-13.3967
46.799999	83.395	-13.4430
47.500000	83.406	-14.0750
48.200001	83.321	-14.9379
48.700001	83.238	-15.1852
49.400002	83.187	-15.4264
50.000000	83.127	-15.9832
50.799999	82.968	-16.1059
51.500000	82.968	-15.7308
52.200001	83.007	-16.4763
53.000000	82.813	-17.2230
53.799999	82.722	-16.2025
54.500000	82.845	-16.2864
55.200001	82.800	-17.4001
56.000000	82.607	-17.3461
57.000000	82.629	-16.7836
58.000000	82.614	-17.5531
59.000000	82.510	-18.0830
60.000000	82.383	-18.4751
60.799999	82.293	-18.5396
61.500000	82.239	-18.6378
62.200001	82.187	-18.7880
63.000000	82.136	-19.0066
64.000000	82.061	-19.4417
65.000000	81.945	-19.8284
66.000000	81.820	-19.9483
67.000000	81.705	-20.0741
68.000000	81.574	-19.9514
69.000000	81.517	-19.9885
70.000000	81.369	-20.3061
71.000000	81.273	-19.9930
72.000000	81.145	-20.2517
73.000000	81.052	-19.4072
74.000000	81.060	-20.1210
75.000000	80.767	-19.6749
76.199997	80.880	-19.5391
77.500000	80.378	-19.0556
78.800003	80.700	-19.0990
80.000000	80.097	-19.0818
81.199997	80.524	-18.1063
82.500000	79.898	-19.7032
83.800003	80.199	-16.6010
85.000000	79.991	-19.0272
86.199997	79.614	-16.1597
87.500000	79.925	-14.9875
88.500000	79.720	-16.9803
90.000000	79.210	-11.2085
91.199997	80.234	-12.0560
92.500000	79.406	-16.8660
93.800003	79.451	-9.8952
95.000000	79.980	-11.3851
96.199997	79.931	-13.7831
97.500000	79.407	-13.9153
98.800003	79.126	-11.0291
100.000000	79.551	-7.8582
101.500000	79.727	-12.9832
103.000000	79.251	-11.0729
104.400002	79.261	-11.3406
106.000000	79.202	-10.7076
107.500000	78.859	-9.8013
109.000000	79.131	-8.2711
110.599998	79.117	-8.8376
112.000000	79.033	-8.7200
113.800003	78.952	-7.8864
115.000000	78.958	-7.8586
117.199997	78.535	-7.5641
118.000000	78.532	-7.2327
120.599998	78.412	-6.6769
122.000000	78.590	-5.2498
124.099998	78.398	-5.9938
125.000000	78.322	-4.2466
126.500000	78.343	-4.0659
128.000000	78.057	-3.4825
131.500000	78.047	-2.7448
132.000000	78.054	-2.9327
134.000000	77.818	-1.9018
136.000000	77.873	-0.6320
138.000000	77.521	-1.1005
140.000000	77.358	1.2439
143.000000	77.582	1.9839
145.000000	77.546	2.2391
147.500000	77.261	4.8907
150.000000	77.228	8.0057
152.500000	77.241	8.8102
155.000000	77.138	8.8390
157.500000	77.220	9.7802
160.000000	77.148	10.7169
162.500000	77.020	11.9409
165.000000	76.962	12.8931
167.500000	77.001	14.9540
170.000000	76.791	17.5201
172.500000	76.459	17.9385
175.000000	76.581	17.3781
177.500000	76.759	19.0050
180.000000	76.784	20.0787
182.500000	76.708	21.6970
185.000000	76.535	22.0557
187.500000	76.502	22.8862
190.000000	76.391	23.7981
192.500000	76.301	24.8843
195.000000	76.226	25.6833
197.500000	76.135	26.6436
200.000000	76.070	27.7125
203.000000	75.995	29.0375
206.000000	75.933	30.1885
209.000000	75.889	31.6413
212.000000	75.828	33.0305
214.000000	75.725	33.6942
218.000000	75.667	35.4727
220.000000	75.650	36.1501
224.000000	75.568	37.7578
227.000000	75.524	39.1896
230.000000	75.449	40.5480
233.000000	75.379	41.7113
236.000000	75.340	42.8881
240.000000	75.329	44.6299
243.000000	75.219	45.8916
247.000000	75.197	47.3946
250.000000	75.139	48.7127
254.000000	75.080	50.3629
258.000000	75.008	51.9093
262.000000	74.934	53.5487
265.000000	74.921	54.7939
269.000000	74.885	56.2027
272.000000	74.829	57.3394
276.000000	74.785	58.9089
280.000000	74.728	60.5863
285.000000	74.686	62.5320
290.000000	74.620	64.3360
295.000000	74.563	66.1059
300.000000	74.537	67.8464
304.000000	74.497	69.5007
307.000000	74.476	70.5539
311.000000	74.424	72.0138
315.000000	74.390	73.2185
320.000000	74.344	75.1041
325.000000	74.288	76.7769
330.000000	74.274	78.4062
335.000000	74.242	80.0400
340.000000	74.223	81.6496
345.000000	74.189	83.1660
350.000000	74.159	84.8583
355.000000	74.122	86.5473
360.000000	74.077	87.8905
365.000000	74.078	89.5983
370.000000	74.026	90.9378
375.000000	74.013	92.4058
382.000000	73.970	94.2724
387.000000	73.941	95.6589
395.000000	73.881	98.1261
400.000000	73.871	99.3367
406.000000	73.851	100.9265
412.000000	73.843	102.4347
418.000000	73.827	103.9940
425.000000	73.790	105.6612
431.000000	73.765	107.3600
437.000000	73.755	108.5687
444.000000	73.713	110.2482
450.000000	73.707	111.6215
455.000000	73.682	112.8803
462.000000	73.655	114.3573
468.000000	73.624	115.7675
475.000000	73.617	117.1063
482.000000	73.588	118.6700
487.000000	73.569	119.7061
494.000000	73.543	121.0707
500.000000	73.542	122.2690
508.000000	73.505	123.6800
515.000000	73.494	125.0121
522.000000	73.461	126.3112
530.000000	73.449	127.7918
538.000000	73.428	129.1843
545.000000	73.409	130.5371
552.000000	73.406	131.7207
560.000000	73.373	133.0692
570.000000	73.349	134.8152
580.000000	73.321	136.5035
590.000000	73.320	138.2898
600.000000	73.283	140.0290
608.000000	73.289	141.1586
615.000000	73.281	142.4062
622.000000	73.260	143.5368
630.000000	73.245	144.7772
640.000000	73.234	146.5337
650.000000	73.212	147.8926
660.000000	73.198	149.5060
670.000000	73.191	151.0778
680.000000	73.191	152.5305
690.000000	73.142	154.3338
700.000000	73.165	155.6913
710.000000	73.153	157.2411
720.000000	73.162	158.6484
730.000000	73.144	160.2755
740.000000	73.159	161.5214
750.000000	73.120	162.9669
762.000000	73.171	164.6607
775.000000	73.171	166.6544
788.000000	73.171	168.3762
800.000000	73.198	170.0992
812.000000	73.208	171.6259
825.000000	73.254	173.4290
838.000000	73.232	175.1249
850.000000	73.293	176.6794
862.000000	73.282	178.1188
875.000000	73.352	179.7980
885.000000	73.347	-178.9527
900.000000	73.413	-177.1497
912.000000	73.460	-175.8944
925.000000	73.519	-174.4092
938.000000	73.524	-173.1322
950.000000	73.621	-171.6979
962.000000	73.678	-170.3667
975.000000	73.733	-168.8232
988.000000	73.782	-167.5201
1000.000000	73.886	-166.2589
1015.000000	73.957	-164.9851
1030.000000	74.043	-163.6089
1044.000000	74.090	-162.5110
1060.000000	74.226	-161.0651
1075.000000	74.309	-159.7406
1090.000000	74.410	-158.6233
1106.000000	74.492	-157.5791
1120.000000	74.594	-156.4206
1138.000000	74.688	-155.4371
1150.000000	74.761	-154.5733
1172.000000	74.886	-153.3638
1180.000000	74.937	-152.8564
1206.000000	75.077	-151.6861
1220.000000	75.156	-151.2329
1241.000000	75.261	-150.1215
1250.000000	75.302	-149.7967
1265.000000	75.378	-149.4326
1280.000000	75.441	-148.5947
1315.000000	75.603	-147.5096
1320.000000	75.624	-147.4246
1340.000000	75.708	-146.9733
1360.000000	75.783	-146.5629
1380.000000	75.897	-145.9318
1400.000000	75.938	-145.8486
1430.000000	76.039	-145.1044
1450.000000	76.114	-144.3402
1475.000000	76.179	-144.0938
1500.000000	76.232	-143.4807
1525.000000	76.371	-142.8876
1550.000000	76.386	-142.2724
1575.000000	76.469	-142.1056
1600.000000	76.528	-141.5481
1625.000000	76.579	-141.0203
1650.000000	76.670	-140.8382
1675.000000	76.691	-140.3179
1700.000000	76.807	-140.3042
1725.000000	76.807	-139.7654
1750.000000	76.915	-139.8196
1775.000000	76.966	-139.7567
1800.000000	77.029	-139.8931
1825.000000	77.085	-139.6861
1850.000000	77.166	-139.4114
1875.000000	77.180	-139.1968
1900.000000	77.306	-139.5143
1925.000000	77.298	-139.3340
1950.000000	77.439	-139.7381
1975.000000	77.418	-139.6924
2000.000000	77.558	-140.0480
2030.000000	77.519	-139.9768
2060.000000	77.659	-140.3007
2090.000000	77.645	-140.3449
2120.000000	77.763	-140.5639
2140.000000	77.782	-140.4975
2180.000000	77.901	-140.7742
2200.000000	77.948	-140.7844
2240.000000	78.314	-140.1668
2270.000000	78.522	-140.5203
2300.000000	78.849	-141.6820
2330.000000	79.025	-143.2260
2360.000000	79.163	-145.0886
2400.000000	79.342	-146.7022
2430.000000	79.464	-147.9531
2470.000000	79.534	-149.7331
2500.000000	79.682	-150.9548
2540.000000	79.824	-153.1492
2580.000000	80.040	-154.9662
2620.000000	80.230	-157.2373
2650.000000	80.548	-159.1066
2690.000000	80.689	-162.0895
2720.000000	80.951	-164.2484
2760.000000	81.057	-167.3339
2800.000000	81.338	-170.2523
2850.000000	81.386	-173.9397
2900.000000	81.626	-177.5291
2950.000000	81.843	178.8132
3000.000000	81.864	175.0760
3040.000000	82.096	172.5375
3070.000000	82.080	170.2982
3110.000000	82.165	167.4919
3150.000000	82.237	165.7749
3200.000000	82.336	163.7716
3250.000000	82.280	160.4232
3300.000000	82.388	157.9176
3350.000000	82.225	154.8080
3400.000000	82.304	152.6401
3450.000000	82.111	149.8891
3500.000000	82.134	147.9156
3550.000000	81.940	145.5575
3600.000000	81.923	144.0124
3650.000000	81.721	141.9582
3700.000000	81.649	140.7242
3750.000000	81.501	138.8022
3820.000000	81.181	136.8275
3870.000000	81.080	136.2706
3950.000000	80.818	135.4698
4000.000000	80.519	134.5998
4060.000000	80.379	134.9913
4120.000000	80.024	134.6111
4180.000000	79.922	135.7537
4250.000000	79.514	135.8718
4310.000000	79.400	137.6471
4370.000000	79.050	138.4770
4440.000000	78.880	141.0669
4500.000000	78.593	142.6747
4550.000000	78.536	145.3102
4620.000000	78.165	147.4955
4680.000000	78.092	151.0368
4750.000000	77.848	153.8596
4820.000000	77.524	156.9752
4870.000000	77.474	160.8969
4940.000000	77.355	166.1863
5000.000000	77.084	169.7961
5080.000000	76.823	174.5768
5150.000000	76.703	-179.3013
5220.000000	76.617	-172.9703
5300.000000	76.414	-166.9920
5380.000000	76.114	-160.8206
5450.000000	76.021	-152.7936
5520.000000	75.961	-145.5640
5600.000000	75.839	-138.1901
5700.000000	75.586	-128.4080
5800.000000	75.545	-114.9685
5900.000000	75.324	-104.5551
6000.000000	75.347	-91.2355
6080.000000	75.253	-81.4544
6150.000000	75.319	-71.4884
6220.000000	75.170	-62.8954
6300.000000	75.180	-52.6216
6400.000000	75.324	-37.9709
6500.000000	75.500	-22.2794
6600.000000	75.550	-7.8336
6700.000000	75.717	7.9224
6800.000000	76.024	23.0602
6900.000000	76.142	38.0760
7000.000000	76.405	56.8256
7100.000000	76.605	72.2873
7200.000000	77.042	90.4418
7300.000000	77.237	105.5670
7400.000000	77.702	120.5364
7500.000000	77.996	135.1752
7620.000000	78.395	155.5030
7750.000000	78.578	172.6005
7880.000000	78.631	-170.9709
8000.000000	78.673	-151.7472
8120.000000	78.437	-135.2819
8250.000000	78.094	-115.8998
8380.000000	77.410	-99.0402
8500.000000	76.779	-82.5170
8620.000000	75.983	-63.6744
8750.000000	74.926	-40.0978
8850.000000	73.766	-24.2579
9000.000000	72.386	3.0946
9120.000000	71.459	29.1674
9250.000000	70.575	58.9698
9380.000000	69.553	85.8732
9500.000000	69.049	115.6974
9620.000000	68.355	140.9299
9750.000000	67.860	169.7069
9880.000000	67.556	-159.3492
10000.000000	67.278	-129.3238
10150.000000	66.908	-96.9034
10300.000000	66.927	-59.0473
10440.000000	66.678	-29.1957
10600.000000	66.748	11.1600
10750.000000	66.556	44.0244
10900.000000	66.413	77.0939
11060.000000	66.572	117.9213
11200.000000	66.746	154.4882
11380.000000	67.048	-162.8408
11500.000000	67.209	-135.5846
11720.000000	68.439	-79.9086
11800.000000	68.951	-59.7769
12060.000000	70.108	-3.2510
12200.000000	70.778	27.1971
12410.000000	71.403	73.4597
12500.000000	71.865	93.5255
12650.000000	72.113	122.9768
12800.000000	72.463	152.9595
13150.000000	73.332	-128.3252
13200.000000	73.491	-117.6061
13400.000000	73.767	-77.5739
13600.000000	73.843	-38.7506
13800.000000	74.053	7.2501
14000.000000	74.051	49.5229
14300.000000	73.798	108.8047
14500.000000	73.684	153.7833
14750.000000	73.346	-150.7903
15000.000000	72.692	-98.4795
15250.000000	71.933	-47.5748
15500.000000	71.042	3.6470
15750.000000	69.995	60.1636
16000.000000	68.671	119.3667
16250.000000	67.314	176.1167
16500.000000	65.889	-127.1138
16750.000000	64.742	-61.5186
17000.000000	63.475	0.5701
17250.000000	62.352	71.6941
17500.000000	61.303	134.5203
17750.000000	60.602	-151.3577
18000.000000	59.754	-86.1252
18250.000000	59.396	-10.6218
18500.000000	58.930	55.7290
18750.000000	58.940	125.3757
19000.000000	58.960	-162.7104
19250.000000	59.396	-85.4478
19500.000000	59.895	-18.4788
19750.000000	61.648	46.7871
