* Measurement data measured by REW V5.30.9
* Source: Headset (Odo By VECLAN.COM), MICROPHONE (Master Volume), L, volume: 0.250
* Format: 1M Log Swept Sine, 1 sweep at -12.0 dBFS with no timing reference
* Dated: 10 13, 24 7:30:25 PM
* REW Settings:
*  C-weighting compensation: Off
*  Target level: 75.0 dB
* Note: ; 
* Measurement: explorer L
* Smoothing: None
* Frequency Step: 1/48 octave
* Start Frequency: 1.000 Hz
*
* Freq(Hz)	SPL(dB)	Phase(degrees)
1.000000	75.276	-74.5203
1.015000	75.622	-75.2806
1.030000	75.961	-76.0275
1.044000	76.272	-76.7160
1.060000	76.617	-77.4969
1.075000	76.932	-78.2271
1.090000	77.236	-78.9595
1.106000	77.549	-79.7417
1.120000	77.820	-80.3968
1.138000	78.167	-81.1921
1.150000	78.397	-81.6944
1.172000	78.814	-82.5616
1.180000	78.965	-82.8606
1.206000	79.447	-83.7774
1.220000	79.702	-84.2389
1.241000	80.078	-84.8934
1.250000	80.237	-85.1612
1.265000	80.497	-85.5922
1.280000	80.752	-86.0058
1.315000	81.326	-86.9147
1.320000	81.405	-87.0392
1.340000	81.714	-87.5270
1.360000	82.011	-88.0018
1.380000	82.295	-88.4684
1.400000	82.564	-88.9316
1.430000	82.940	-89.6307
1.450000	83.170	-90.1065
1.475000	83.432	-90.7158
1.500000	83.660	-91.3048
1.525000	83.856	-91.8660
1.550000	84.023	-92.4019
1.575000	84.165	-92.9150
1.600000	84.285	-93.4077
1.625000	84.388	-93.8825
1.650000	84.476	-94.3419
1.675000	84.555	-94.7883
1.700000	84.627	-95.2243
1.725000	84.695	-95.6522
1.750000	84.765	-96.0747
1.775000	84.839	-96.4940
1.800000	84.922	-96.9127
1.825000	85.016	-97.3334
1.850000	85.121	-97.7538
1.875000	85.224	-98.1647
1.900000	85.325	-98.5664
1.925000	85.425	-98.9595
1.950000	85.523	-99.3448
1.975000	85.620	-99.7228
2.000000	85.715	-100.0943
2.030000	85.827	-100.5325
2.060000	85.937	-100.9633
2.090000	86.046	-101.3882
2.120000	86.152	-101.8080
2.140000	86.223	-102.0858
2.180000	86.362	-102.6377
2.200000	86.431	-102.9126
2.240000	86.566	-103.4543
2.270000	86.665	-103.8522
2.300000	86.762	-104.2437
2.330000	86.857	-104.6293
2.360000	86.951	-105.0097
2.400000	87.073	-105.5096
2.430000	87.163	-105.8799
2.470000	87.282	-106.3686
2.500000	87.369	-106.7322
2.540000	87.484	-107.2141
2.580000	87.597	-107.6936
2.620000	87.707	-108.1686
2.650000	87.789	-108.5214
2.690000	87.895	-108.9870
2.720000	87.974	-109.3327
2.760000	88.077	-109.7887
2.800000	88.177	-110.2391
2.850000	88.300	-110.7941
2.900000	88.420	-111.3400
2.950000	88.536	-111.8766
3.000000	88.649	-112.4039
3.040000	88.737	-112.8192
3.070000	88.802	-113.1269
3.110000	88.886	-113.5322
3.150000	88.969	-113.9318
3.200000	89.070	-114.4238
3.250000	89.169	-114.9074
3.300000	89.267	-115.3828
3.350000	89.363	-115.8486
3.400000	89.456	-116.3044
3.450000	89.547	-116.7514
3.500000	89.637	-117.1906
3.550000	89.724	-117.6232
3.600000	89.810	-118.0504
3.650000	89.896	-118.4732
3.700000	89.980	-118.8911
3.750000	90.062	-119.3016
3.820000	90.176	-119.8656
3.870000	90.255	-120.2625
3.950000	90.379	-120.8902
4.000000	90.456	-121.2799
4.060000	90.547	-121.7456
4.120000	90.637	-122.2055
4.180000	90.725	-122.6604
4.250000	90.827	-123.1871
4.310000	90.912	-123.6372
4.370000	90.996	-124.0878
4.440000	91.092	-124.6151
4.500000	91.173	-125.0660
4.550000	91.240	-125.4412
4.620000	91.331	-125.9663
4.680000	91.408	-126.4166
4.750000	91.496	-126.9431
4.820000	91.581	-127.4717
4.870000	91.641	-127.8506
4.940000	91.723	-128.3817
5.000000	91.792	-128.8365
5.080000	91.881	-129.4404
5.150000	91.956	-129.9652
5.220000	92.029	-130.4893
5.300000	92.109	-131.0867
5.380000	92.186	-131.6793
5.450000	92.251	-132.1916
5.520000	92.314	-132.6964
5.600000	92.382	-133.2685
5.700000	92.463	-133.9737
5.800000	92.540	-134.6613
5.900000	92.614	-135.3255
6.000000	92.684	-135.9694
6.080000	92.737	-136.4700
6.150000	92.783	-136.8963
6.220000	92.828	-137.3110
6.300000	92.879	-137.7691
6.400000	92.940	-138.3192
6.500000	93.001	-138.8496
6.600000	93.062	-139.3658
6.700000	93.124	-139.8628
6.800000	93.186	-140.3425
6.900000	93.249	-140.8162
7.000000	93.314	-141.2930
7.100000	93.380	-141.7646
7.200000	93.447	-142.2361
7.300000	93.514	-142.7167
7.400000	93.581	-143.2111
7.500000	93.648	-143.7142
7.620000	93.727	-144.3319
7.750000	93.809	-145.0230
7.880000	93.887	-145.7403
8.000000	93.955	-146.4123
8.120000	94.017	-147.0839
8.250000	94.076	-147.8201
8.380000	94.129	-148.5467
8.500000	94.173	-149.1957
8.620000	94.211	-149.8323
8.750000	94.248	-150.4922
8.850000	94.273	-150.9691
9.000000	94.305	-151.6423
9.120000	94.329	-152.1433
9.250000	94.356	-152.6432
9.380000	94.384	-153.0997
9.500000	94.411	-153.4982
9.620000	94.443	-153.8774
9.750000	94.480	-154.2628
9.880000	94.516	-154.6509
10.000000	94.545	-155.0227
10.150000	94.579	-155.4954
10.300000	94.610	-155.9860
10.440000	94.637	-156.4615
10.600000	94.666	-157.0215
10.750000	94.689	-157.5560
10.900000	94.710	-158.1062
11.060000	94.729	-158.7372
11.200000	94.744	-159.3329
11.380000	94.756	-160.0907
11.500000	94.759	-160.5774
11.720000	94.756	-161.4426
11.800000	94.753	-161.7445
12.060000	94.736	-162.6911
12.200000	94.724	-163.1975
12.410000	94.707	-163.9412
12.500000	94.702	-164.2424
12.650000	94.700	-164.7205
12.800000	94.699	-165.1823
13.150000	94.695	-166.2242
13.200000	94.695	-166.3672
13.400000	94.691	-166.9287
13.600000	94.688	-167.4495
13.800000	94.684	-167.9150
14.000000	94.684	-168.3670
14.300000	94.694	-169.0316
14.500000	94.707	-169.4653
14.750000	94.729	-170.0195
15.000000	94.755	-170.6052
15.250000	94.783	-171.2931
15.500000	94.805	-172.0229
15.750000	94.819	-172.7702
16.000000	94.824	-173.5164
16.250000	94.824	-174.2425
16.500000	94.819	-174.9296
16.750000	94.811	-175.5408
17.000000	94.805	-176.1090
17.250000	94.803	-176.6480
17.500000	94.806	-177.1748
17.750000	94.811	-177.6982
18.000000	94.818	-178.2359
18.250000	94.825	-178.8102
18.500000	94.829	-179.3869
18.750000	94.829	-179.9540
19.000000	94.824	179.4997
19.250000	94.817	178.9682
19.500000	94.809	178.4623
19.750000	94.802	177.9866
20.000000	94.796	177.5200
20.299999	94.791	176.9540
20.600000	94.786	176.3803
20.900000	94.777	175.8091
21.200001	94.764	175.2357
21.400000	94.753	174.8683
21.799999	94.728	174.1911
22.000000	94.716	173.8796
22.400000	94.699	173.2761
22.700001	94.691	172.8309
23.000000	94.686	172.3637
23.299999	94.680	171.8574
23.600000	94.670	171.3387
24.000000	94.647	170.6688
24.299999	94.628	170.2030
24.700001	94.606	169.6392
25.000000	94.596	169.2335
25.400000	94.589	168.6548
25.799999	94.580	168.0196
26.200001	94.561	167.3595
26.500000	94.540	166.8926
26.900000	94.513	166.3499
27.200001	94.500	165.9719
27.600000	94.495	165.4258
28.000000	94.489	164.7548
28.500000	94.453	163.7738
29.000000	94.371	162.9207
29.500000	94.277	162.4146
30.000000	94.224	162.1511
30.400000	94.217	161.8569
30.700001	94.219	161.5056
31.100000	94.207	160.8933
31.500000	94.167	160.2568
32.000000	94.096	159.6659
32.500000	94.046	159.2979
33.000000	94.036	158.8868
33.500000	94.037	158.2241
34.000000	94.012	157.4006
34.500000	93.960	156.6307
35.000000	93.902	156.0120
35.500000	93.856	155.4521
36.000000	93.813	154.8701
36.500000	93.766	154.2931
37.000000	93.717	153.7863
37.500000	93.677	153.3141
38.200001	93.627	152.5883
38.700001	93.580	152.0522
39.500000	93.494	151.3737
40.000000	93.453	151.0155
40.599998	93.412	150.5258
41.200001	93.365	149.9770
41.799999	93.307	149.4424
42.500000	93.237	148.8640
43.099998	93.180	148.3946
43.700001	93.127	147.9102
44.400002	93.063	147.2785
45.000000	92.996	146.7718
45.500000	92.945	146.4461
46.200001	92.906	145.9803
46.799999	92.878	145.3402
47.500000	92.791	144.5486
48.200001	92.685	144.2117
48.700001	92.651	144.1423
49.400002	92.651	143.7535
50.000000	92.629	143.0914
50.799999	92.536	142.2430
51.500000	92.437	141.6755
52.200001	92.323	141.1398
53.000000	92.160	140.8156
53.799999	92.052	140.9975
54.500000	92.055	140.9321
55.200001	92.054	140.2503
56.000000	91.982	139.5208
57.000000	91.990	138.8712
58.000000	91.940	136.9847
59.000000	91.671	136.4781
60.000000	91.666	136.9944
60.799999	91.679	136.3708
61.500000	91.605	136.0042
62.200001	91.557	135.9344
63.000000	91.522	135.5934
64.000000	91.424	135.1215
65.000000	91.340	134.7414
66.000000	91.257	134.2416
67.000000	91.178	133.6927
68.000000	91.090	133.1988
69.000000	91.033	132.7797
70.000000	90.964	132.2252
71.000000	90.882	131.8743
72.000000	90.820	131.5258
73.000000	90.744	131.1532
74.000000	90.678	130.8340
75.000000	90.612	130.3389
76.199997	90.502	129.9081
77.500000	90.433	129.5089
78.800003	90.336	128.9680
80.000000	90.251	128.6448
81.199997	90.169	128.3509
82.500000	90.104	127.8452
83.800003	89.974	127.4735
85.000000	89.947	127.2059
86.199997	89.845	126.5573
87.500000	89.791	126.4973
88.500000	89.767	125.9721
90.000000	89.660	125.3148
91.199997	89.562	125.0764
92.500000	89.518	124.8503
93.800003	89.435	124.3264
95.000000	89.354	124.1501
96.199997	89.290	123.8652
97.500000	89.216	123.5781
98.800003	89.135	123.1547
100.000000	89.064	122.8598
101.500000	89.005	122.3413
103.000000	88.907	121.6582
104.400002	88.837	121.5149
106.000000	88.763	121.2143
107.500000	88.715	120.8660
109.000000	88.628	120.6035
110.599998	88.546	120.4099
112.000000	88.454	119.9419
113.800003	88.419	119.6918
115.000000	88.302	119.3809
117.199997	88.235	118.5095
118.000000	88.141	118.8417
120.599998	88.090	117.7266
122.000000	88.000	118.4269
124.099998	88.022	117.7782
125.000000	87.973	117.2721
126.500000	87.861	116.9229
128.000000	87.771	117.0888
131.500000	87.712	116.4909
132.000000	87.696	116.2015
134.000000	87.610	116.2558
136.000000	87.458	115.4008
138.000000	87.609	114.4547
140.000000	87.356	115.8895
143.000000	87.160	113.9773
145.000000	87.265	114.7188
147.500000	87.132	113.4363
150.000000	86.902	112.8917
152.500000	86.920	112.7854
155.000000	86.916	112.4194
157.500000	86.831	112.3774
160.000000	86.858	112.2328
162.500000	86.603	111.6256
165.000000	86.587	112.2859
167.500000	86.524	111.2427
170.000000	86.440	110.4498
172.500000	86.387	110.9305
175.000000	86.296	110.5505
177.500000	86.158	110.4265
180.000000	86.134	109.7026
182.500000	86.042	109.0240
185.000000	86.006	109.2202
187.500000	85.952	109.3115
190.000000	85.708	108.2070
192.500000	85.760	107.1776
195.000000	85.529	107.7521
197.500000	85.651	108.0802
200.000000	85.708	107.5222
203.000000	85.537	107.1169
206.000000	85.497	106.6213
209.000000	85.437	106.5117
212.000000	85.381	106.0249
214.000000	85.330	105.8724
218.000000	85.276	105.4365
220.000000	85.275	105.2073
224.000000	85.190	104.9227
227.000000	85.127	104.4049
230.000000	85.150	104.2684
233.000000	85.106	103.6038
236.000000	85.075	103.5067
240.000000	84.990	102.8746
243.000000	84.879	102.5949
247.000000	84.988	102.4243
250.000000	84.941	102.2751
254.000000	84.850	101.7777
258.000000	84.775	101.6978
262.000000	84.759	100.7955
265.000000	84.702	100.7565
269.000000	84.693	100.6898
272.000000	84.635	100.3995
276.000000	84.630	100.2105
280.000000	84.587	99.6273
285.000000	84.513	99.0229
290.000000	84.465	98.5232
295.000000	84.565	97.7745
300.000000	84.408	97.5204
304.000000	84.423	97.7776
307.000000	84.393	96.8865
311.000000	84.460	96.9797
315.000000	84.299	96.0243
320.000000	84.234	94.5690
325.000000	84.481	93.8419
330.000000	84.324	95.0793
335.000000	84.310	93.7997
340.000000	84.194	93.5175
345.000000	84.195	93.3437
350.000000	84.184	92.4965
355.000000	84.341	92.1795
360.000000	84.333	92.9309
365.000000	84.199	90.8419
370.000000	84.068	91.0522
375.000000	84.076	90.5417
382.000000	84.106	90.4012
387.000000	84.140	89.9302
395.000000	84.206	88.5743
400.000000	84.188	88.4217
406.000000	84.078	88.6605
412.000000	84.200	88.4468
418.000000	84.136	87.6680
425.000000	84.439	86.3601
431.000000	84.226	86.5379
437.000000	84.230	85.7208
444.000000	84.235	84.1904
450.000000	84.314	83.3617
455.000000	84.120	82.8931
462.000000	84.374	82.0701
468.000000	84.270	81.8263
475.000000	84.258	81.4272
482.000000	84.287	81.0993
487.000000	84.249	80.1106
494.000000	84.292	79.7313
500.000000	84.308	78.8967
508.000000	84.274	78.2970
515.000000	84.321	77.4366
522.000000	84.289	76.5389
530.000000	84.192	76.0052
538.000000	84.107	75.0424
545.000000	84.075	75.8743
552.000000	84.151	75.9178
560.000000	84.299	75.4521
570.000000	84.294	74.0021
580.000000	84.348	73.6261
590.000000	84.387	72.1835
600.000000	84.358	71.8704
608.000000	84.346	70.7438
615.000000	84.380	70.2423
622.000000	84.424	70.0401
630.000000	84.459	69.6109
640.000000	84.282	68.0492
650.000000	84.414	67.8362
660.000000	84.405	67.6640
670.000000	84.410	66.5751
680.000000	84.403	66.2030
690.000000	84.426	65.5979
700.000000	84.454	64.8627
710.000000	84.460	64.5999
720.000000	84.457	63.6611
730.000000	84.468	63.3929
740.000000	84.476	62.8466
750.000000	84.475	62.2597
762.000000	84.497	61.7315
775.000000	84.504	61.2283
788.000000	84.523	60.6172
800.000000	84.551	60.1288
812.000000	84.563	59.5918
825.000000	84.582	59.2563
838.000000	84.615	58.7326
850.000000	84.632	58.3929
862.000000	84.672	57.9654
875.000000	84.710	57.5422
885.000000	84.752	57.1792
900.000000	84.781	56.7910
912.000000	84.837	56.3311
925.000000	84.893	55.9829
938.000000	84.954	55.5878
950.000000	85.010	55.1588
962.000000	85.083	54.7602
975.000000	85.139	54.3253
988.000000	85.222	53.9114
1000.000000	85.289	53.4093
1015.000000	85.375	52.8827
1030.000000	85.479	52.2307
1044.000000	85.567	51.6257
1060.000000	85.659	50.8784
1075.000000	85.763	50.0303
1090.000000	85.846	49.4613
1106.000000	85.937	48.5629
1120.000000	86.041	47.8284
1138.000000	86.145	46.7891
1150.000000	86.206	46.0594
1172.000000	86.337	44.7654
1180.000000	86.359	44.3224
1206.000000	86.498	42.7650
1220.000000	86.558	41.8169
1241.000000	86.630	40.5446
1250.000000	86.687	39.9874
1265.000000	86.747	39.0581
1280.000000	86.815	38.1866
1315.000000	86.941	35.8240
1320.000000	86.944	35.5844
1340.000000	87.015	34.4382
1360.000000	87.076	33.1723
1380.000000	87.149	31.9671
1400.000000	87.209	30.8329
1430.000000	87.277	29.0790
1450.000000	87.329	27.9265
1475.000000	87.398	26.4179
1500.000000	87.468	25.0165
1525.000000	87.541	23.5332
1550.000000	87.619	22.0656
1575.000000	87.678	20.6263
1600.000000	87.756	19.0737
1625.000000	87.830	17.5702
1650.000000	87.901	16.0335
1675.000000	87.971	14.5427
1700.000000	88.043	12.8723
1725.000000	88.113	11.2371
1750.000000	88.188	9.5341
1775.000000	88.253	7.8334
1800.000000	88.327	6.0312
1825.000000	88.390	4.2736
1850.000000	88.455	2.3568
1875.000000	88.509	0.4700
1900.000000	88.566	-1.4532
1925.000000	88.615	-3.4253
1950.000000	88.656	-5.4615
1975.000000	88.686	-7.5416
2000.000000	88.717	-9.6599
2030.000000	88.744	-12.2267
2060.000000	88.764	-14.7933
2090.000000	88.763	-17.4240
2120.000000	88.755	-20.0344
2140.000000	88.751	-21.8364
2180.000000	88.706	-25.3876
2200.000000	88.687	-27.0579
2240.000000	88.618	-30.5573
2270.000000	88.560	-33.0833
2300.000000	88.487	-35.5645
2330.000000	88.418	-38.0037
2360.000000	88.341	-40.4623
2400.000000	88.212	-43.4489
2430.000000	88.134	-45.8317
2470.000000	88.027	-48.7483
2500.000000	87.942	-50.9417
2540.000000	87.852	-53.5941
2580.000000	87.738	-56.2132
2620.000000	87.686	-58.9213
2650.000000	87.635	-60.7664
2690.000000	87.558	-63.1881
2720.000000	87.545	-65.0488
2760.000000	87.536	-67.3341
2800.000000	87.512	-69.6609
2850.000000	87.588	-72.4353
2900.000000	87.633	-75.3342
2950.000000	87.807	-78.5988
3000.000000	88.004	-81.9535
3040.000000	88.137	-84.8877
3070.000000	88.246	-87.1931
3110.000000	88.421	-90.1805
3150.000000	88.576	-93.8459
3200.000000	88.764	-98.6004
3250.000000	88.916	-103.8563
3300.000000	88.997	-109.4537
3350.000000	89.007	-115.3363
3400.000000	88.890	-121.1842
3450.000000	88.661	-126.9792
3500.000000	88.347	-132.4230
3550.000000	87.961	-137.1964
3600.000000	87.550	-141.3784
3650.000000	87.078	-144.7975
3700.000000	86.599	-147.7845
3750.000000	86.140	-150.1009
3820.000000	85.557	-152.4456
3870.000000	85.182	-153.5307
3950.000000	84.699	-154.5052
4000.000000	84.451	-154.7724
4060.000000	84.252	-154.9304
4120.000000	84.162	-154.7431
4180.000000	84.132	-154.6245
4250.000000	84.178	-154.5065
4310.000000	84.288	-154.5523
4370.000000	84.448	-154.7244
4440.000000	84.690	-155.2296
4500.000000	84.940	-155.9670
4550.000000	85.155	-156.8001
4620.000000	85.488	-158.3216
4680.000000	85.746	-160.0312
4750.000000	86.032	-162.2727
4820.000000	86.285	-164.8932
4870.000000	86.440	-166.9176
4940.000000	86.583	-169.8344
5000.000000	86.668	-172.4099
5080.000000	86.661	-175.6157
5150.000000	86.584	-178.2411
5220.000000	86.467	179.3157
5300.000000	86.297	176.9924
5380.000000	86.109	175.1482
5450.000000	85.924	173.8196
5520.000000	85.756	172.8279
5600.000000	85.568	172.0885
5700.000000	85.358	171.6056
5800.000000	85.194	171.5133
5900.000000	85.069	171.7991
6000.000000	84.989	172.2794
6080.000000	84.958	172.8477
6150.000000	84.958	173.3639
6220.000000	84.982	173.9809
6300.000000	85.020	174.6497
6400.000000	85.173	175.5606
6500.000000	85.351	176.4384
6600.000000	85.561	177.2911
6700.000000	85.801	178.0637
6800.000000	86.054	178.6896
6900.000000	86.348	179.2189
7000.000000	86.639	179.5328
7100.000000	86.956	179.7125
7200.000000	87.287	179.6431
7300.000000	87.632	179.3038
7400.000000	87.976	178.6378
7500.000000	88.317	177.6167
7620.000000	88.701	175.9474
7750.000000	89.073	173.5255
7880.000000	89.368	170.3919
8000.000000	89.542	166.9784
8120.000000	89.520	163.1201
8250.000000	89.328	158.8406
8380.000000	88.960	154.6464
8500.000000	88.490	151.1897
8620.000000	87.883	148.2445
8750.000000	87.111	145.2941
8850.000000	86.118	145.8857
9000.000000	85.617	146.0176
9120.000000	84.967	146.0510
9250.000000	84.288	146.7242
9380.000000	83.634	147.8978
9500.000000	83.068	149.2504
9620.000000	82.552	150.8901
9750.000000	82.015	152.9122
9880.000000	81.533	155.1686
10000.000000	81.125	157.3986
10150.000000	80.721	160.3930
10300.000000	80.393	163.4646
10440.000000	80.187	166.6936
10600.000000	80.005	170.1848
10750.000000	79.936	173.4618
10900.000000	79.940	176.5526
11060.000000	80.019	179.6024
11200.000000	80.152	-178.0694
11380.000000	80.391	-175.4465
11500.000000	80.577	-174.0686
11720.000000	80.976	-172.6249
11800.000000	81.125	-172.4786
12060.000000	81.379	-173.1121
12200.000000	81.432	-172.9705
12410.000000	81.602	-173.6350
12500.000000	81.628	-174.3781
12650.000000	81.548	-175.7822
12800.000000	81.352	-177.3423
13150.000000	80.427	179.9269
13200.000000	80.263	179.7933
13400.000000	79.467	179.3342
13600.000000	78.488	-179.9690
13800.000000	77.388	-177.1892
14000.000000	76.397	-171.9662
14300.000000	75.597	-162.2210
14500.000000	75.436	-156.4803
14750.000000	75.514	-151.3234
15000.000000	75.849	-148.5953
15250.000000	76.387	-149.6512
15500.000000	76.803	-156.3271
15750.000000	76.537	-168.4380
16000.000000	75.082	178.8265
16250.000000	73.032	170.9396
16500.000000	70.914	168.6888
16750.000000	69.017	170.8606
17000.000000	67.538	175.7994
17250.000000	66.431	-176.9797
17500.000000	65.623	-168.4767
17750.000000	65.222	-159.2189
18000.000000	65.149	-150.0207
18250.000000	65.163	-141.6022
18500.000000	64.778	-133.0831
18750.000000	64.021	-121.8901
19000.000000	62.986	-90.9781
19250.000000	69.668	-71.7781
19500.000000	72.043	-90.2848
19750.000000	72.582	-101.2137
