* Measurement data measured by REW V5.30.9
* Source: Microphone (Realtek USB2.0 Audio), MICROPHONE (Master Volume), L, volume: 0.500
* Format: 512k Log Swept Sine, 1 sweep at -12.0 dBFS with no timing reference
* Dated: 02 22, 24 8:02:29 PM
* REW Settings:
*  C-weighting compensation: Off
*  Target level: 75.0 dB
* Note: 90dbfs avani clarion
* Measurement: hm r
* Smoothing: None
* Frequency Step: 1/48 octave
* Start Frequency: 1.000 Hz
*
* Freq(Hz)	SPL(dB)	Phase(degrees)
1.000000	48.341	-78.6341
1.015000	48.194	-79.5885
1.030000	48.047	-80.5342
1.044000	47.910	-81.4076
1.060000	47.753	-82.3953
1.075000	47.606	-83.3113
1.090000	47.457	-84.2181
1.106000	47.296	-85.1757
1.120000	47.152	-86.0057
1.138000	46.963	-87.0626
1.150000	46.834	-87.7610
1.172000	46.590	-89.0293
1.180000	46.498	-89.4867
1.206000	46.189	-90.9609
1.220000	46.013	-91.7470
1.241000	45.738	-92.9171
1.250000	45.615	-93.4154
1.265000	45.403	-94.2420
1.280000	45.181	-95.0640
1.315000	44.624	-96.9663
1.320000	44.540	-97.2365
1.340000	44.188	-98.3136
1.360000	43.812	-99.5229
1.380000	43.407	-101.2005
1.400000	42.974	-103.2683
1.430000	42.282	-106.8777
1.450000	41.796	-109.4728
1.475000	41.168	-112.7488
1.500000	40.521	-115.8736
1.525000	39.861	-118.6469
1.550000	39.196	-120.8685
1.575000	38.532	-122.3380
1.600000	37.874	-122.8552
1.625000	37.229	-122.2198
1.650000	36.603	-120.2315
1.675000	36.002	-116.6900
1.700000	35.402	-111.2101
1.725000	34.730	-103.3611
1.750000	34.003	-93.4992
1.775000	33.243	-82.0205
1.800000	32.471	-69.3206
1.825000	31.709	-55.7956
1.850000	30.979	-41.8413
1.875000	30.303	-27.8537
1.900000	29.703	-14.2286
1.925000	29.201	-1.3619
1.950000	28.819	10.3504
1.975000	28.577	20.5126
2.000000	28.499	28.7286
2.030000	28.656	35.5643
2.060000	29.131	39.8371
2.090000	29.886	42.0935
2.120000	30.866	42.6610
2.140000	31.616	42.2629
2.180000	33.277	40.0399
2.200000	34.154	38.4092
2.240000	35.921	34.5947
2.270000	37.191	31.6321
2.300000	38.354	28.9463
2.330000	39.354	26.8648
2.360000	40.137	25.6987
2.400000	40.957	24.5935
2.430000	41.471	23.7004
2.470000	42.043	22.4541
2.500000	42.405	21.4984
2.540000	42.819	20.2265
2.580000	43.183	18.9918
2.620000	43.525	17.8320
2.650000	43.785	17.0341
2.690000	44.159	16.0961
2.720000	44.451	15.4726
2.760000	44.811	14.6888
2.800000	45.143	13.9684
2.850000	45.527	13.1725
2.900000	45.888	12.5111
2.950000	46.236	12.0036
3.000000	46.582	11.6697
3.040000	46.865	11.5385
3.070000	47.073	11.5026
3.110000	47.344	11.5320
3.150000	47.607	11.6576
3.200000	47.928	11.9627
3.250000	48.245	12.4478
3.300000	48.563	13.1295
3.350000	48.884	14.0242
3.400000	49.210	15.1445
3.450000	49.536	16.4813
3.500000	49.861	18.0220
3.550000	50.187	19.7543
3.600000	50.515	21.6660
3.650000	50.844	23.7447
3.700000	51.177	25.9782
3.750000	51.514	28.4450
3.820000	51.990	32.3398
3.870000	52.333	35.3252
3.950000	52.884	40.2266
4.000000	53.229	43.2396
4.060000	53.642	46.7003
4.120000	54.057	50.2148
4.180000	54.474	53.7631
4.250000	54.960	57.7975
4.310000	55.375	61.0385
4.370000	55.788	63.9620
4.440000	56.266	66.9676
4.500000	56.675	69.2900
4.550000	57.014	71.0519
4.620000	57.486	73.2615
4.680000	57.886	74.9243
4.750000	58.348	76.5843
4.820000	58.805	77.8872
4.870000	59.129	78.6323
4.940000	59.577	79.4736
5.000000	59.957	80.0584
5.080000	60.454	80.7048
5.150000	60.883	81.0588
5.220000	61.305	81.2329
5.300000	61.779	81.2768
5.380000	62.243	81.2285
5.450000	62.640	81.1016
5.520000	63.029	80.8563
5.600000	63.465	80.4838
5.700000	63.995	79.9709
5.800000	64.509	79.4447
5.900000	65.006	78.8488
6.000000	65.489	78.2493
6.080000	65.866	77.8118
6.150000	66.187	77.4487
6.220000	66.502	77.0979
6.300000	66.855	76.7178
6.400000	67.291	76.2835
6.500000	67.717	75.9076
6.600000	68.136	75.5750
6.700000	68.551	75.2577
6.800000	68.967	74.9439
6.900000	69.380	74.6503
7.000000	69.792	74.3494
7.100000	70.207	74.0150
7.200000	70.624	73.6660
7.300000	71.042	73.2869
7.400000	71.459	72.8475
7.500000	71.875	72.3350
7.620000	72.374	71.6435
7.750000	72.904	70.8182
7.880000	73.422	69.9019
8.000000	73.888	68.9974
8.120000	74.334	68.0787
8.250000	74.797	67.0418
8.380000	75.238	66.0220
8.500000	75.622	65.1372
8.620000	75.984	64.2868
8.750000	76.358	63.4740
8.850000	76.632	62.9432
9.000000	77.024	62.2818
9.120000	77.335	61.8885
9.250000	77.664	61.6125
9.380000	77.996	61.4546
9.500000	78.316	61.3971
9.620000	78.645	61.4418
9.750000	79.017	61.4945
9.880000	79.411	61.4820
10.000000	79.790	61.4602
10.150000	80.275	61.3644
10.300000	80.779	61.0215
10.440000	81.245	60.5169
10.600000	81.771	59.6870
10.750000	82.246	58.7119
10.900000	82.689	57.5580
11.060000	83.129	56.1702
11.200000	83.475	54.9086
11.380000	83.869	53.2204
11.500000	84.101	52.1598
11.720000	84.460	50.3327
11.800000	84.576	49.7609
12.060000	84.895	48.2428
12.200000	85.053	47.6944
12.410000	85.276	47.2206
12.500000	85.378	47.1305
12.650000	85.556	47.1536
12.800000	85.751	47.2671
13.150000	86.274	47.6861
13.200000	86.325	47.7213
13.400000	86.481	47.7918
13.600000	86.597	47.6860
13.800000	86.684	47.4186
14.000000	86.766	46.9889
14.300000	86.863	46.2065
14.500000	86.907	45.6986
14.750000	86.933	45.2214
15.000000	86.962	44.9141
15.250000	87.013	44.7068
15.500000	87.092	44.5290
15.750000	87.190	44.3069
16.000000	87.306	43.8988
16.250000	87.428	43.2841
16.500000	87.542	42.4849
16.750000	87.621	41.6131
17.000000	87.678	40.7382
17.250000	87.717	39.9126
17.500000	87.746	39.1800
17.750000	87.764	38.5779
18.000000	87.787	38.0407
18.250000	87.816	37.5337
18.500000	87.849	37.0328
18.750000	87.873	36.5543
19.000000	87.893	36.1017
19.250000	87.912	35.6947
19.500000	87.931	35.3567
19.750000	87.950	35.1097
20.000000	87.980	34.8970
20.299999	88.033	34.6292
20.600000	88.096	34.2947
20.900000	88.154	33.8775
21.200001	88.205	33.3801
21.400000	88.230	33.0429
21.799999	88.261	32.4640
22.000000	88.274	32.2220
22.400000	88.310	31.7883
22.700001	88.340	31.4641
23.000000	88.368	31.0976
23.299999	88.388	30.6916
23.600000	88.393	30.3339
24.000000	88.386	30.0857
24.299999	88.398	30.0638
24.700001	88.458	30.1367
25.000000	88.535	30.0808
25.400000	88.661	29.6412
25.799999	88.756	28.8540
26.200001	88.798	27.9537
26.500000	88.801	27.3774
26.900000	88.788	26.8444
27.200001	88.787	26.5508
27.600000	88.798	26.1832
28.000000	88.807	25.7879
28.500000	88.805	25.3250
29.000000	88.805	25.0657
29.500000	88.843	24.7887
30.000000	88.879	24.2453
30.400000	88.872	23.6902
30.700001	88.841	23.4032
31.100000	88.798	23.3475
31.500000	88.809	23.5455
32.000000	88.916	23.5660
32.500000	89.048	22.7546
33.000000	89.075	21.4623
33.500000	88.988	20.4851
34.000000	88.887	20.3286
34.500000	88.881	20.5932
35.000000	88.952	20.6534
35.500000	89.038	20.3112
36.000000	89.103	19.8390
36.500000	89.164	19.2818
37.000000	89.212	18.5529
37.500000	89.211	17.6659
38.200001	89.106	16.8092
38.700001	89.016	16.7318
39.500000	88.943	17.0495
40.000000	88.925	17.2951
40.599998	88.940	17.6632
41.200001	89.018	17.8373
41.799999	89.106	17.3952
42.500000	89.106	16.4882
43.099998	89.046	16.1428
43.700001	89.045	16.1216
44.400002	89.108	15.6700
45.000000	89.119	14.9243
45.500000	89.091	14.4509
46.200001	89.078	14.1287
46.799999	89.103	13.7536
47.500000	89.108	13.1782
48.200001	89.105	12.8258
48.700001	89.125	12.5449
49.400002	89.114	11.9301
50.000000	89.039	11.7678
50.799999	89.030	12.5199
51.500000	89.190	12.7419
52.200001	89.311	11.8848
53.000000	89.282	10.9198
53.799999	89.231	10.6644
54.500000	89.221	10.5844
55.200001	89.232	10.4946
56.000000	89.264	10.1389
57.000000	89.228	9.4086
58.000000	89.163	9.2075
59.000000	89.125	9.0234
60.000000	89.112	9.2332
60.799999	89.200	9.1790
61.500000	89.262	8.5867
62.200001	89.258	7.9620
63.000000	89.229	7.6090
64.000000	89.228	7.5230
65.000000	89.271	7.3721
66.000000	89.287	7.0039
67.000000	89.272	6.9095
68.000000	89.300	6.7562
69.000000	89.290	6.2293
70.000000	89.249	6.0352
71.000000	89.273	5.6557
72.000000	89.239	5.1562
73.000000	89.247	5.0694
74.000000	89.252	4.7331
75.000000	89.267	4.9395
76.199997	89.325	4.4669
77.500000	89.275	4.4772
78.800003	89.231	4.1199
80.000000	89.272	4.0729
81.199997	89.170	2.6663
82.500000	89.166	3.3493
83.800003	89.206	1.8114
85.000000	89.106	2.2943
86.199997	89.159	2.2649
87.500000	89.100	2.5488
88.500000	89.141	2.5324
90.000000	89.048	1.9532
91.199997	89.109	1.4738
92.500000	88.935	0.4507
93.800003	89.006	1.6811
95.000000	89.137	1.1907
96.199997	89.155	1.1573
97.500000	89.125	1.2052
98.800003	89.141	1.1196
100.000000	89.010	0.7713
101.500000	89.070	0.9666
103.000000	89.007	-0.1842
104.400002	88.920	-0.0494
106.000000	88.907	0.3126
107.500000	88.925	-0.2171
109.000000	88.871	-0.2006
110.599998	88.764	-0.7508
112.000000	88.919	0.0326
113.800003	88.888	-0.0362
115.000000	88.749	1.0001
117.199997	88.644	0.7582
118.000000	88.945	-0.5498
120.599998	87.691	7.2755
122.000000	88.811	-1.5976
124.099998	88.780	-2.0869
125.000000	88.833	-1.1995
126.500000	89.137	-1.9373
128.000000	88.946	-1.4437
131.500000	88.954	-2.3949
132.000000	88.974	-2.1880
134.000000	88.990	-2.1443
136.000000	88.918	-2.3612
138.000000	88.879	-2.6388
140.000000	88.908	-2.8121
143.000000	88.880	-3.1888
145.000000	88.856	-3.7495
147.500000	88.823	-4.0079
150.000000	88.862	-4.0192
152.500000	88.823	-4.4710
155.000000	88.814	-4.4586
157.500000	88.722	-4.3932
160.000000	88.677	-4.4087
162.500000	88.681	-4.7445
165.000000	88.698	-4.6437
167.500000	88.661	-5.0136
170.000000	88.618	-4.9165
172.500000	88.574	-4.8404
175.000000	88.534	-5.1845
177.500000	88.544	-5.3361
180.000000	88.521	-5.7543
182.500000	88.476	-5.9280
185.000000	88.394	-5.8086
187.500000	88.340	-6.0295
190.000000	88.317	-5.8431
192.500000	88.349	-6.1152
195.000000	88.271	-6.2242
197.500000	88.252	-6.5283
200.000000	88.256	-6.6616
203.000000	88.283	-6.4622
206.000000	88.170	-6.3143
209.000000	88.131	-6.4633
212.000000	88.107	-6.8303
214.000000	88.113	-7.0690
218.000000	88.068	-7.1425
220.000000	88.050	-7.0048
224.000000	88.022	-7.0236
227.000000	87.958	-6.9891
230.000000	87.970	-7.1249
233.000000	87.943	-7.1553
236.000000	87.944	-7.5786
240.000000	87.951	-7.1514
243.000000	87.856	-7.6382
247.000000	87.797	-7.4376
250.000000	87.792	-7.5939
254.000000	87.753	-7.5819
258.000000	87.706	-7.4658
262.000000	87.664	-7.4984
265.000000	87.638	-7.5931
269.000000	87.583	-7.5178
272.000000	87.545	-7.4522
276.000000	87.498	-7.4045
280.000000	87.468	-7.3313
285.000000	87.419	-7.4714
290.000000	87.378	-7.3855
295.000000	87.345	-7.4342
300.000000	87.297	-7.3148
304.000000	87.284	-7.4805
307.000000	87.251	-7.3278
311.000000	87.181	-7.1638
315.000000	87.161	-7.2099
320.000000	87.118	-7.0369
325.000000	87.092	-6.9817
330.000000	87.026	-6.8943
335.000000	86.986	-6.7365
340.000000	86.947	-6.5444
345.000000	86.908	-6.3429
350.000000	86.877	-6.3586
355.000000	86.800	-6.4176
360.000000	86.633	-8.6989
365.000000	86.739	-6.0466
370.000000	86.666	-5.9166
375.000000	86.634	-5.7632
382.000000	86.576	-5.6230
387.000000	86.543	-5.2904
395.000000	86.474	-5.0567
400.000000	86.437	-4.9661
406.000000	86.380	-4.7938
412.000000	86.390	-4.5212
418.000000	86.314	-4.2288
425.000000	86.264	-3.8264
431.000000	86.224	-3.9605
437.000000	86.191	-3.5634
444.000000	86.128	-3.1300
450.000000	85.993	-3.0104
455.000000	86.052	-2.8552
462.000000	85.996	-2.4457
468.000000	85.986	-2.3722
475.000000	85.931	-1.8784
482.000000	85.887	-1.7317
487.000000	85.880	-1.2465
494.000000	85.808	-1.1862
500.000000	85.807	-0.7412
508.000000	85.758	-0.4329
515.000000	85.743	-0.3159
522.000000	85.685	0.1493
530.000000	85.674	0.4460
538.000000	85.638	0.2377
545.000000	85.503	-0.1723
552.000000	85.252	0.7945
560.000000	85.227	2.3244
570.000000	85.248	3.0557
580.000000	85.183	3.5370
590.000000	85.076	4.8761
600.000000	85.129	5.9639
608.000000	85.215	6.4557
615.000000	85.237	6.7030
622.000000	85.208	6.8694
630.000000	85.172	7.2853
640.000000	85.119	7.7508
650.000000	85.088	8.4163
660.000000	85.051	9.0676
670.000000	85.014	9.7885
680.000000	84.998	10.2911
690.000000	84.962	11.0296
700.000000	84.936	11.6171
710.000000	84.915	12.4688
720.000000	84.858	13.1941
730.000000	84.861	13.9521
740.000000	84.857	14.6380
750.000000	84.848	15.4814
762.000000	84.820	16.5560
775.000000	84.802	17.6167
788.000000	84.807	18.7201
800.000000	84.774	19.8534
812.000000	84.817	20.8543
825.000000	84.801	22.0274
838.000000	84.825	23.0016
850.000000	84.806	24.5042
862.000000	84.844	25.4765
875.000000	84.862	26.9328
885.000000	84.893	27.9623
900.000000	84.962	29.5421
912.000000	85.031	30.8423
925.000000	85.123	32.2944
938.000000	85.222	33.6721
950.000000	85.338	35.0785
962.000000	85.467	36.3724
975.000000	85.608	37.8372
988.000000	85.787	39.1446
1000.000000	85.977	40.3215
1015.000000	86.209	41.4878
1030.000000	86.474	42.7596
1044.000000	86.736	43.3796
1060.000000	87.036	44.0656
1075.000000	87.310	44.5137
1090.000000	87.573	44.7176
1106.000000	87.855	44.8221
1120.000000	88.060	44.7439
1138.000000	88.321	44.5024
1150.000000	88.480	44.3266
1172.000000	88.720	44.0016
1180.000000	88.809	43.8440
1206.000000	89.065	43.3800
1220.000000	89.195	43.1473
1241.000000	89.364	42.7744
1250.000000	89.432	42.6297
1265.000000	89.545	42.4750
1280.000000	89.658	42.2784
1315.000000	89.910	41.8267
1320.000000	89.944	41.8520
1340.000000	90.068	41.6687
1360.000000	90.192	41.4830
1380.000000	90.322	41.3047
1400.000000	90.446	41.1561
1430.000000	90.624	40.9832
1450.000000	90.741	40.8685
1475.000000	90.894	40.7304
1500.000000	91.044	40.5867
1525.000000	91.190	40.4487
1550.000000	91.334	40.3138
1575.000000	91.484	40.1614
1600.000000	91.627	39.9904
1625.000000	91.774	39.8280
1650.000000	91.921	39.6378
1675.000000	92.070	39.4256
1700.000000	92.218	39.1627
1725.000000	92.372	38.9065
1750.000000	92.527	38.5799
1775.000000	92.673	38.2468
1800.000000	92.823	37.8400
1825.000000	92.971	37.4349
1850.000000	93.120	36.9335
1875.000000	93.264	36.4358
1900.000000	93.402	35.8964
1925.000000	93.538	35.2850
1950.000000	93.669	34.6370
1975.000000	93.798	33.9412
2000.000000	93.920	33.1978
2030.000000	94.063	32.2596
2060.000000	94.190	31.3019
2090.000000	94.306	30.2426
2120.000000	94.410	29.1815
2140.000000	94.471	28.4232
2180.000000	94.571	26.9102
2200.000000	94.611	26.1180
2240.000000	94.666	24.5787
2270.000000	94.681	23.4925
2300.000000	94.681	22.4647
2330.000000	94.652	21.5510
2360.000000	94.619	20.7907
2400.000000	94.582	20.0964
2430.000000	94.580	19.7176
2470.000000	94.638	19.0685
2500.000000	94.676	18.3610
2540.000000	94.741	17.1861
2580.000000	94.742	15.8220
2620.000000	94.713	14.4673
2650.000000	94.654	13.5851
2690.000000	94.558	12.5574
2720.000000	94.500	11.7111
2760.000000	94.388	11.0666
2800.000000	94.275	10.1519
2850.000000	94.098	9.5418
2900.000000	93.901	8.7810
2950.000000	93.744	8.7200
3000.000000	93.511	8.4528
3040.000000	93.341	8.8204
3070.000000	93.271	8.9181
3110.000000	93.114	9.6160
3150.000000	93.011	9.8827
3200.000000	92.840	10.9025
3250.000000	92.815	11.5373
3300.000000	92.788	12.7146
3350.000000	92.677	13.0570
3400.000000	92.625	12.9947
3450.000000	92.562	13.3579
3500.000000	92.525	14.7233
3550.000000	92.496	14.8232
3600.000000	92.428	16.4227
3650.000000	92.343	16.4994
3700.000000	92.388	16.8535
3750.000000	92.308	18.5967
3820.000000	92.346	19.1597
3870.000000	92.390	20.5892
3950.000000	92.498	21.7277
4000.000000	92.351	22.1193
4060.000000	92.357	23.3408
4120.000000	92.630	23.5140
4180.000000	92.713	24.8888
4250.000000	92.844	25.8688
4310.000000	93.005	27.0948
4370.000000	93.066	26.2514
4440.000000	93.223	26.9726
4500.000000	93.365	27.3144
4550.000000	93.516	27.1657
4620.000000	93.825	27.8047
4680.000000	93.897	27.1895
4750.000000	94.162	27.4364
4820.000000	94.272	25.7567
4870.000000	94.473	25.3841
4940.000000	94.685	24.7594
5000.000000	94.898	23.3739
5080.000000	94.910	22.0816
5150.000000	94.953	20.7486
5220.000000	94.995	18.5708
5300.000000	94.885	16.7520
5380.000000	94.699	14.6975
5450.000000	94.773	13.4857
5520.000000	94.553	12.0922
5600.000000	94.406	10.2643
5700.000000	93.939	8.2740
5800.000000	93.532	7.8786
5900.000000	93.236	7.6042
6000.000000	92.925	7.1163
6080.000000	92.544	7.2284
6150.000000	92.195	8.2587
6220.000000	91.965	8.4413
6300.000000	91.844	9.8357
6400.000000	91.751	10.7559
6500.000000	91.447	11.6584
6600.000000	91.402	14.9660
6700.000000	91.442	16.0728
6800.000000	91.547	18.2512
6900.000000	91.578	21.1429
7000.000000	91.617	22.6388
7100.000000	91.978	24.2544
7200.000000	92.402	26.3760
7300.000000	92.872	27.1857
7400.000000	93.269	29.4836
7500.000000	93.975	28.7322
7620.000000	94.892	30.0039
7750.000000	95.872	27.5247
7880.000000	97.156	22.0299
8000.000000	98.434	15.1978
8120.000000	98.744	3.8742
8250.000000	98.405	-9.5894
8380.000000	97.264	-21.1545
8500.000000	95.998	-28.6751
8620.000000	94.337	-32.0471
8750.000000	93.020	-33.2463
8850.000000	91.916	-33.0535
9000.000000	90.529	-31.6791
9120.000000	89.662	-28.1639
9250.000000	88.758	-25.2935
9380.000000	87.981	-21.3705
9500.000000	87.466	-18.6874
9620.000000	86.794	-14.4620
9750.000000	86.377	-10.7480
9880.000000	86.028	-7.1044
10000.000000	85.885	-2.4401
10150.000000	85.718	2.7891
10300.000000	85.573	6.6751
10440.000000	85.797	11.6274
10600.000000	85.981	15.8282
10750.000000	86.353	17.7415
10900.000000	86.960	20.2931
11060.000000	87.447	19.9086
11200.000000	88.188	17.9616
11380.000000	88.407	12.8610
11500.000000	88.156	7.3899
11720.000000	87.192	4.2300
11800.000000	86.789	5.5181
12060.000000	87.221	9.8354
12200.000000	87.624	7.2052
12410.000000	87.736	-1.0458
12500.000000	87.474	-4.1332
12650.000000	86.751	-9.0452
12800.000000	85.908	-11.7113
13150.000000	84.289	-10.1476
13200.000000	84.212	-8.6885
13400.000000	83.779	-5.2956
13600.000000	83.799	-0.9917
13800.000000	84.420	3.0435
14000.000000	85.225	6.3778
14300.000000	88.225	4.1352
14500.000000	90.971	-9.8676
14750.000000	91.083	-56.4036
15000.000000	85.713	-77.8416
15250.000000	81.205	-76.7419
15500.000000	77.934	-70.1006
15750.000000	75.205	-60.6944
16000.000000	72.925	-51.1354
16250.000000	71.755	-38.7331
16500.000000	70.507	-28.7907
16750.000000	69.634	-17.8912
17000.000000	69.001	-9.3152
17250.000000	68.373	-1.4951
17500.000000	67.835	1.7233
17750.000000	67.466	-1.5219
18000.000000	66.935	-11.7150
18250.000000	65.904	-34.5552
18500.000000	63.987	-63.8487
18750.000000	62.886	-89.3440
19000.000000	62.278	-105.3927
19250.000000	62.291	-108.5197
19500.000000	62.179	-106.8929
19750.000000	61.861	-101.0661
