* Measurement data measured by REW V5.31.3
* Source: Headset (Odo By VECLAN.COM), MICROPHONE (Master Volume), L, volume: 0.720. Timing signal peak level -18.2 dBFS, measurement signal peak level -15.5 dBFS
* Format: 2M Log Swept Sine, 1 sweep at -23.5 dBFS using an acoustic timing reference
* Dated: 11 17, 24 11:21:37 AM
* REW Settings:
*  C-weighting compensation: Off
*  Target level: 85.0 dB
* Note: ; Delay -0.0693 ms (-24 mm, -0.94 in) using estimated IR delay relative to Acoustic reference played from SPEAKER L with no timing offset
* Measurement: Hola L
* Smoothing: 1/24 octave
* Frequency Step: 96 ppo
* Start Frequency: 0.36621094 Hz
*
* Freq(Hz) SPL(dB) Phase(degrees)
0.366211 72.525 -46.9183
0.368865 72.558 -47.1381
0.371538 72.605 -47.4391
0.374230 72.658 -47.7763
0.376942 72.714 -48.1296
0.379673 72.770 -48.4916
0.382424 72.827 -48.8600
0.385196 72.885 -49.2340
0.387987 72.943 -49.6134
0.390798 73.002 -49.9981
0.393630 73.060 -50.3880
0.396483 73.120 -50.7831
0.399356 73.179 -51.1833
0.402250 73.240 -51.5886
0.405165 73.300 -51.9989
0.408101 73.361 -52.4141
0.411058 73.423 -52.8341
0.414037 73.485 -53.2590
0.417037 73.547 -53.6885
0.420059 73.610 -54.1227
0.423103 73.673 -54.5614
0.426169 73.737 -55.0045
0.429257 73.801 -55.4520
0.432368 73.866 -55.9038
0.435501 73.931 -56.3596
0.438656 73.996 -56.8196
0.441835 74.062 -57.2834
0.445037 74.129 -57.7512
0.448262 74.196 -58.2226
0.451510 74.264 -58.6976
0.454782 74.332 -59.1761
0.458077 74.400 -59.6581
0.461397 74.469 -60.1432
0.464740 74.539 -60.6315
0.468108 74.609 -61.1228
0.471500 74.679 -61.6171
0.474917 74.750 -62.1140
0.478358 74.822 -62.6137
0.481825 74.894 -63.1158
0.485316 74.966 -63.6204
0.488833 75.039 -64.1272
0.492375 75.113 -64.6361
0.495943 75.187 -65.1471
0.499537 75.262 -65.6600
0.503157 75.337 -66.1747
0.506803 75.413 -66.6910
0.510475 75.489 -67.2088
0.514175 75.566 -67.7281
0.517900 75.644 -68.2487
0.521653 75.722 -68.7704
0.525434 75.800 -69.2933
0.529241 75.880 -69.8171
0.533076 75.959 -70.3417
0.536939 76.040 -70.8671
0.540830 76.120 -71.3932
0.544749 76.202 -71.9198
0.548696 76.284 -72.4469
0.552673 76.367 -72.9743
0.556677 76.450 -73.5020
0.560711 76.534 -74.0299
0.564774 76.618 -74.5580
0.568867 76.703 -75.0640
0.572989 76.789 -75.5604
0.577141 76.875 -76.0565
0.581324 76.962 -76.5522
0.585536 77.050 -77.0474
0.589779 77.138 -77.5421
0.594053 77.227 -78.0361
0.598358 77.316 -78.5296
0.602694 77.407 -79.0224
0.607061 77.497 -79.5144
0.611460 77.589 -80.0057
0.615891 77.681 -80.4962
0.620354 77.774 -80.9858
0.624849 77.867 -81.4746
0.629377 77.961 -81.9625
0.633938 78.056 -82.4496
0.638532 78.152 -82.9357
0.643159 78.248 -83.4209
0.647819 78.345 -83.9052
0.652514 78.442 -84.3885
0.657242 78.541 -84.8709
0.662005 78.640 -85.3524
0.666802 78.739 -85.8330
0.671634 78.840 -86.3127
0.676501 78.941 -86.7915
0.681403 79.043 -87.2695
0.686341 79.146 -87.7466
0.691314 79.249 -88.2229
0.696324 79.353 -88.6984
0.701370 79.458 -89.1731
0.706452 79.564 -89.6472
0.711571 79.670 -90.1205
0.716728 79.777 -90.5932
0.721921 79.885 -91.0652
0.727153 79.993 -91.5363
0.732422 80.100 -92.0060
0.737729 80.206 -92.4733
0.743075 80.311 -92.9374
0.748460 80.416 -93.3977
0.753883 80.522 -93.8540
0.759346 80.628 -94.3063
0.764849 80.735 -94.7547
0.770391 80.843 -95.0951
0.775974 80.952 -95.4035
0.781597 81.061 -95.7071
0.787261 81.171 -96.0061
0.792966 81.282 -96.3005
0.798712 81.394 -96.5905
0.804500 81.506 -96.8760
0.810329 81.618 -97.1571
0.816201 81.732 -97.4341
0.822116 81.846 -97.7068
0.828073 81.961 -97.9755
0.834074 82.076 -98.2401
0.840118 82.192 -98.5009
0.846206 82.309 -98.7579
0.852338 82.426 -99.0111
0.858514 82.544 -99.2608
0.864735 82.662 -99.5069
0.871001 82.781 -99.7496
0.877313 82.901 -99.9890
0.883670 83.021 -100.2252
0.890074 83.141 -100.4583
0.896524 83.262 -100.6884
0.903020 83.384 -100.9155
0.909564 83.506 -101.1398
0.916155 83.628 -101.3615
0.922794 83.751 -101.5805
0.929481 83.874 -101.7970
0.936216 83.998 -102.0111
0.943000 84.122 -102.2230
0.949834 84.246 -102.4326
0.956717 84.370 -102.6401
0.963649 84.495 -102.8457
0.970632 84.620 -103.0311
0.977666 84.745 -103.2053
0.984750 84.871 -103.3776
0.991886 84.996 -103.5482
0.999074 85.122 -103.7170
1.006314 85.248 -103.8842
1.013606 85.374 -104.0499
1.020951 85.500 -104.2142
1.028349 85.625 -104.3772
1.035801 85.751 -104.5390
1.043307 85.877 -104.6996
1.050867 86.002 -104.8592
1.058482 86.128 -105.0179
1.066152 86.253 -105.1756
1.073878 86.378 -105.3326
1.081660 86.502 -105.4887
1.089498 86.627 -105.6437
1.097393 86.751 -105.7970
1.105345 86.875 -105.9472
1.113355 87.000 -106.0928
1.121423 87.125 -106.2332
1.129549 87.251 -106.3682
1.137734 87.377 -106.4980
1.145979 87.504 -106.6228
1.154283 87.631 -106.7430
1.162647 87.759 -106.8588
1.171072 87.887 -106.9716
1.179558 88.015 -107.0812
1.188106 88.144 -107.1872
1.196715 88.272 -107.2900
1.205387 88.400 -107.3897
1.214122 88.529 -107.4867
1.222920 88.657 -107.5811
1.231782 88.785 -107.6731
1.240708 88.913 -107.7631
1.249699 89.040 -107.8511
1.258754 89.167 -107.9376
1.267876 89.293 -108.0225
1.277063 89.419 -108.1062
1.286318 89.544 -108.1888
1.295639 89.668 -108.2705
1.305027 89.791 -108.3516
1.314484 89.912 -108.4321
1.324009 90.033 -108.5122
1.333604 90.152 -108.5921
1.343268 90.269 -108.6720
1.353002 90.385 -108.7520
1.362806 90.500 -108.8322
1.372681 90.612 -108.9081
1.382628 90.722 -108.9821
1.392647 90.830 -109.0568
1.402739 90.935 -109.1321
1.412904 91.038 -109.2082
1.423142 91.138 -109.2851
1.433455 91.235 -109.3630
1.443843 91.330 -109.4416
1.454305 91.420 -109.5206
1.464844 91.507 -109.5987
1.475459 91.590 -109.6737
1.486150 91.668 -109.7437
1.496920 91.740 -109.8078
1.507767 91.809 -109.8660
1.518693 91.872 -109.9187
1.529698 91.931 -109.9663
1.540783 91.986 -110.0093
1.551948 92.036 -110.0483
1.563194 92.083 -110.0837
1.574521 92.126 -110.1112
1.585931 92.165 -110.1344
1.597423 92.201 -110.1554
1.608999 92.235 -110.1748
1.620658 92.265 -110.1929
1.632402 92.294 -110.2102
1.644232 92.320 -110.2271
1.656146 92.345 -110.2440
1.668147 92.368 -110.2615
1.680235 92.390 -110.2797
1.692411 92.412 -110.2993
1.704675 92.433 -110.3205
1.717028 92.455 -110.3437
1.729470 92.477 -110.3693
1.742003 92.500 -110.3977
1.754626 92.524 -110.4291
1.767341 92.551 -110.4646
1.780147 92.580 -110.5093
1.793047 92.612 -110.5581
1.806040 92.647 -110.6108
1.819128 92.686 -110.6672
1.832310 92.728 -110.7256
1.845587 92.772 -110.7833
1.858961 92.819 -110.8379
1.872432 92.866 -110.8884
1.886001 92.913 -110.9349
1.899667 92.961 -110.9776
1.913433 93.010 -111.0170
1.927299 93.060 -111.0538
1.941265 93.110 -111.0885
1.955332 93.160 -111.1216
1.969501 93.211 -111.1552
1.983773 93.263 -111.1927
1.998148 93.315 -111.2304
2.012627 93.367 -111.2687
2.027212 93.420 -111.3082
2.041902 93.473 -111.3493
2.056698 93.527 -111.3925
2.071602 93.581 -111.4384
2.086614 93.636 -111.4874
2.101734 93.690 -111.5400
2.116964 93.745 -111.5966
2.132304 93.801 -111.6578
2.147756 93.857 -111.7239
2.163320 93.912 -111.7951
2.178996 93.969 -111.8780
2.194786 94.025 -111.9664
2.210690 94.082 -112.0567
2.226710 94.139 -112.1464
2.242845 94.196 -112.2342
2.259098 94.254 -112.3199
2.275468 94.313 -112.4035
2.291957 94.372 -112.4856
2.308566 94.431 -112.5665
2.325295 94.491 -112.6467
2.342145 94.551 -112.7267
2.359117 94.611 -112.8069
2.376212 94.672 -112.8945
2.393431 94.733 -112.9878
2.410775 94.795 -113.0830
2.428244 94.856 -113.1806
2.445840 94.918 -113.2810
2.463564 94.980 -113.3848
2.481416 95.043 -113.4925
2.499397 95.105 -113.6046
2.517509 95.167 -113.7215
2.535752 95.230 -113.8436
2.554127 95.293 -113.9706
2.572635 95.355 -114.1074
2.591277 95.418 -114.2572
2.610055 95.482 -114.4076
2.628968 95.545 -114.5581
2.648019 95.609 -114.7085
2.667208 95.673 -114.8589
2.686535 95.737 -115.0094
2.706003 95.802 -115.1603
2.725612 95.866 -115.3117
2.745363 95.931 -115.4640
2.765257 95.996 -115.6174
2.785295 96.060 -115.7874
2.805478 96.125 -115.9599
2.825808 96.189 -116.1347
2.846285 96.254 -116.3122
2.866910 96.318 -116.4929
2.887685 96.382 -116.6772
2.908611 96.446 -116.8653
2.929688 96.510 -117.0573
2.950917 96.573 -117.2526
2.972301 96.636 -117.4555
2.993839 96.699 -117.6718
3.015534 96.762 -117.8898
3.037386 96.825 -118.1091
3.059396 96.887 -118.3293
3.081565 96.950 -118.5503
3.103896 97.012 -118.7720
3.126388 97.074 -118.9942
3.149043 97.135 -119.2169
3.171862 97.197 -119.4441
3.194847 97.258 -119.6838
3.217998 97.319 -119.9242
3.241317 97.379 -120.1658
3.264805 97.439 -120.4086
3.288463 97.499 -120.6533
3.312293 97.559 -120.9004
3.336295 97.618 -121.1504
3.360471 97.677 -121.4032
3.384822 97.736 -121.6708
3.409350 97.794 -121.9439
3.434056 97.851 -122.2182
3.458940 97.909 -122.4929
3.484005 97.966 -122.7677
3.509252 98.022 -123.0420
3.534681 98.078 -123.3155
3.560295 98.134 -123.5879
3.586094 98.189 -123.8734
3.612081 98.244 -124.1619
3.638255 98.298 -124.4494
3.664620 98.352 -124.7368
3.691175 98.405 -125.0257
3.717923 98.458 -125.3170
3.744864 98.510 -125.6108
3.772001 98.562 -125.9107
3.799335 98.613 -126.2269
3.826866 98.664 -126.5432
3.854597 98.714 -126.8588
3.882529 98.763 -127.1726
3.910664 98.812 -127.4841
3.939002 98.860 -127.7925
3.967546 98.908 -128.0984
3.996296 98.955 -128.4191
4.025255 99.002 -128.7370
4.054423 99.048 -129.0540
4.083804 99.093 -129.3719
4.113396 99.138 -129.6912
4.143204 99.182 -130.0112
4.173227 99.225 -130.3359
4.203468 99.268 -130.6747
4.233928 99.310 -131.0113
4.264609 99.351 -131.3446
4.295512 99.392 -131.6737
4.326639 99.432 -131.9978
4.357992 99.471 -132.3165
4.389572 99.510 -132.6452
4.421380 99.548 -132.9759
4.453419 99.586 -133.3057
4.485691 99.622 -133.6353
4.518196 99.658 -133.9642
4.550936 99.693 -134.2915
4.583914 99.728 -134.6264
4.617131 99.761 -134.9663
4.650589 99.794 -135.3012
4.684289 99.827 -135.6301
4.718233 99.859 -135.9523
4.752424 99.890 -136.2681
4.786862 99.921 -136.5898
4.821549 99.951 -136.9160
4.856488 99.981 -137.2400
4.891680 100.010 -137.5616
4.927127 100.038 -137.8800
4.962831 100.065 -138.1940
4.998794 100.092 -138.5185
5.035017 100.118 -138.8382
5.071503 100.144 -139.1504
5.108253 100.169 -139.4550
5.145270 100.194 -139.7528
5.182555 100.219 -140.0532
5.220110 100.242 -140.3592
5.257937 100.265 -140.6611
5.296038 100.287 -140.9584
5.334415 100.309 -141.2501
5.373071 100.331 -141.5385
5.412006 100.352 -141.8343
5.451224 100.372 -142.1220
5.490725 100.393 -142.4016
5.530514 100.412 -142.6738
5.570590 100.432 -142.9422
5.610957 100.451 -143.2214
5.651616 100.469 -143.4949
5.692570 100.487 -143.7621
5.733821 100.505 -144.0222
5.775370 100.522 -144.2786
5.817221 100.539 -144.5404
5.859375 100.557 -144.7939
5.901834 100.574 -145.0394
5.944602 100.590 -145.2778
5.987679 100.607 -145.5184
6.031068 100.623 -145.7611
6.074771 100.639 -145.9970
6.118792 100.655 -146.2258
6.163131 100.671 -146.4472
6.207792 100.687 -146.6759
6.252776 100.703 -146.8981
6.298086 100.720 -147.1130
6.343725 100.736 -147.3208
6.389694 100.752 -147.5305
6.435996 100.769 -147.7420
6.482634 100.785 -147.9476
6.529610 100.802 -148.1476
6.576926 100.819 -148.3454
6.624585 100.837 -148.5487
6.672590 100.855 -148.7463
6.720942 100.873 -148.9385
6.769645 100.891 -149.1268
6.818700 100.910 -149.3246
6.868111 100.928 -149.5189
6.917881 100.948 -149.7103
6.968010 100.967 -149.8996
7.018504 100.987 -150.0998
7.069362 101.008 -150.2973
7.120590 101.028 -150.4921
7.172189 101.049 -150.6864
7.224161 101.070 -150.8910
7.276511 101.091 -151.0944
7.329239 101.111 -151.2970
7.382350 101.132 -151.5036
7.435845 101.152 -151.7195
7.489729 101.173 -151.9347
7.544002 101.193 -152.1485
7.598669 101.212 -152.3690
7.653732 101.231 -152.5934
7.709194 101.249 -152.8162
7.765058 101.267 -153.0382
7.821327 101.283 -153.2734
7.878004 101.299 -153.5067
7.935091 101.315 -153.7361
7.992592 101.329 -153.9650
8.050510 101.342 -154.1934
8.108847 101.354 -154.4160
8.167607 101.364 -154.6338
8.226793 101.374 -154.8569
8.286408 101.383 -155.0722
8.346454 101.391 -155.2774
8.406936 101.398 -155.4789
8.467856 101.405 -155.6719
8.529218 101.411 -155.8533
8.591024 101.417 -156.0278
8.653278 101.423 -156.1971
8.715983 101.429 -156.3533
8.779143 101.436 -156.4972
8.842760 101.443 -156.6342
8.906839 101.451 -156.7563
8.971381 101.459 -156.8658
9.036392 101.469 -156.9735
9.101873 101.481 -157.0719
9.167829 101.495 -157.1618
9.234263 101.512 -157.2504
9.301178 101.532 -157.3304
9.368578 101.554 -157.4061
9.436467 101.578 -157.4929
9.504847 101.606 -157.5842
9.573723 101.637 -157.6822
9.643099 101.671 -157.7953
9.712976 101.707 -157.9161
9.783361 101.744 -158.0523
9.854255 101.782 -158.2142
9.925663 101.819 -158.3971
9.997588 101.857 -158.6006
10.070035 101.893 -158.8512
10.143007 101.929 -159.1249
10.216507 101.962 -159.4233
10.290540 101.994 -159.7486
10.365109 102.023 -160.1011
10.440219 102.049 -160.4782
10.515873 102.073 -160.8763
10.592076 102.092 -161.2931
10.668830 102.107 -161.7285
10.746141 102.118 -162.1830
10.824012 102.124 -162.6518
10.902447 102.125 -163.1270
10.981451 102.122 -163.6027
11.061027 102.113 -164.1091
11.141180 102.099 -164.6240
11.221913 102.079 -165.1312
11.303232 102.055 -165.6216
11.385140 102.025 -166.0889
11.467641 101.990 -166.5324
11.550741 101.950 -166.9502
11.634442 101.906 -167.3366
11.718750 101.860 -167.6854
11.803669 101.812 -167.9934
11.889203 101.761 -168.2610
11.975357 101.711 -168.4893
12.062136 101.662 -168.7044
12.149543 101.615 -168.8899
12.237583 101.571 -169.0363
12.326262 101.532 -169.1497
12.415583 101.498 -169.2377
12.505552 101.471 -169.3047
12.596172 101.451 -169.3528
12.687449 101.438 -169.3893
12.779387 101.431 -169.4245
12.871992 101.430 -169.4654
12.965268 101.434 -169.5143
13.059220 101.442 -169.5966
13.153852 101.453 -169.7099
13.249170 101.467 -169.8459
13.345179 101.482 -170.0047
13.441884 101.497 -170.1846
13.539289 101.511 -170.3843
13.637401 101.524 -170.6031
13.736223 101.534 -170.8382
13.835761 101.542 -171.0830
13.936021 101.547 -171.3315
14.037007 101.548 -171.5910
14.138725 101.547 -171.8651
14.241180 101.543 -172.1284
14.344377 101.536 -172.3755
14.448323 101.528 -172.6043
14.553021 101.518 -172.8129
14.658478 101.508 -172.9988
14.764700 101.499 -173.1610
14.871691 101.490 -173.3016
14.979457 101.484 -173.4244
15.088005 101.481 -173.5556
15.197339 101.482 -173.6808
15.307465 101.485 -173.8012
15.418389 101.492 -173.9233
15.530117 101.502 -174.0508
15.642655 101.514 -174.1880
15.756008 101.528 -174.3398
15.870182 101.544 -174.5090
15.985184 101.560 -174.6958
16.101019 101.575 -174.9181
16.217694 101.590 -175.1597
16.335214 101.602 -175.4153
16.453586 101.612 -175.6799
16.572815 101.619 -175.9495
16.692909 101.622 -176.2204
16.813872 101.622 -176.4870
16.935713 101.618 -176.7444
17.058436 101.612 -176.9995
17.182048 101.603 -177.2501
17.306556 101.592 -177.4834
17.431967 101.580 -177.6988
17.558286 101.566 -177.8962
17.685521 101.552 -178.0758
17.813677 101.538 -178.2382
17.942762 101.523 -178.3843
18.072783 101.509 -178.5255
18.203746 101.494 -178.6596
18.335658 101.480 -178.7777
18.468526 101.465 -178.8793
18.602356 101.452 -178.9633
18.737156 101.439 -179.0292
18.872934 101.427 -179.0770
19.009695 101.418 -179.1096
19.147447 101.412 -179.1417
19.286197 101.410 -179.1658
19.425953 101.413 -179.1903
19.566721 101.420 -179.2232
19.708510 101.433 -179.2747
19.851326 101.449 -179.3563
19.995177 101.468 -179.4753
20.140070 101.489 -179.6536
20.286013 101.508 -179.8806
20.433014 101.525 179.8466
20.581080 101.536 179.5339
20.730219 101.540 179.1896
20.880439 101.535 178.8286
21.031747 101.522 178.4623
21.184152 101.501 178.0969
21.337661 101.472 177.7601
21.492282 101.439 177.4612
21.648024 101.403 177.2063
21.804895 101.367 176.9959
21.962902 101.335 176.8220
22.122054 101.307 176.6639
22.282360 101.285 176.5126
22.443827 101.268 176.3531
22.606464 101.255 176.1733
22.770280 101.244 175.9633
22.935283 101.232 175.7213
23.101481 101.217 175.4467
23.268884 101.195 175.1537
23.437500 101.168 174.8659
23.607338 101.134 174.6024
23.778406 101.096 174.3793
23.950714 101.058 174.2087
24.124271 101.022 174.0819
24.299086 100.993 173.9958
24.475167 100.973 173.9363
24.652524 100.964 173.8770
24.831166 100.964 173.7941
25.011103 100.970 173.6638
25.192344 100.979 173.4683
25.374898 100.985 173.2155
25.558775 100.983 172.9189
25.743984 100.972 172.6049
25.930536 100.949 172.3031
26.118439 100.915 172.0417
26.307704 100.875 171.8495
26.498341 100.832 171.7502
26.690359 100.792 171.7466
26.883768 100.762 171.8275
27.078579 100.744 171.9669
27.274801 100.741 172.1310
27.472446 100.752 172.2916
27.671522 100.775 172.4203
27.872042 100.807 172.4991
28.074014 100.844 172.5153
28.277450 100.882 172.4661
28.482360 100.920 172.3610
28.688755 100.956 172.2056
28.896645 100.988 172.0039
29.106042 101.017 171.7559
29.316957 101.039 171.4653
29.529400 101.053 171.1421
29.743382 101.058 170.7985
29.958915 101.051 170.4513
30.176009 101.034 170.1178
30.394677 101.006 169.8227
30.614929 100.972 169.5847
30.836778 100.934 169.4110
31.060234 100.898 169.2961
31.285309 100.866 169.2202
31.512015 100.840 169.1689
31.740364 100.821 169.1201
31.970368 100.805 169.0580
32.202039 100.791 168.9706
32.435388 100.777 168.8657
32.670428 100.762 168.7520
32.907171 100.746 168.6367
33.145630 100.732 168.5193
33.385817 100.719 168.3953
33.627745 100.709 168.2562
33.871425 100.701 168.0908
34.116871 100.693 167.8915
34.364096 100.681 167.6624
34.613113 100.664 167.4225
34.863934 100.641 167.1904
35.116572 100.615 166.9812
35.371041 100.588 166.8044
35.627354 100.563 166.6607
35.885525 100.543 166.5399
36.145566 100.528 166.4236
36.407492 100.517 166.2983
36.671316 100.510 166.1567
36.937051 100.505 165.9927
37.204712 100.501 165.7998
37.474313 100.496 165.5750
37.745867 100.490 165.3159
38.019389 100.478 165.0245
38.294893 100.457 164.7109
38.572394 100.425 164.4100
38.851905 100.383 164.1602
39.133442 100.333 163.9980
39.417019 100.284 163.9428
39.702651 100.246 163.9827
39.990353 100.225 164.0704
40.280140 100.225 164.1341
40.572026 100.238 164.1108
40.866028 100.256 163.9674
41.162160 100.266 163.7138
41.460438 100.260 163.3989
41.760877 100.238 163.0914
42.063494 100.203 162.8486
42.368303 100.165 162.6923
42.675322 100.132 162.6146
42.984565 100.110 162.5737
43.296048 100.097 162.5226
43.609789 100.089 162.4318
43.925804 100.078 162.3018
44.244108 100.061 162.1567
44.564719 100.040 162.0293
44.887654 100.017 161.9361
45.212928 99.997 161.8652
45.540560 99.982 161.7899
45.870565 99.971 161.6807
46.202962 99.959 161.5202
46.537768 99.939 161.3190
46.875000 99.909 161.1092
47.214676 99.869 160.9231
47.556813 99.826 160.7801
47.901429 99.784 160.6748
48.248542 99.746 160.5807
48.598171 99.710 160.4751
48.950334 99.673 160.3530
49.305048 99.633 160.2274
49.662333 99.590 160.1264
50.022206 99.547 160.0669
50.384688 99.511 160.0422
50.749796 99.484 160.0293
51.117550 99.466 160.0010
51.487969 99.452 159.9453
51.861072 99.439 159.8706
52.236879 99.429 159.7875
52.615409 99.422 159.6980
52.996681 99.420 159.5848
53.380717 99.420 159.4182
53.767536 99.416 159.1895
54.157158 99.399 158.9221
54.549603 99.367 158.6703
54.944892 99.323 158.4922
55.343045 99.274 158.4135
55.744084 99.231 158.4182
56.148028 99.198 158.4501
56.554900 99.173 158.4524
56.964720 99.150 158.4057
57.377510 99.122 158.3303
57.793291 99.091 158.2581
58.212085 99.061 158.2017
58.633914 99.036 158.1440
59.058799 99.019 158.0549
59.486764 99.004 157.9148
59.917829 98.989 157.7327
60.352019 98.972 157.5292
60.789354 98.956 157.3174
61.229859 98.939 157.0918
61.673556 98.921 156.8501
62.120468 98.898 156.6115
62.570618 98.869 156.4081
63.024031 98.838 156.2584
63.480729 98.807 156.1496
63.940736 98.778 156.0668
64.404077 98.746 156.0063
64.870776 98.711 155.9813
65.340856 98.675 156.0012
65.814343 98.644 156.0536
66.291261 98.619 156.0953
66.771635 98.597 156.0831
67.255489 98.572 156.0075
67.742850 98.541 155.8945
68.233743 98.503 155.7749
68.728193 98.463 155.6619
69.226226 98.422 155.5564
69.727867 98.383 155.4584
70.233144 98.347 155.3670
70.742083 98.316 155.2762
71.254709 98.289 155.1783
71.771050 98.265 155.0723
