* Measurement data measured by REW V5.30.9
* Source: Microphone (Realtek USB2.0 Audio), MICROPHONE (Master Volume), L, volume: 0.500
* Format: 512k Log Swept Sine, 1 sweep at -12.0 dBFS with no timing reference
* Dated: 04 19, 24 12:42:10 AM
* REW Settings:
*  C-weighting compensation: Off
*  Target level: 75.0 dB
* Note: ; 
* Measurement: hydra uuuu L
* Smoothing: None
* Frequency Step: 1/48 octave
* Start Frequency: 1.000 Hz
*
* Freq(Hz)	SPL(dB)	Phase(degrees)
1.000000	49.061	-66.6574
1.015000	48.884	-67.2431
1.030000	48.703	-67.8663
1.044000	48.532	-68.4870
1.060000	48.331	-69.2314
1.075000	48.139	-69.9524
1.090000	47.944	-70.6853
1.106000	47.730	-71.4682
1.120000	47.539	-72.1447
1.138000	47.288	-72.9885
1.150000	47.117	-73.5267
1.172000	46.794	-74.4427
1.180000	46.674	-74.7479
1.206000	46.274	-75.6120
1.220000	46.052	-75.9824
1.241000	45.709	-76.3905
1.250000	45.559	-76.5052
1.265000	45.304	-76.6075
1.280000	45.042	-76.5899
1.315000	44.407	-76.0243
1.320000	44.313	-75.8779
1.340000	43.930	-75.1129
1.360000	43.521	-74.0467
1.380000	43.049	-72.6907
1.400000	42.524	-71.0683
1.430000	41.659	-68.1870
1.450000	41.047	-66.0018
1.475000	40.263	-63.0145
1.500000	39.478	-59.7859
1.525000	38.713	-56.3617
1.550000	37.991	-52.7881
1.575000	37.332	-49.1110
1.600000	36.760	-45.3763
1.625000	36.295	-41.6300
1.650000	35.960	-37.9182
1.675000	35.776	-34.2867
1.700000	35.760	-30.6364
1.725000	35.904	-26.6243
1.750000	36.185	-22.3102
1.775000	36.584	-17.7787
1.800000	37.080	-13.1149
1.825000	37.653	-8.4034
1.850000	38.284	-3.7291
1.875000	38.950	0.8231
1.900000	39.633	5.1685
1.925000	40.312	9.2222
1.950000	40.967	12.8994
1.975000	41.577	16.1153
2.000000	42.122	18.7850
2.030000	42.671	21.1603
2.060000	43.185	22.6983
2.090000	43.687	23.5250
2.120000	44.177	23.7502
2.140000	44.496	23.6202
2.180000	45.116	22.8341
2.200000	45.416	22.2430
2.240000	45.996	20.8270
2.270000	46.411	19.6883
2.300000	46.809	18.6057
2.330000	47.189	17.6886
2.360000	47.549	17.0408
2.400000	47.993	16.2335
2.430000	48.299	15.5347
2.470000	48.676	14.5090
2.500000	48.939	13.6897
2.540000	49.270	12.5610
2.580000	49.582	11.4254
2.620000	49.883	10.3205
2.650000	50.105	9.5347
2.690000	50.402	8.5744
2.720000	50.622	7.9005
2.760000	50.899	6.9985
2.800000	51.162	6.1080
2.850000	51.475	5.0372
2.900000	51.775	4.0446
2.950000	52.068	3.1638
3.000000	52.359	2.4282
3.040000	52.595	1.9627
3.070000	52.769	1.6562
3.110000	52.997	1.2941
3.150000	53.220	0.9991
3.200000	53.495	0.7474
3.250000	53.768	0.6529
3.300000	54.042	0.7449
3.350000	54.319	1.0526
3.400000	54.601	1.5892
3.450000	54.883	2.3224
3.500000	55.166	3.2457
3.550000	55.450	4.3550
3.600000	55.737	5.6459
3.650000	56.026	7.1142
3.700000	56.320	8.7557
3.750000	56.617	10.6443
3.820000	57.040	13.7386
3.870000	57.345	16.1625
3.950000	57.838	20.1910
4.000000	58.148	22.6791
4.060000	58.522	25.5345
4.120000	58.899	28.4667
4.180000	59.280	31.4541
4.250000	59.727	34.8613
4.310000	60.109	37.5881
4.370000	60.490	40.0191
4.440000	60.933	42.4769
4.500000	61.313	44.3522
4.550000	61.629	45.7582
4.620000	62.070	47.4962
4.680000	62.443	48.7803
4.750000	62.874	50.0289
4.820000	63.302	50.9519
4.870000	63.605	51.4449
4.940000	64.025	51.9612
5.000000	64.381	52.2935
5.080000	64.849	52.6423
5.150000	65.252	52.7749
5.220000	65.651	52.7609
5.300000	66.100	52.6260
5.380000	66.543	52.4316
5.450000	66.924	52.2088
5.520000	67.301	51.9010
5.600000	67.725	51.4848
5.700000	68.248	50.9357
5.800000	68.762	50.3893
5.900000	69.268	49.8037
6.000000	69.764	49.2093
6.080000	70.156	48.7486
6.150000	70.495	48.3561
6.220000	70.830	47.9674
6.300000	71.207	47.5227
6.400000	71.671	46.9577
6.500000	72.125	46.3901
6.600000	72.571	45.8162
6.700000	73.007	45.2165
6.800000	73.431	44.5758
6.900000	73.845	43.9012
7.000000	74.248	43.2039
7.100000	74.639	42.4932
7.200000	75.017	41.7590
7.300000	75.383	41.0121
7.400000	75.737	40.2710
7.500000	76.079	39.5277
7.620000	76.473	38.6375
7.750000	76.884	37.7420
7.880000	77.277	36.9280
8.000000	77.627	36.2487
8.120000	77.967	35.6667
8.250000	78.325	35.1449
8.380000	78.675	34.7237
8.500000	78.996	34.4248
8.620000	79.313	34.2138
8.750000	79.657	34.0443
8.850000	79.922	33.9561
9.000000	80.320	33.8830
9.120000	80.640	33.8164
9.250000	80.987	33.7414
9.380000	81.334	33.6503
9.500000	81.651	33.5305
9.620000	81.966	33.3841
9.750000	82.301	33.1916
9.880000	82.627	32.9552
10.000000	82.922	32.7059
10.150000	83.276	32.3776
10.300000	83.616	32.0210
10.440000	83.921	31.7056
10.600000	84.255	31.3817
10.750000	84.556	31.1192
10.900000	84.848	30.9168
11.060000	85.153	30.7561
11.200000	85.418	30.6600
11.380000	85.757	30.5922
11.500000	85.985	30.5571
11.720000	86.405	30.5174
11.800000	86.558	30.4871
12.060000	87.057	30.3308
12.200000	87.320	30.1822
12.410000	87.706	29.8784
12.500000	87.865	29.7325
12.650000	88.122	29.4617
12.800000	88.367	29.1848
13.150000	88.872	28.5627
13.200000	88.908	28.4857
13.400000	88.975	28.2196
13.600000	88.982	28.0912
13.800000	88.975	28.0715
14.000000	88.982	28.1312
14.300000	89.028	28.2227
14.500000	89.077	28.2383
14.750000	89.145	28.1766
15.000000	89.214	27.9468
15.250000	89.276	27.5716
15.500000	89.322	27.1105
15.750000	89.337	26.6977
16.000000	89.340	26.3755
16.250000	89.346	26.1551
16.500000	89.362	26.0365
16.750000	89.386	26.0116
17.000000	89.427	25.9629
17.250000	89.483	25.8400
17.500000	89.544	25.6198
17.750000	89.590	25.3465
18.000000	89.624	25.0596
18.250000	89.652	24.8069
18.500000	89.678	24.6331
18.750000	89.705	24.5760
19.000000	89.750	24.5540
19.250000	89.817	24.4973
19.500000	89.901	24.3372
19.750000	89.983	24.0285
20.000000	90.056	23.5664
20.299999	90.118	22.8769
20.600000	90.141	22.1936
20.900000	90.128	21.6873
21.200001	90.109	21.4331
21.400000	90.104	21.4104
21.799999	90.136	21.5678
22.000000	90.177	21.6308
22.400000	90.298	21.5367
22.700001	90.391	21.2275
23.000000	90.465	20.7609
23.299999	90.517	20.2264
23.600000	90.544	19.7524
24.000000	90.564	19.3335
24.299999	90.587	19.1311
24.700001	90.637	18.9200
25.000000	90.683	18.7211
25.400000	90.748	18.3314
25.799999	90.795	17.8930
26.200001	90.830	17.4671
26.500000	90.852	17.1845
26.900000	90.875	16.8649
27.200001	90.895	16.6260
27.600000	90.919	16.3221
28.000000	90.939	16.0591
28.500000	90.973	15.7567
29.000000	91.016	15.4474
29.500000	91.068	15.0059
30.000000	91.102	14.4792
30.400000	91.117	14.0446
30.700001	91.122	13.7678
31.100000	91.130	13.4656
31.500000	91.149	13.1922
32.000000	91.181	12.8537
32.500000	91.223	12.4376
33.000000	91.259	11.9887
33.500000	91.291	11.4924
34.000000	91.310	11.0463
34.500000	91.329	10.6836
35.000000	91.357	10.4206
35.500000	91.407	10.0918
36.000000	91.452	9.6301
36.500000	91.471	9.0888
37.000000	91.465	8.7393
37.500000	91.481	8.6213
38.200001	91.577	8.3269
38.700001	91.649	7.6657
39.500000	91.639	6.4018
40.000000	91.590	6.0528
40.599998	91.587	5.9700
41.200001	91.639	5.6872
41.799999	91.674	5.1127
42.500000	91.681	4.5967
43.099998	91.716	4.3070
43.700001	91.775	3.7808
44.400002	91.805	2.9687
45.000000	91.805	2.4317
45.500000	91.815	2.0480
46.200001	91.830	1.4094
46.799999	91.813	0.9011
47.500000	91.799	0.6327
48.200001	91.842	0.3350
48.700001	91.874	-0.1597
49.400002	91.850	-0.9237
50.000000	91.801	-1.2055
50.799999	91.806	-1.2709
51.500000	91.854	-1.7032
52.200001	91.854	-2.4043
53.000000	91.807	-2.9496
53.799999	91.787	-3.2821
54.500000	91.786	-3.6597
55.200001	91.782	-4.0837
56.000000	91.781	-4.6396
57.000000	91.754	-5.4246
58.000000	91.722	-5.9114
59.000000	91.735	-6.4491
60.000000	91.739	-7.1208
60.799999	91.741	-7.6752
61.500000	91.732	-8.1926
62.200001	91.713	-8.6216
63.000000	91.706	-9.0706
64.000000	91.684	-9.7388
65.000000	91.654	-10.1327
66.000000	91.675	-10.6340
67.000000	91.656	-11.3336
68.000000	91.630	-11.8122
69.000000	91.614	-12.3622
70.000000	91.577	-12.8660
71.000000	91.547	-13.3317
72.000000	91.518	-13.8070
73.000000	91.487	-14.3578
74.000000	91.444	-14.8690
75.000000	91.417	-15.3518
76.199997	91.378	-16.0201
77.500000	91.340	-16.6161
78.800003	91.293	-17.2822
80.000000	91.255	-17.7308
81.199997	91.219	-18.3549
82.500000	91.155	-18.8774
83.800003	91.114	-19.4556
85.000000	91.058	-19.9699
86.199997	91.013	-20.4702
87.500000	90.959	-21.0170
88.500000	90.913	-21.4320
90.000000	90.855	-21.9717
91.199997	90.799	-22.5030
92.500000	90.740	-22.9804
93.800003	90.675	-23.4565
95.000000	90.627	-23.9297
96.199997	90.554	-24.3486
97.500000	90.508	-24.8828
98.800003	90.406	-25.3485
100.000000	90.362	-25.5990
101.500000	90.286	-26.1090
103.000000	90.210	-26.5178
104.400002	90.135	-26.8604
106.000000	90.056	-27.4010
107.500000	89.925	-27.8973
109.000000	89.871	-27.8613
110.599998	89.791	-28.6659
112.000000	89.688	-28.5847
113.800003	89.609	-28.9571
115.000000	89.456	-29.1652
117.199997	89.301	-29.5707
118.000000	89.279	-29.2966
120.599998	88.821	-30.0562
122.000000	89.112	-29.4276
124.099998	89.184	-29.3900
125.000000	89.171	-29.9868
126.500000	89.065	-29.3522
128.000000	89.092	-29.0148
131.500000	89.013	-30.0902
132.000000	89.007	-30.0992
134.000000	88.954	-31.3288
136.000000	88.870	-32.0690
138.000000	88.786	-32.8938
140.000000	88.701	-33.2409
143.000000	88.539	-33.9635
145.000000	88.432	-34.3635
147.500000	88.278	-34.7542
150.000000	88.126	-35.0397
152.500000	87.985	-35.3385
155.000000	87.863	-35.5390
157.500000	87.730	-35.6520
160.000000	87.600	-35.7838
162.500000	87.469	-35.8759
165.000000	87.340	-36.0093
167.500000	87.209	-36.1439
170.000000	87.077	-36.2945
172.500000	86.940	-36.4565
175.000000	86.802	-36.5619
177.500000	86.656	-36.6767
180.000000	86.513	-36.7638
182.500000	86.375	-36.6982
185.000000	86.234	-36.6576
187.500000	86.086	-36.6290
190.000000	85.946	-36.5524
192.500000	85.807	-36.4645
195.000000	85.671	-36.3877
197.500000	85.532	-36.1684
200.000000	85.391	-36.0233
203.000000	85.245	-35.7857
206.000000	85.112	-35.5379
209.000000	84.971	-35.1626
212.000000	84.826	-34.7598
214.000000	84.737	-34.5363
218.000000	84.552	-33.9546
220.000000	84.470	-33.5954
224.000000	84.312	-33.0560
227.000000	84.193	-32.4842
230.000000	84.076	-31.9716
233.000000	83.965	-31.3594
236.000000	83.862	-30.7097
240.000000	83.742	-29.9444
243.000000	83.647	-29.2974
247.000000	83.553	-28.3707
250.000000	83.477	-27.8541
254.000000	83.360	-26.9666
258.000000	83.281	-26.2803
262.000000	83.232	-25.5321
265.000000	83.209	-25.1014
269.000000	83.132	-24.5057
272.000000	83.054	-24.0970
276.000000	82.973	-23.4746
280.000000	82.884	-22.8090
285.000000	82.792	-21.9720
290.000000	82.706	-21.0770
295.000000	82.633	-20.0917
300.000000	82.554	-19.1607
304.000000	82.509	-18.4301
307.000000	82.469	-17.8686
311.000000	82.431	-17.1311
315.000000	82.399	-16.4048
320.000000	82.352	-15.5196
325.000000	82.318	-14.6467
330.000000	82.282	-13.7343
335.000000	82.257	-12.8917
340.000000	82.238	-12.0852
345.000000	82.225	-11.3264
350.000000	82.209	-10.5034
355.000000	82.211	-9.7613
360.000000	82.210	-9.0216
365.000000	82.198	-8.3424
370.000000	82.202	-7.6151
375.000000	82.205	-6.9569
382.000000	82.217	-6.0625
387.000000	82.223	-5.3550
395.000000	82.239	-4.3567
400.000000	82.251	-3.8784
406.000000	82.260	-3.1570
412.000000	82.287	-2.5461
418.000000	82.304	-1.8869
425.000000	82.324	-1.1923
431.000000	82.346	-0.5479
437.000000	82.362	-0.0184
444.000000	82.396	0.6069
450.000000	82.414	1.0889
455.000000	82.434	1.5091
462.000000	82.446	2.1502
468.000000	82.457	2.6225
475.000000	82.478	3.2291
482.000000	82.494	3.7244
487.000000	82.517	4.0927
494.000000	82.543	4.6030
500.000000	82.562	5.0288
508.000000	82.587	5.5871
515.000000	82.594	6.1347
522.000000	82.624	6.5731
530.000000	82.654	7.0602
538.000000	82.686	7.6266
545.000000	82.720	8.0392
552.000000	82.746	8.5144
560.000000	82.776	8.9345
570.000000	82.805	9.5210
580.000000	82.838	10.1388
590.000000	82.875	10.7299
600.000000	82.899	11.3711
608.000000	82.923	11.7297
615.000000	82.943	12.0864
622.000000	82.962	12.6242
630.000000	82.983	12.9857
640.000000	83.014	13.5945
650.000000	83.041	14.1718
660.000000	83.070	14.7462
670.000000	83.097	15.2590
680.000000	83.135	15.8456
690.000000	83.174	16.3964
700.000000	83.208	16.9283
710.000000	83.243	17.5181
720.000000	83.283	18.0466
730.000000	83.326	18.6090
740.000000	83.354	19.1964
750.000000	83.395	19.7578
762.000000	83.448	20.4032
775.000000	83.510	21.1452
788.000000	83.572	21.7741
800.000000	83.624	22.3908
812.000000	83.658	22.9240
825.000000	83.697	23.6987
838.000000	83.747	24.6316
850.000000	83.819	25.3806
862.000000	83.894	26.1290
875.000000	83.983	26.8311
885.000000	84.054	27.3634
900.000000	84.161	28.1271
912.000000	84.258	28.7173
925.000000	84.352	29.2584
938.000000	84.452	29.6529
950.000000	84.502	30.0104
962.000000	84.536	30.8113
975.000000	84.644	31.8068
988.000000	84.778	32.4677
1000.000000	84.892	33.0130
1015.000000	85.045	33.5841
1030.000000	85.188	34.1130
1044.000000	85.324	34.5403
1060.000000	85.480	35.0072
1075.000000	85.636	35.3446
1090.000000	85.785	35.6375
1106.000000	85.942	35.8772
1120.000000	86.070	36.1085
1138.000000	86.232	36.3049
1150.000000	86.341	36.3921
1172.000000	86.531	36.5345
1180.000000	86.589	36.6083
1206.000000	86.802	36.6556
1220.000000	86.912	36.6907
1241.000000	87.076	36.6790
1250.000000	87.137	36.6507
1265.000000	87.257	36.6249
1280.000000	87.361	36.5676
1315.000000	87.605	36.4652
1320.000000	87.634	36.5023
1340.000000	87.763	36.3517
1360.000000	87.888	36.2971
1380.000000	88.005	36.2289
1400.000000	88.123	36.1311
1430.000000	88.290	36.0542
1450.000000	88.393	35.9802
1475.000000	88.515	35.9487
1500.000000	88.637	35.9264
1525.000000	88.763	35.9135
1550.000000	88.884	35.8612
1575.000000	89.001	35.8700
1600.000000	89.123	35.8711
1625.000000	89.238	35.8940
1650.000000	89.347	35.8914
1675.000000	89.464	35.9090
1700.000000	89.577	35.9219
1725.000000	89.688	35.9660
1750.000000	89.802	35.9883
1775.000000	89.923	35.9970
1800.000000	90.038	36.0260
1825.000000	90.156	36.0416
1850.000000	90.273	36.0600
1875.000000	90.393	36.0836
1900.000000	90.517	36.0563
1925.000000	90.641	36.0310
1950.000000	90.755	36.0157
1975.000000	90.874	35.9905
2000.000000	90.996	35.9748
2030.000000	91.141	35.8956
2060.000000	91.297	35.7934
2090.000000	91.453	35.6711
2120.000000	91.607	35.5642
2140.000000	91.704	35.4579
2180.000000	91.908	35.2130
2200.000000	92.010	35.0909
2240.000000	92.210	34.7812
2270.000000	92.363	34.5284
2300.000000	92.509	34.2675
2330.000000	92.648	33.9591
2360.000000	92.790	33.6447
2400.000000	92.972	33.2309
2430.000000	93.112	32.9287
2470.000000	93.284	32.4688
2500.000000	93.416	32.1533
2540.000000	93.603	31.8596
2580.000000	93.814	31.5737
2620.000000	94.075	31.1436
2650.000000	94.265	30.5110
2690.000000	94.499	29.4837
2720.000000	94.667	28.4070
2760.000000	94.836	27.2412
2800.000000	94.984	25.7548
2850.000000	95.105	24.2989
2900.000000	95.202	22.5378
2950.000000	95.305	21.3413
3000.000000	95.334	19.8823
3040.000000	95.374	19.1830
3070.000000	95.462	18.3981
3110.000000	95.512	17.6552
3150.000000	95.570	16.2327
3200.000000	95.543	15.0278
3250.000000	95.594	13.5748
3300.000000	95.626	12.8201
3350.000000	95.540	11.4072
3400.000000	95.509	9.6067
3450.000000	95.450	8.2192
3500.000000	95.409	7.9184
3550.000000	95.350	6.3639
3600.000000	95.242	6.3582
3650.000000	95.100	4.8100
3700.000000	95.070	3.6856
3750.000000	94.902	3.8864
3820.000000	94.800	2.5557
3870.000000	94.726	2.6387
3950.000000	94.613	1.7099
4000.000000	94.319	0.8952
4060.000000	94.110	0.7833
4120.000000	94.166	-0.2647
4180.000000	94.027	0.0035
4250.000000	93.891	-0.1574
4310.000000	93.802	0.1941
4370.000000	93.600	-1.4259
4440.000000	93.435	-1.4654
4500.000000	93.289	-1.5934
4550.000000	93.196	-1.9898
4620.000000	93.153	-1.6119
4680.000000	92.915	-2.1965
4750.000000	92.823	-1.6871
4820.000000	92.598	-2.8570
4870.000000	92.556	-2.7724
4940.000000	92.444	-2.4951
5000.000000	92.388	-2.9655
5080.000000	92.071	-2.6072
5150.000000	91.873	-2.3557
5220.000000	91.695	-2.7721
5300.000000	91.400	-2.4426
5380.000000	91.083	-2.2652
5450.000000	91.090	-1.5984
5520.000000	90.853	-1.1001
5600.000000	90.730	-0.9868
5700.000000	90.336	-0.9320
5800.000000	90.050	0.4851
5900.000000	89.903	1.6151
6000.000000	89.767	2.3161
6080.000000	89.522	3.1643
6150.000000	89.305	4.6456
6220.000000	89.220	5.2281
6300.000000	89.276	6.9496
6400.000000	89.402	7.9525
6500.000000	89.331	8.6428
6600.000000	89.498	11.4955
6700.000000	89.754	11.8560
6800.000000	90.045	13.1699
6900.000000	90.274	14.9880
7000.000000	90.494	15.1415
7100.000000	91.036	15.2108
7200.000000	91.618	15.3960
7300.000000	92.202	14.0048
7400.000000	92.656	13.8117
7500.000000	93.328	10.3886
7620.000000	94.068	8.3666
7750.000000	94.633	2.9797
7880.000000	95.289	-4.0363
8000.000000	95.922	-9.9443
8120.000000	95.746	-17.8048
8250.000000	95.356	-25.8707
8380.000000	94.694	-33.3943
8500.000000	94.025	-39.4451
8620.000000	92.923	-43.2382
8750.000000	92.068	-46.0335
8850.000000	91.202	-47.4025
9000.000000	90.039	-48.6107
9120.000000	89.228	-47.0009
9250.000000	88.323	-46.0667
9380.000000	87.465	-43.8625
9500.000000	86.824	-42.4728
9620.000000	85.996	-39.2211
9750.000000	85.363	-36.4890
9880.000000	84.783	-33.5548
10000.000000	84.366	-29.2564
10150.000000	83.823	-24.2432
10300.000000	83.242	-20.3726
10440.000000	82.990	-14.7863
10600.000000	82.536	-9.3687
10750.000000	82.223	-5.3967
10900.000000	82.090	0.3056
11060.000000	81.770	5.0269
11200.000000	81.847	9.5230
11380.000000	81.611	15.3438
11500.000000	81.480	17.5455
11720.000000	81.478	23.9211
11800.000000	81.439	25.9419
12060.000000	81.278	32.0866
12200.000000	81.118	35.9153
12410.000000	81.131	41.4927
12500.000000	81.162	44.2107
12650.000000	81.257	47.5863
12800.000000	81.433	50.4234
13150.000000	82.204	57.4019
13200.000000	82.404	58.9918
13400.000000	83.188	61.4300
13600.000000	84.309	62.7279
13800.000000	85.874	61.5493
14000.000000	87.393	57.5084
14300.000000	90.311	41.4808
14500.000000	91.483	24.5937
14750.000000	91.549	-0.0695
15000.000000	90.174	-16.7388
15250.000000	88.610	-24.8147
15500.000000	87.459	-29.5474
15750.000000	86.439	-32.5967
16000.000000	85.504	-35.1971
16250.000000	85.183	-36.3022
16500.000000	84.335	-38.7148
16750.000000	83.402	-38.8512
17000.000000	82.127	-38.1986
17250.000000	80.633	-34.2896
17500.000000	78.966	-27.3630
17750.000000	77.631	-18.5406
18000.000000	76.617	-7.3482
18250.000000	75.198	1.2631
18500.000000	73.942	17.1077
18750.000000	73.673	33.2338
19000.000000	73.665	40.9167
19250.000000	71.984	47.8288
19500.000000	69.922	65.6768
19750.000000	68.798	93.7132
