* Measurement data measured by REW V5.30.9
* Source: Microphone (Realtek USB2.0 Audio), MICROPHONE (Master Volume), L, volume: 0.500
* Format: 512k Log Swept Sine, 1 sweep at -12.0 dBFS with no timing reference
* Dated: 04 19, 24 12:40:47 AM
* REW Settings:
*  C-weighting compensation: Off
*  Target level: 75.0 dB
* Note: ; 
* Measurement: hydra uuuu R
* Smoothing: None
* Frequency Step: 1/48 octave
* Start Frequency: 1.000 Hz
*
* Freq(Hz)	SPL(dB)	Phase(degrees)
1.000000	48.057	-67.5032
1.015000	47.798	-67.9756
1.030000	47.518	-68.5225
1.044000	47.236	-69.1115
1.060000	46.893	-69.8567
1.075000	46.554	-70.6051
1.090000	46.199	-71.3817
1.106000	45.807	-72.2194
1.120000	45.454	-72.9420
1.138000	44.991	-73.8304
1.150000	44.678	-74.3820
1.172000	44.099	-75.2714
1.180000	43.888	-75.5461
1.206000	43.208	-76.2116
1.220000	42.848	-76.4002
1.241000	42.321	-76.4173
1.250000	42.101	-76.3156
1.265000	41.745	-75.9851
1.280000	41.404	-75.4365
1.315000	40.678	-73.1993
1.320000	40.584	-72.7597
1.340000	40.234	-70.6728
1.360000	39.918	-67.9478
1.380000	39.605	-64.3958
1.400000	39.295	-60.1090
1.430000	38.847	-52.5362
1.450000	38.563	-46.8829
1.475000	38.231	-39.3250
1.500000	37.931	-31.4172
1.525000	37.670	-23.3696
1.550000	37.455	-15.3922
1.575000	37.291	-7.6952
1.600000	37.187	-0.4886
1.625000	37.149	6.0176
1.650000	37.183	11.6132
1.675000	37.297	16.0883
1.700000	37.508	19.4028
1.725000	37.842	21.9638
1.750000	38.284	23.8698
1.775000	38.815	25.1949
1.800000	39.418	26.0130
1.825000	40.075	26.3982
1.850000	40.768	26.4243
1.875000	41.478	26.1653
1.900000	42.189	25.6952
1.925000	42.882	25.0881
1.950000	43.539	24.4178
1.975000	44.142	23.7583
2.000000	44.674	23.1837
2.030000	45.199	22.6641
2.060000	45.655	21.9485
2.090000	46.063	20.9589
2.120000	46.431	19.7396
2.140000	46.657	18.8210
2.180000	47.069	16.7890
2.200000	47.259	15.7018
2.240000	47.616	13.4507
2.270000	47.871	11.7467
2.300000	48.122	10.0785
2.330000	48.375	8.4903
2.360000	48.635	7.0238
2.400000	48.969	5.0931
2.430000	49.203	3.6083
2.470000	49.496	1.6017
2.500000	49.705	0.0918
2.540000	49.972	-1.9056
2.580000	50.229	-3.8597
2.620000	50.483	-5.7427
2.650000	50.674	-7.0915
2.690000	50.932	-8.7832
2.720000	51.127	-9.9903
2.760000	51.380	-11.5717
2.800000	51.627	-13.1034
2.850000	51.931	-14.9188
2.900000	52.231	-16.5888
2.950000	52.531	-18.0757
3.000000	52.834	-19.3418
3.040000	53.081	-20.1743
3.070000	53.266	-20.7211
3.110000	53.514	-21.3583
3.150000	53.761	-21.8796
3.200000	54.071	-22.3502
3.250000	54.384	-22.5978
3.300000	54.700	-22.5995
3.350000	55.020	-22.3318
3.400000	55.345	-21.7774
3.450000	55.675	-20.9491
3.500000	56.007	-19.8645
3.550000	56.343	-18.5406
3.600000	56.682	-16.9946
3.650000	57.024	-15.2437
3.700000	57.369	-13.3048
3.750000	57.717	-11.0910
3.820000	58.212	-7.4693
3.870000	58.569	-4.6321
3.950000	59.143	0.0903
4.000000	59.501	3.0152
4.060000	59.930	6.3833
4.120000	60.360	9.8388
4.180000	60.792	13.3617
4.250000	61.295	17.3983
4.310000	61.722	20.6596
4.370000	62.143	23.6120
4.440000	62.628	26.6631
4.500000	63.041	29.0411
4.550000	63.382	30.8607
4.620000	63.853	33.1679
4.680000	64.249	34.9292
4.750000	64.704	36.7207
4.820000	65.150	38.1734
4.870000	65.463	39.0370
4.940000	65.895	40.0610
5.000000	66.260	40.8183
5.080000	66.737	41.7194
5.150000	67.145	42.3233
5.220000	67.545	42.7680
5.300000	67.994	43.1393
5.380000	68.436	43.4290
5.450000	68.817	43.6124
5.520000	69.190	43.6963
5.600000	69.610	43.7068
5.700000	70.126	43.6547
5.800000	70.633	43.5619
5.900000	71.130	43.3895
6.000000	71.616	43.1672
6.080000	71.997	42.9738
6.150000	72.326	42.7904
6.220000	72.649	42.5896
6.300000	73.013	42.3380
6.400000	73.455	41.9887
6.500000	73.885	41.6023
6.600000	74.303	41.1780
6.700000	74.707	40.7124
6.800000	75.096	40.1977
6.900000	75.470	39.6319
7.000000	75.831	39.0390
7.100000	76.179	38.4410
7.200000	76.511	37.8221
7.300000	76.830	37.1952
7.400000	77.138	36.5849
7.500000	77.434	35.9871
7.620000	77.775	35.2854
7.750000	78.133	34.6027
7.880000	78.479	34.0159
8.000000	78.790	33.5489
8.120000	79.099	33.1612
8.250000	79.430	32.8388
8.380000	79.760	32.5876
8.500000	80.066	32.4034
8.620000	80.374	32.2733
8.750000	80.707	32.1504
8.850000	80.965	32.0640
9.000000	81.354	31.9474
9.120000	81.662	31.8255
9.250000	81.996	31.6631
9.380000	82.326	31.4743
9.500000	82.626	31.2739
9.620000	82.921	31.0488
9.750000	83.236	30.7825
9.880000	83.543	30.4931
10.000000	83.821	30.2068
10.150000	84.160	29.8347
10.300000	84.491	29.4434
10.440000	84.792	29.0750
10.600000	85.127	28.6578
10.750000	85.432	28.2672
10.900000	85.728	27.8766
11.060000	86.035	27.4634
11.200000	86.294	27.1085
11.380000	86.614	26.6645
11.500000	86.819	26.3944
11.720000	87.178	25.9505
11.800000	87.304	25.8172
12.060000	87.698	25.4866
12.200000	87.905	25.3877
12.410000	88.210	25.3437
12.500000	88.343	25.3644
12.650000	88.567	25.4590
12.800000	88.796	25.5800
13.150000	89.345	25.8872
13.200000	89.395	25.9145
13.400000	89.537	25.9789
13.600000	89.636	25.9488
13.800000	89.705	25.8152
14.000000	89.780	25.5495
14.300000	89.877	24.9626
14.500000	89.924	24.5136
14.750000	89.950	23.9962
15.000000	89.958	23.5634
15.250000	89.960	23.2292
15.500000	89.965	23.0072
15.750000	89.969	22.9230
16.000000	89.989	22.8744
16.250000	90.029	22.8079
16.500000	90.082	22.6929
16.750000	90.131	22.5487
17.000000	90.181	22.3525
17.250000	90.231	22.1146
17.500000	90.280	21.8542
17.750000	90.316	21.6182
18.000000	90.352	21.3846
18.250000	90.390	21.1497
18.500000	90.429	20.9148
18.750000	90.460	20.7015
19.000000	90.493	20.4864
19.250000	90.529	20.2652
19.500000	90.565	20.0383
19.750000	90.596	19.8204
20.000000	90.626	19.5858
20.299999	90.662	19.2799
20.600000	90.692	18.9717
20.900000	90.709	18.7030
21.200001	90.725	18.4850
21.400000	90.736	18.3876
21.799999	90.767	18.3218
22.000000	90.796	18.3112
22.400000	90.882	18.2252
22.700001	90.963	18.0258
23.000000	91.045	17.6530
23.299999	91.118	17.0984
23.600000	91.165	16.4440
24.000000	91.181	15.6023
24.299999	91.170	15.0868
24.700001	91.143	14.6742
25.000000	91.130	14.5447
25.400000	91.147	14.4631
25.799999	91.190	14.3596
26.200001	91.246	14.1135
26.500000	91.285	13.8494
26.900000	91.318	13.4892
27.200001	91.336	13.2405
27.600000	91.356	12.9970
28.000000	91.381	12.8420
28.500000	91.434	12.6263
29.000000	91.490	12.3180
29.500000	91.538	11.9004
30.000000	91.568	11.5087
30.400000	91.592	11.2169
30.700001	91.610	11.0132
31.100000	91.638	10.7166
31.500000	91.664	10.3560
32.000000	91.680	9.9006
32.500000	91.687	9.5111
33.000000	91.698	9.2618
33.500000	91.734	8.9963
34.000000	91.778	8.6172
34.500000	91.814	8.1003
35.000000	91.825	7.6181
35.500000	91.832	7.2398
36.000000	91.846	6.9682
36.500000	91.875	6.6585
37.000000	91.903	6.3044
37.500000	91.927	5.9161
38.200001	91.952	5.4202
38.700001	91.973	5.0789
39.500000	92.004	4.4859
40.000000	92.018	4.0936
40.599998	92.031	3.6273
41.200001	92.040	3.2076
41.799999	92.056	2.7949
42.500000	92.077	2.2553
43.099998	92.084	1.7769
43.700001	92.087	1.3552
44.400002	92.103	0.9378
45.000000	92.125	0.5208
45.500000	92.138	0.1128
46.200001	92.140	-0.4074
46.799999	92.146	-0.7867
47.500000	92.158	-1.2597
48.200001	92.163	-1.7701
48.700001	92.163	-2.1088
49.400002	92.167	-2.5665
50.000000	92.171	-3.0013
50.799999	92.164	-3.5787
51.500000	92.156	-3.9861
52.200001	92.162	-4.3752
53.000000	92.169	-4.9164
53.799999	92.162	-5.4423
54.500000	92.158	-5.8209
55.200001	92.161	-6.2360
56.000000	92.151	-6.7730
57.000000	92.128	-7.2733
58.000000	92.131	-7.8090
59.000000	92.116	-8.4603
60.000000	92.102	-9.0523
60.799999	92.085	-9.6077
61.500000	92.059	-10.0130
62.200001	92.041	-10.3539
63.000000	92.025	-10.7635
64.000000	92.014	-11.1980
65.000000	92.022	-11.8164
66.000000	91.985	-12.5298
67.000000	91.942	-12.9827
68.000000	91.916	-13.4966
69.000000	91.886	-14.0294
70.000000	91.851	-14.5831
71.000000	91.814	-15.0777
72.000000	91.792	-15.5581
73.000000	91.761	-16.0941
74.000000	91.728	-16.5502
75.000000	91.696	-17.0230
76.199997	91.656	-17.5207
77.500000	91.614	-18.1154
78.800003	91.567	-18.7125
80.000000	91.513	-19.2985
81.199997	91.466	-19.7981
82.500000	91.418	-20.4233
83.800003	91.363	-20.9856
85.000000	91.314	-21.4493
86.199997	91.270	-21.8971
87.500000	91.217	-22.4264
88.500000	91.172	-22.8043
90.000000	91.100	-23.3975
91.199997	91.044	-23.8411
92.500000	90.981	-24.3487
93.800003	90.920	-24.8647
95.000000	90.853	-25.2488
96.199997	90.811	-25.6502
97.500000	90.731	-26.1274
98.800003	90.676	-26.4395
100.000000	90.611	-26.8728
101.500000	90.535	-27.3255
103.000000	90.439	-27.8352
104.400002	90.363	-28.1567
106.000000	90.288	-28.7207
107.500000	90.198	-29.0677
109.000000	90.123	-29.4567
110.599998	90.037	-29.8532
112.000000	89.947	-30.1928
113.800003	89.844	-30.5573
115.000000	89.782	-30.9425
117.199997	89.668	-31.3719
118.000000	89.608	-31.5640
120.599998	89.469	-32.4570
122.000000	89.347	-32.1832
124.099998	89.209	-32.3294
125.000000	89.189	-32.3243
126.500000	89.094	-32.8929
128.000000	88.976	-32.8771
131.500000	88.744	-32.9352
132.000000	88.717	-32.9311
134.000000	88.613	-33.0950
136.000000	88.502	-33.0352
138.000000	88.410	-32.7754
140.000000	88.352	-32.6036
143.000000	88.279	-32.1675
145.000000	88.281	-32.1910
147.500000	88.234	-32.4890
150.000000	88.240	-33.0035
152.500000	88.128	-33.6253
155.000000	88.011	-34.0700
157.500000	87.876	-34.5186
160.000000	87.755	-34.8998
162.500000	87.599	-35.0880
165.000000	87.448	-35.2317
167.500000	87.306	-35.3780
170.000000	87.150	-35.3942
172.500000	87.004	-35.4356
175.000000	86.864	-35.4785
177.500000	86.727	-35.3642
180.000000	86.571	-35.2554
182.500000	86.430	-35.1505
185.000000	86.303	-35.0583
187.500000	86.172	-34.8897
190.000000	86.038	-34.6800
192.500000	85.893	-34.5186
195.000000	85.787	-34.1317
197.500000	85.659	-34.0678
200.000000	85.539	-33.8188
203.000000	85.409	-33.5048
206.000000	85.288	-33.1621
209.000000	85.171	-32.7892
212.000000	85.058	-32.3241
214.000000	84.976	-32.0672
218.000000	84.836	-31.5391
220.000000	84.757	-31.2000
224.000000	84.625	-30.6567
227.000000	84.538	-30.1389
230.000000	84.442	-29.6443
233.000000	84.352	-29.1463
236.000000	84.260	-28.6228
240.000000	84.152	-27.9375
243.000000	84.073	-27.3540
247.000000	83.978	-26.6537
250.000000	83.905	-26.0565
254.000000	83.811	-25.2869
258.000000	83.721	-24.5702
262.000000	83.644	-23.8359
265.000000	83.589	-23.2409
269.000000	83.524	-22.5230
272.000000	83.476	-21.9480
276.000000	83.420	-21.2690
280.000000	83.368	-20.5800
285.000000	83.299	-19.7449
290.000000	83.244	-18.9077
295.000000	83.187	-18.0666
300.000000	83.135	-17.2832
304.000000	83.104	-16.6431
307.000000	83.078	-16.1432
311.000000	83.048	-15.4820
315.000000	83.023	-14.8034
320.000000	82.985	-14.0713
325.000000	82.956	-13.2809
330.000000	82.943	-12.5596
335.000000	82.931	-11.8893
340.000000	82.919	-11.1821
345.000000	82.904	-10.4692
350.000000	82.897	-9.8718
355.000000	82.895	-9.1796
360.000000	82.893	-8.5667
365.000000	82.880	-8.1092
370.000000	82.895	-7.5721
375.000000	82.887	-6.8823
382.000000	82.892	-6.1950
387.000000	82.876	-5.6263
395.000000	82.886	-4.8331
400.000000	82.900	-4.3354
406.000000	82.889	-3.7640
412.000000	82.902	-3.2192
418.000000	82.907	-2.7080
425.000000	82.906	-2.0781
431.000000	82.921	-1.6166
437.000000	82.942	-1.0456
444.000000	82.946	-0.5074
450.000000	82.955	-0.0742
455.000000	82.958	0.3507
462.000000	82.966	0.8891
468.000000	82.980	1.3288
475.000000	82.988	1.7866
482.000000	82.995	2.3075
487.000000	83.002	2.6786
494.000000	82.997	3.1928
500.000000	82.995	3.5832
508.000000	83.000	4.1594
515.000000	83.004	4.6565
522.000000	83.025	5.0762
530.000000	83.046	5.5802
538.000000	83.053	6.1731
545.000000	83.052	6.6600
552.000000	83.068	7.0708
560.000000	83.075	7.5983
570.000000	83.086	8.1992
580.000000	83.102	8.8404
590.000000	83.120	9.4349
600.000000	83.131	10.1028
608.000000	83.151	10.5387
615.000000	83.153	11.0304
622.000000	83.171	11.4585
630.000000	83.180	11.9932
640.000000	83.203	12.5858
650.000000	83.225	13.1850
660.000000	83.242	13.8099
670.000000	83.260	14.4216
680.000000	83.285	15.0745
690.000000	83.312	15.7164
700.000000	83.342	16.3330
710.000000	83.356	16.9487
720.000000	83.396	17.6199
730.000000	83.420	18.2088
740.000000	83.451	18.8681
750.000000	83.486	19.5285
762.000000	83.529	20.2435
775.000000	83.580	21.1087
788.000000	83.633	21.8406
800.000000	83.689	22.4132
812.000000	83.724	22.8716
825.000000	83.694	23.7370
838.000000	83.740	25.0910
850.000000	83.814	26.0204
862.000000	83.897	26.8771
875.000000	83.974	27.7268
885.000000	84.043	28.3751
900.000000	84.149	29.2843
912.000000	84.228	30.0131
925.000000	84.313	30.7725
938.000000	84.403	31.6575
950.000000	84.486	32.4606
962.000000	84.587	33.4181
975.000000	84.753	34.3377
988.000000	84.924	34.9151
1000.000000	85.054	35.2695
1015.000000	85.205	35.7777
1030.000000	85.355	36.2591
1044.000000	85.492	36.6573
1060.000000	85.656	37.1137
1075.000000	85.801	37.5667
1090.000000	85.950	37.9227
1106.000000	86.115	38.1973
1120.000000	86.246	38.5373
1138.000000	86.417	38.7703
1150.000000	86.523	38.9560
1172.000000	86.715	39.1736
1180.000000	86.784	39.2600
1206.000000	87.016	39.3911
1220.000000	87.140	39.4664
1241.000000	87.315	39.4984
1250.000000	87.389	39.5106
1265.000000	87.518	39.5174
1280.000000	87.626	39.5180
1315.000000	87.892	39.4247
1320.000000	87.924	39.4533
1340.000000	88.063	39.3982
1360.000000	88.197	39.3580
1380.000000	88.331	39.3245
1400.000000	88.457	39.2836
1430.000000	88.643	39.2366
1450.000000	88.757	39.2275
1475.000000	88.906	39.1777
1500.000000	89.044	39.1439
1525.000000	89.175	39.1400
1550.000000	89.306	39.0958
1575.000000	89.438	39.1159
1600.000000	89.575	39.0808
1625.000000	89.701	39.0852
1650.000000	89.828	39.1084
1675.000000	89.965	39.0775
1700.000000	90.096	39.0567
1725.000000	90.221	39.0907
1750.000000	90.340	39.0966
1775.000000	90.460	39.1004
1800.000000	90.585	39.0616
1825.000000	90.708	39.0389
1850.000000	90.833	39.0067
1875.000000	90.959	38.9783
1900.000000	91.087	38.9146
1925.000000	91.211	38.8350
1950.000000	91.339	38.7589
1975.000000	91.469	38.6532
2000.000000	91.602	38.5334
2030.000000	91.759	38.3708
2060.000000	91.913	38.1714
2090.000000	92.070	37.9275
2120.000000	92.218	37.7202
2140.000000	92.314	37.5512
2180.000000	92.501	37.2252
2200.000000	92.586	37.0369
2240.000000	92.753	36.7430
2270.000000	92.867	36.6059
2300.000000	92.979	36.5752
2330.000000	93.095	36.6623
2360.000000	93.236	36.9293
2400.000000	93.500	37.4008
2430.000000	93.753	37.4265
2470.000000	94.110	36.9044
2500.000000	94.358	36.1971
2540.000000	94.668	34.9510
2580.000000	94.924	33.4479
2620.000000	95.142	31.8344
2650.000000	95.253	30.5957
2690.000000	95.378	29.0886
2720.000000	95.478	27.8612
2760.000000	95.567	26.6169
2800.000000	95.651	25.1128
2850.000000	95.716	23.6860
2900.000000	95.776	21.9398
2950.000000	95.857	20.6881
3000.000000	95.855	19.0190
3040.000000	95.853	18.1169
3070.000000	95.900	17.1424
3110.000000	95.879	16.2547
3150.000000	95.856	14.8409
3200.000000	95.733	13.7855
3250.000000	95.701	12.5945
3300.000000	95.649	12.1436
3350.000000	95.496	11.0992
3400.000000	95.406	9.7610
3450.000000	95.305	8.8438
3500.000000	95.233	9.0427
3550.000000	95.149	7.9998
3600.000000	95.028	8.5206
3650.000000	94.887	7.4563
3700.000000	94.857	6.7865
3750.000000	94.692	7.4485
3820.000000	94.613	6.6208
3870.000000	94.555	7.0605
3950.000000	94.474	6.7177
4000.000000	94.201	6.2543
4060.000000	94.032	6.5406
4120.000000	94.128	5.8443
4180.000000	94.026	6.4734
4250.000000	93.927	6.6775
4310.000000	93.863	7.3534
4370.000000	93.705	6.0799
4440.000000	93.593	6.5125
4500.000000	93.497	6.7348
4550.000000	93.444	6.6214
4620.000000	93.469	7.4230
4680.000000	93.302	7.1473
4750.000000	93.297	7.9788
4820.000000	93.156	7.1197
4870.000000	93.182	7.4264
4940.000000	93.158	7.8913
5000.000000	93.195	7.6138
5080.000000	92.991	8.0247
5150.000000	92.900	8.4072
5220.000000	92.832	8.0324
5300.000000	92.663	8.2646
5380.000000	92.481	8.2869
5450.000000	92.601	8.7501
5520.000000	92.483	9.0019
5600.000000	92.490	8.7444
5700.000000	92.254	8.2125
5800.000000	92.117	8.8752
5900.000000	92.108	9.2095
6000.000000	92.099	8.9473
6080.000000	91.946	8.9040
6150.000000	91.790	9.6766
6220.000000	91.761	9.4249
6300.000000	91.866	10.1297
6400.000000	92.021	9.8644
6500.000000	91.960	9.2208
6600.000000	92.109	10.8210
6700.000000	92.305	9.9887
6800.000000	92.525	10.0668
6900.000000	92.641	10.8081
7000.000000	92.734	9.9524
7100.000000	93.110	9.2596
7200.000000	93.517	8.8762
7300.000000	93.913	7.1826
7400.000000	94.189	6.9737
7500.000000	94.705	3.6726
7620.000000	95.289	1.9597
7750.000000	95.717	-3.1529
7880.000000	96.258	-10.0199
8000.000000	96.752	-15.9071
8120.000000	96.417	-23.6917
8250.000000	95.816	-31.5074
8380.000000	94.925	-38.2403
8500.000000	94.084	-43.3352
8620.000000	92.844	-45.8769
8750.000000	91.887	-47.2630
8850.000000	90.975	-47.5942
9000.000000	89.773	-47.2714
9120.000000	88.958	-44.6003
9250.000000	88.063	-42.5463
9380.000000	87.240	-39.2478
9500.000000	86.644	-36.9391
9620.000000	85.870	-32.8907
9750.000000	85.316	-29.3360
9880.000000	84.819	-25.6256
10000.000000	84.484	-20.7777
10150.000000	84.043	-15.1807
10300.000000	83.572	-10.7291
10440.000000	83.437	-4.8213
10600.000000	83.120	0.8916
10750.000000	82.941	5.0370
10900.000000	82.933	10.8189
11060.000000	82.735	15.6491
11200.000000	82.934	20.1453
11380.000000	82.864	25.9022
11500.000000	82.848	28.1544
11720.000000	83.128	34.1216
11800.000000	83.188	36.0069
12060.000000	83.351	41.0523
12200.000000	83.370	44.2992
12410.000000	83.636	48.9218
12500.000000	83.774	51.1813
12650.000000	84.082	53.9719
12800.000000	84.503	56.4710
13150.000000	86.204	62.5348
13200.000000	86.626	63.8069
13400.000000	88.373	64.0869
13600.000000	90.734	60.1171
13800.000000	93.683	47.0579
14000.000000	95.326	20.6730
14300.000000	93.343	-17.7616
14500.000000	91.024	-27.5061
14750.000000	89.043	-32.6222
15000.000000	87.591	-33.0639
15250.000000	86.529	-31.2601
15500.000000	85.917	-30.0153
15750.000000	85.337	-29.2914
16000.000000	84.716	-29.2248
16250.000000	84.679	-28.3787
16500.000000	84.084	-28.9785
16750.000000	83.438	-27.5390
17000.000000	82.522	-26.2225
17250.000000	81.438	-22.4684
17500.000000	80.173	-17.4628
17750.000000	79.048	-12.7834
18000.000000	77.772	-4.7793
18250.000000	76.443	2.4024
18500.000000	75.160	12.9007
18750.000000	74.100	21.9902
19000.000000	72.914	28.7325
19250.000000	71.416	35.8629
19500.000000	69.631	39.2161
19750.000000	67.192	39.7864
