* Measurement data measured by REW V5.30.9
* Source: Microphone (Realtek USB2.0 Audio), MICROPHONE (Master Volume), L, volume: 0.500
* Format: 512k Log Swept Sine, 1 sweep at -12.0 dBFS with no timing reference
* Dated: 02 22, 24 11:35:48 PM
* REW Settings:
*  C-weighting compensation: Off
*  Target level: 75.0 dB
* Note: ; 
* Measurement: K1 l
* Smoothing: None
* Frequency Step: 1/48 octave
* Start Frequency: 1.000 Hz
*
* Freq(Hz)	SPL(dB)	Phase(degrees)
1.000000	48.561	-70.4688
1.015000	48.363	-71.3138
1.030000	48.174	-72.1632
1.044000	48.009	-72.9596
1.060000	47.829	-73.8721
1.075000	47.666	-74.7277
1.090000	47.507	-75.5817
1.106000	47.338	-76.4886
1.120000	47.187	-77.2770
1.138000	46.987	-78.2811
1.150000	46.847	-78.9430
1.172000	46.573	-80.1374
1.180000	46.465	-80.5647
1.206000	46.084	-81.9226
1.220000	45.854	-82.6319
1.241000	45.470	-83.6630
1.250000	45.290	-84.0917
1.265000	44.966	-84.7871
1.280000	44.611	-85.4571
1.315000	43.645	-86.9107
1.320000	43.490	-87.1048
1.340000	42.823	-87.8445
1.360000	42.046	-88.6510
1.380000	41.088	-89.8402
1.400000	39.972	-91.3443
1.430000	38.064	-93.9929
1.450000	36.679	-95.8880
1.475000	34.870	-98.2432
1.500000	33.028	-100.4181
1.525000	31.210	-102.2355
1.550000	29.472	-103.5186
1.575000	27.870	-104.0903
1.600000	26.461	-103.7736
1.625000	25.300	-102.3916
1.650000	24.444	-99.7672
1.675000	23.950	-95.7236
1.700000	23.863	-89.8765
1.725000	24.152	-81.7431
1.750000	24.765	-71.6709
1.775000	25.652	-60.0506
1.800000	26.761	-47.2727
1.825000	28.040	-33.7279
1.850000	29.437	-19.8068
1.875000	30.901	-5.9001
1.900000	32.380	7.6016
1.925000	33.823	20.3077
1.950000	35.179	31.8277
1.975000	36.395	41.7708
2.000000	37.420	49.7464
2.030000	38.347	56.2645
2.060000	39.107	60.1133
2.090000	39.767	61.8387
2.120000	40.337	61.7917
2.140000	40.674	60.9490
2.180000	41.262	57.7848
2.200000	41.520	55.6714
2.240000	41.982	50.9018
2.270000	42.298	47.2594
2.300000	42.600	43.9514
2.330000	42.902	41.3287
2.360000	43.215	39.7252
2.400000	43.599	38.1645
2.430000	43.845	36.9980
2.470000	44.128	35.4605
2.500000	44.311	34.3290
2.540000	44.526	32.8618
2.580000	44.717	31.4559
2.620000	44.895	30.1269
2.650000	45.028	29.1897
2.690000	45.210	28.0321
2.720000	45.346	27.2195
2.760000	45.508	26.1757
2.800000	45.651	25.1914
2.850000	45.812	24.0684
2.900000	45.962	23.0933
2.950000	46.111	22.2965
3.000000	46.268	21.7084
3.040000	46.406	21.4056
3.070000	46.509	21.2557
3.110000	46.643	21.1491
3.150000	46.776	21.1567
3.200000	46.945	21.3392
3.250000	47.123	21.7286
3.300000	47.316	22.3408
3.350000	47.528	23.1917
3.400000	47.762	24.3008
3.450000	48.013	25.6732
3.500000	48.277	27.2834
3.550000	48.557	29.1047
3.600000	48.850	31.1107
3.650000	49.157	33.2747
3.700000	49.478	35.5699
3.750000	49.817	38.0844
3.820000	50.322	42.0483
3.870000	50.699	45.0760
3.950000	51.321	50.0146
4.000000	51.714	53.0216
4.060000	52.185	56.4348
4.120000	52.667	59.8581
4.180000	53.158	63.2808
4.250000	53.736	67.1380
4.310000	54.229	70.2116
4.370000	54.712	72.9634
4.440000	55.268	75.7509
4.500000	55.742	77.8617
4.550000	56.133	79.4399
4.620000	56.673	81.3968
4.680000	57.127	82.8616
4.750000	57.644	84.3221
4.820000	58.148	85.4363
4.870000	58.502	86.0566
4.940000	58.989	86.7457
5.000000	59.397	87.2288
5.080000	59.930	87.7917
5.150000	60.383	88.1153
5.220000	60.826	88.2949
5.300000	61.321	88.3873
5.380000	61.807	88.4303
5.450000	62.224	88.4253
5.520000	62.632	88.3435
5.600000	63.090	88.1927
5.700000	63.653	87.9815
5.800000	64.207	87.7794
5.900000	64.750	87.5477
6.000000	65.283	87.3075
6.080000	65.706	87.1249
6.150000	66.071	86.9745
6.220000	66.433	86.8268
6.300000	66.841	86.6532
6.400000	67.345	86.4163
6.500000	67.841	86.1653
6.600000	68.330	85.8975
6.700000	68.811	85.5904
6.800000	69.283	85.2278
6.900000	69.746	84.8188
7.000000	70.201	84.3702
7.100000	70.646	83.8873
7.200000	71.083	83.3642
7.300000	71.510	82.8072
7.400000	71.928	82.2269
7.500000	72.338	81.6164
7.620000	72.818	80.8490
7.750000	73.325	80.0242
7.880000	73.819	79.2134
8.000000	74.264	78.4772
8.120000	74.700	77.7726
8.250000	75.161	77.0415
8.380000	75.612	76.3435
8.500000	76.020	75.7313
8.620000	76.420	75.1491
8.750000	76.844	74.5472
8.850000	77.165	74.1066
9.000000	77.637	73.4773
9.120000	78.008	72.9844
9.250000	78.402	72.4599
9.380000	78.788	71.9485
9.500000	79.140	71.4888
9.620000	79.485	71.0413
9.750000	79.854	70.5650
9.880000	80.217	70.0960
10.000000	80.547	69.6699
10.150000	80.954	69.1412
10.300000	81.355	68.6162
10.440000	81.723	68.1342
10.600000	82.138	67.5964
10.750000	82.519	67.0998
10.900000	82.895	66.6064
11.060000	83.288	66.0851
11.200000	83.624	65.6316
11.380000	84.047	65.0543
11.500000	84.323	64.6807
11.720000	84.814	64.0178
11.800000	84.989	63.7858
12.060000	85.543	63.0654
12.200000	85.834	62.6991
12.410000	86.259	62.1795
12.500000	86.439	61.9729
12.650000	86.735	61.6523
12.800000	87.027	61.3426
13.150000	87.681	60.6348
13.200000	87.741	60.5284
13.400000	87.913	60.0950
13.600000	88.033	59.6727
13.800000	88.118	59.2486
14.000000	88.210	58.8026
14.300000	88.348	58.0805
14.500000	88.436	57.5860
14.750000	88.530	57.0033
15.000000	88.620	56.4236
15.250000	88.709	55.8362
15.500000	88.797	55.2493
15.750000	88.874	54.7103
16.000000	88.951	54.1754
16.250000	89.034	53.6321
16.500000	89.121	53.0810
16.750000	89.199	52.5579
17.000000	89.278	52.0231
17.250000	89.360	51.4663
17.500000	89.441	50.8873
17.750000	89.511	50.3166
18.000000	89.576	49.7389
18.250000	89.638	49.1648
18.500000	89.696	48.6119
18.750000	89.744	48.1216
19.000000	89.793	47.6736
19.250000	89.848	47.2557
19.500000	89.908	46.8561
19.750000	89.968	46.4674
20.000000	90.032	46.0507
20.299999	90.109	45.5036
20.600000	90.181	44.9294
20.900000	90.239	44.3743
21.200001	90.294	43.8488
21.400000	90.331	43.5297
21.799999	90.404	42.9695
22.000000	90.446	42.6914
22.400000	90.538	42.0777
22.700001	90.603	41.5627
23.000000	90.658	41.0076
23.299999	90.703	40.4361
23.600000	90.736	39.9176
24.000000	90.768	39.3816
24.299999	90.802	39.0607
24.700001	90.860	38.6944
25.000000	90.915	38.3957
25.400000	90.999	37.8751
25.799999	91.073	37.2529
26.200001	91.135	36.5532
26.500000	91.171	36.0161
26.900000	91.203	35.3448
27.200001	91.221	34.8730
27.600000	91.240	34.3357
28.000000	91.262	33.9164
28.500000	91.320	33.4366
29.000000	91.402	32.8475
29.500000	91.486	32.0033
30.000000	91.535	31.0631
30.400000	91.552	30.3731
30.700001	91.559	29.9613
31.100000	91.576	29.5222
31.500000	91.611	29.0976
32.000000	91.657	28.5076
32.500000	91.689	27.8630
33.000000	91.700	27.3814
33.500000	91.723	27.0676
34.000000	91.770	26.7924
34.500000	91.832	26.3516
35.000000	91.875	25.7982
35.500000	91.900	25.2383
36.000000	91.917	24.7650
36.500000	91.943	24.2522
37.000000	91.962	23.6721
37.500000	91.966	23.0787
38.200001	91.960	22.4908
38.700001	91.982	22.2007
39.500000	92.063	21.5777
40.000000	92.114	21.0469
40.599998	92.161	20.3803
41.200001	92.194	19.7595
41.799999	92.211	19.2040
42.500000	92.215	18.7506
43.099998	92.228	18.5248
43.700001	92.259	18.2520
44.400002	92.292	17.7421
45.000000	92.296	17.2040
45.500000	92.285	16.7718
46.200001	92.274	16.2726
46.799999	92.289	15.7853
47.500000	92.303	14.9604
48.200001	92.271	14.2048
48.700001	92.250	13.9602
49.400002	92.281	13.8046
50.000000	92.338	13.5363
50.799999	92.408	13.0723
51.500000	92.454	12.4986
52.200001	92.414	11.8895
53.000000	92.338	12.0207
53.799999	92.395	11.7919
54.500000	92.315	10.6899
55.200001	92.149	10.7361
56.000000	92.315	10.3953
57.000000	92.068	5.3488
58.000000	91.120	8.1368
59.000000	91.971	12.1033
60.000000	92.352	7.2891
60.799999	92.176	6.6388
61.500000	92.315	6.8873
62.200001	92.418	5.9159
63.000000	92.363	5.4695
64.000000	92.404	5.5223
65.000000	92.376	5.0560
66.000000	92.370	4.9725
67.000000	92.385	4.2264
68.000000	92.327	3.5274
69.000000	92.317	3.2855
70.000000	92.351	2.7737
71.000000	92.342	2.4173
72.000000	92.381	2.1329
73.000000	92.347	1.4500
74.000000	92.259	1.2955
75.000000	92.229	1.3227
76.199997	92.272	0.9534
77.500000	92.259	-0.0341
78.800003	92.252	-0.5881
80.000000	92.226	-0.9523
81.199997	92.271	-1.2843
82.500000	92.185	-1.8409
83.800003	92.197	-2.0273
85.000000	92.130	-2.7225
86.199997	92.088	-3.0897
87.500000	92.084	-3.1076
88.500000	92.169	-3.8450
90.000000	92.037	-4.4487
91.199997	92.076	-4.7386
92.500000	91.977	-5.2635
93.800003	91.928	-5.1734
95.000000	92.037	-5.2226
96.199997	92.015	-6.6355
97.500000	91.923	-6.1495
98.800003	91.955	-6.5289
100.000000	91.942	-6.3604
101.500000	91.892	-7.2572
103.000000	91.848	-7.5227
104.400002	91.774	-8.0709
106.000000	91.765	-8.4593
107.500000	91.764	-8.7377
109.000000	91.700	-9.0372
110.599998	91.714	-9.6071
112.000000	91.565	-10.2168
113.800003	91.628	-10.5484
115.000000	91.653	-10.1679
117.199997	91.520	-10.7586
118.000000	91.558	-10.1889
120.599998	91.695	-8.2341
122.000000	91.468	-11.4034
124.099998	91.222	-12.1080
125.000000	91.286	-11.2152
126.500000	91.366	-13.3098
128.000000	91.233	-12.2443
131.500000	91.268	-13.2674
132.000000	91.251	-13.4222
134.000000	91.197	-13.7539
136.000000	91.211	-13.9951
138.000000	91.194	-14.2271
140.000000	91.106	-14.5419
143.000000	91.049	-15.0388
145.000000	91.018	-15.2925
147.500000	90.979	-15.5261
150.000000	90.890	-15.9665
152.500000	90.909	-16.1160
155.000000	90.868	-16.4789
157.500000	90.782	-16.6551
160.000000	90.728	-16.8294
162.500000	90.679	-17.1757
165.000000	90.616	-17.2443
167.500000	90.521	-17.8055
170.000000	90.475	-18.0568
172.500000	90.408	-18.1634
175.000000	90.334	-18.1703
177.500000	90.270	-18.5908
180.000000	90.232	-18.9570
182.500000	90.156	-18.9940
185.000000	90.086	-18.9659
187.500000	90.011	-19.3603
190.000000	89.932	-19.6288
192.500000	89.917	-19.5616
195.000000	89.819	-19.5045
197.500000	89.769	-19.7185
200.000000	89.681	-19.6874
203.000000	89.670	-20.2571
206.000000	89.547	-20.0857
209.000000	89.515	-20.4891
212.000000	89.465	-20.3464
214.000000	89.441	-20.5359
218.000000	89.336	-20.6862
220.000000	89.301	-20.6262
224.000000	89.225	-20.7342
227.000000	89.175	-20.8206
230.000000	89.119	-20.7529
233.000000	89.020	-20.8270
236.000000	89.054	-20.7100
240.000000	88.943	-20.1753
243.000000	88.892	-20.5057
247.000000	88.834	-20.9792
250.000000	88.816	-20.8452
254.000000	88.720	-20.9874
258.000000	88.658	-20.9654
262.000000	88.597	-21.1408
265.000000	88.537	-21.0268
269.000000	88.470	-21.1052
272.000000	88.385	-21.0468
276.000000	88.352	-20.9891
280.000000	88.262	-20.9140
285.000000	88.208	-20.8993
290.000000	88.154	-20.8348
295.000000	88.045	-20.9390
300.000000	87.961	-20.7967
304.000000	87.902	-20.5900
307.000000	87.853	-20.5479
311.000000	87.774	-20.5201
315.000000	87.717	-20.4215
320.000000	87.660	-20.4584
325.000000	87.554	-20.3296
330.000000	87.474	-19.9556
335.000000	87.386	-19.9732
340.000000	87.365	-19.7196
345.000000	87.273	-19.4784
350.000000	87.190	-19.3931
355.000000	87.114	-19.4145
360.000000	87.021	-17.7906
365.000000	86.974	-18.9690
370.000000	86.955	-18.7751
375.000000	86.866	-18.5967
382.000000	86.761	-18.1230
387.000000	86.703	-17.8537
395.000000	86.596	-17.6130
400.000000	86.550	-17.0576
406.000000	86.468	-17.0369
412.000000	86.417	-16.4540
418.000000	86.356	-16.0695
425.000000	86.298	-15.6201
431.000000	86.241	-15.2031
437.000000	86.188	-14.8531
444.000000	86.163	-14.6381
450.000000	86.145	-14.3189
455.000000	86.066	-13.9093
462.000000	86.026	-13.6545
468.000000	85.976	-13.5572
475.000000	85.910	-13.2470
482.000000	85.898	-13.2587
487.000000	85.783	-12.5291
494.000000	85.726	-12.2059
500.000000	85.704	-11.8276
508.000000	85.637	-11.2813
515.000000	85.584	-10.9057
522.000000	85.471	-10.5777
530.000000	85.482	-10.0497
538.000000	85.415	-9.7083
545.000000	85.369	-9.2314
552.000000	85.315	-8.7766
560.000000	85.259	-8.3159
570.000000	85.199	-7.4417
580.000000	85.129	-6.9981
590.000000	85.079	-6.2800
600.000000	85.036	-5.4842
608.000000	84.979	-5.1146
615.000000	84.922	-4.7302
622.000000	84.903	-4.1071
630.000000	84.873	-3.5437
640.000000	84.802	-2.9865
650.000000	84.758	-2.2755
660.000000	84.702	-1.3065
670.000000	84.663	-0.8035
680.000000	84.624	0.0017
690.000000	84.552	0.3000
700.000000	84.430	1.0145
710.000000	84.281	2.0921
720.000000	84.225	3.6964
730.000000	84.174	5.3566
740.000000	84.149	7.0045
750.000000	84.171	8.6639
762.000000	84.256	10.7670
775.000000	84.464	12.6934
788.000000	84.683	13.7531
800.000000	84.880	14.3892
812.000000	85.011	14.9361
825.000000	85.089	15.1839
838.000000	85.151	15.5899
850.000000	85.201	16.0481
862.000000	85.246	16.6206
875.000000	85.292	17.2587
885.000000	85.329	17.8565
900.000000	85.389	18.6422
912.000000	85.446	19.4111
925.000000	85.501	20.1043
938.000000	85.578	20.9307
950.000000	85.644	21.6042
962.000000	85.702	22.3140
975.000000	85.803	23.0099
988.000000	85.901	23.6975
1000.000000	85.994	24.3453
1015.000000	86.095	25.1297
1030.000000	86.222	25.7765
1044.000000	86.339	26.4587
1060.000000	86.472	27.0815
1075.000000	86.606	27.5920
1090.000000	86.731	28.1310
1106.000000	86.877	28.6297
1120.000000	87.002	29.0484
1138.000000	87.152	29.4553
1150.000000	87.262	29.8088
1172.000000	87.452	30.1382
1180.000000	87.515	30.2901
1206.000000	87.734	30.6487
1220.000000	87.840	30.9002
1241.000000	88.008	31.0812
1250.000000	88.077	31.1574
1265.000000	88.194	31.2873
1280.000000	88.305	31.3825
1315.000000	88.564	31.6214
1320.000000	88.607	31.6482
1340.000000	88.740	31.7321
1360.000000	88.883	31.8559
1380.000000	89.013	31.9188
1400.000000	89.147	32.0146
1430.000000	89.332	32.1228
1450.000000	89.454	32.1556
1475.000000	89.623	32.2940
1500.000000	89.782	32.3546
1525.000000	89.945	32.4685
1550.000000	90.115	32.4711
1575.000000	90.271	32.4641
1600.000000	90.443	32.4596
1625.000000	90.604	32.4154
1650.000000	90.778	32.3650
1675.000000	90.947	32.2316
1700.000000	91.116	32.0911
1725.000000	91.285	31.8829
1750.000000	91.461	31.6214
1775.000000	91.630	31.3108
1800.000000	91.804	30.9735
1825.000000	91.973	30.5147
1850.000000	92.135	30.0214
1875.000000	92.298	29.4826
1900.000000	92.455	28.8227
1925.000000	92.609	28.1808
1950.000000	92.744	27.4411
1975.000000	92.876	26.6153
2000.000000	93.002	25.7657
2030.000000	93.147	24.6529
2060.000000	93.272	23.5103
2090.000000	93.382	22.2532
2120.000000	93.469	21.0323
2140.000000	93.524	20.1784
2180.000000	93.585	18.4491
2200.000000	93.616	17.6028
2240.000000	93.627	15.9095
2270.000000	93.613	14.7079
2300.000000	93.586	13.5857
2330.000000	93.542	12.5154
2360.000000	93.479	11.5325
2400.000000	93.377	10.3077
2430.000000	93.284	9.5522
2470.000000	93.149	8.6393
2500.000000	93.041	8.0876
2540.000000	92.901	7.5423
2580.000000	92.748	7.0771
2620.000000	92.607	6.8859
2650.000000	92.489	6.8792
2690.000000	92.342	7.0498
2720.000000	92.264	7.1654
2760.000000	92.169	7.6459
2800.000000	92.087	7.8135
2850.000000	91.966	8.3772
2900.000000	91.848	8.6783
2950.000000	91.778	9.5509
3000.000000	91.645	10.1912
3040.000000	91.572	11.1589
3070.000000	91.582	11.6309
3110.000000	91.531	12.6790
3150.000000	91.504	13.0871
3200.000000	91.396	14.3746
3250.000000	91.424	15.4149
3300.000000	91.476	17.1697
3350.000000	91.447	18.2382
3400.000000	91.515	18.8241
3450.000000	91.590	19.7345
3500.000000	91.718	21.5687
3550.000000	91.853	22.0530
3600.000000	91.971	23.8864
3650.000000	92.080	24.0950
3700.000000	92.330	24.5582
3750.000000	92.458	26.1504
3820.000000	92.852	26.4143
3870.000000	93.147	27.3732
3950.000000	93.699	26.8980
4000.000000	93.805	24.4825
4060.000000	93.678	27.2245
4120.000000	94.553	25.6313
4180.000000	95.008	24.1541
4250.000000	95.481	21.2834
4310.000000	95.841	18.5998
4370.000000	96.007	13.3739
4440.000000	96.122	8.5580
4500.000000	96.070	4.1069
4550.000000	95.955	0.2675
4620.000000	95.742	-3.8090
4680.000000	95.296	-7.7907
4750.000000	94.886	-10.8268
4820.000000	94.251	-15.2583
4870.000000	93.872	-17.1749
4940.000000	93.210	-19.0701
5000.000000	92.653	-20.7374
5080.000000	91.673	-21.1752
5150.000000	90.924	-20.7899
5220.000000	90.243	-20.5975
5300.000000	89.431	-19.0119
5380.000000	88.664	-17.2189
5450.000000	88.327	-14.8543
5520.000000	87.803	-12.5380
5600.000000	87.400	-10.1336
5700.000000	86.733	-6.9756
5800.000000	86.261	-2.4541
5900.000000	85.983	1.8121
6000.000000	85.775	5.7008
6080.000000	85.528	8.9899
6150.000000	85.309	12.7338
6220.000000	85.246	15.4529
6300.000000	85.337	19.6082
6400.000000	85.547	23.7402
6500.000000	85.578	27.6161
6600.000000	85.891	33.6636
6700.000000	86.313	37.2776
6800.000000	86.842	41.7648
6900.000000	87.287	46.5527
7000.000000	87.720	49.9675
7100.000000	88.529	54.0090
7200.000000	89.515	57.9640
7300.000000	90.564	60.2720
7400.000000	91.586	63.6312
7500.000000	92.939	63.4876
7620.000000	94.680	64.5174
7750.000000	96.534	60.1696
7880.000000	98.482	50.6722
8000.000000	99.931	39.2790
8120.000000	99.932	25.6324
8250.000000	99.283	14.1571
8380.000000	98.345	6.8960
8500.000000	97.720	2.6406
8620.000000	96.948	0.8954
8750.000000	96.733	-0.4678
8850.000000	96.508	-1.8084
9000.000000	96.427	-5.1549
9120.000000	96.497	-7.5928
9250.000000	96.429	-13.3566
9380.000000	96.108	-19.9840
9500.000000	95.593	-27.5263
9620.000000	94.547	-33.1402
9750.000000	93.390	-38.7408
9880.000000	92.088	-42.5553
10000.000000	90.997	-43.3994
10150.000000	89.590	-43.3816
10300.000000	88.232	-43.3211
10440.000000	87.347	-40.9350
10600.000000	86.274	-38.5967
10750.000000	85.484	-37.5553
10900.000000	84.935	-34.7553
11060.000000	84.244	-33.3535
11200.000000	84.078	-31.8059
11380.000000	83.538	-30.3902
11500.000000	83.197	-31.1854
11720.000000	82.925	-30.0715
11800.000000	82.776	-30.3419
12060.000000	82.062	-31.1052
12200.000000	81.451	-29.8605
12410.000000	80.889	-25.0060
12500.000000	80.926	-22.3489
12650.000000	80.865	-21.1305
12800.000000	80.815	-16.5016
13150.000000	81.281	-22.8875
13200.000000	81.000	-22.5436
13400.000000	79.673	-19.5766
13600.000000	78.737	-11.7300
13800.000000	78.381	-2.3168
14000.000000	78.111	8.3467
14300.000000	78.841	22.6461
14500.000000	79.511	31.4847
14750.000000	80.806	37.8889
15000.000000	81.895	41.4917
15250.000000	82.706	43.4620
15500.000000	83.419	43.0290
15750.000000	83.921	41.6934
16000.000000	84.550	38.7242
16250.000000	86.303	33.4377
16500.000000	88.146	17.1626
16750.000000	89.155	-14.9399
17000.000000	86.536	-49.6822
17250.000000	82.785	-67.2296
17500.000000	79.372	-74.2299
17750.000000	77.150	-71.4096
18000.000000	76.203	-68.1134
18250.000000	75.122	-59.7151
18500.000000	76.458	-45.0718
18750.000000	78.196	-48.3106
19000.000000	78.041	-52.9244
19250.000000	77.069	-51.0864
19500.000000	76.129	-43.9383
19750.000000	75.042	-31.5332
