* Measurement data measured by REW V5.30.9
* Source: Microphone (Realtek USB2.0 Audio), MICROPHONE (Master Volume), L, volume: 0.500
* Format: 512k Log Swept Sine, 1 sweep at -12.0 dBFS with no timing reference
* Dated: 02 23, 24 12:12:12 AM
* REW Settings:
*  C-weighting compensation: Off
*  Target level: 75.0 dB
* Note: ; 
* Measurement: kailua r
* Smoothing: None
* Frequency Step: 1/48 octave
* Start Frequency: 1.000 Hz
*
* Freq(Hz)	SPL(dB)	Phase(degrees)
1.000000	48.843	-52.1230
1.015000	48.654	-52.4461
1.030000	48.459	-52.7965
1.044000	48.272	-53.1528
1.060000	48.053	-53.5851
1.075000	47.842	-54.0051
1.090000	47.627	-54.4303
1.106000	47.391	-54.8793
1.120000	47.181	-55.2598
1.138000	46.905	-55.7198
1.150000	46.717	-56.0011
1.172000	46.367	-56.4467
1.180000	46.237	-56.5817
1.206000	45.808	-56.8989
1.220000	45.573	-56.9807
1.241000	45.214	-56.9663
1.250000	45.058	-56.9045
1.265000	44.795	-56.7201
1.280000	44.530	-56.4261
1.315000	43.900	-55.2629
1.320000	43.809	-55.0373
1.340000	43.441	-53.9727
1.360000	43.057	-52.6300
1.380000	42.626	-51.0027
1.400000	42.155	-49.1151
1.430000	41.392	-45.8513
1.450000	40.859	-43.4242
1.475000	40.180	-40.1522
1.500000	39.503	-36.6621
1.525000	38.846	-33.0034
1.550000	38.225	-29.2258
1.575000	37.659	-25.3788
1.600000	37.163	-21.5121
1.625000	36.756	-17.6753
1.650000	36.455	-13.9179
1.675000	36.276	-10.2897
1.700000	36.233	-6.7088
1.725000	36.319	-2.8646
1.750000	36.517	1.1975
1.775000	36.811	5.4096
1.800000	37.186	9.7039
1.825000	37.624	14.0126
1.850000	38.111	18.2676
1.875000	38.630	22.4011
1.900000	39.165	26.3453
1.925000	39.700	30.0323
1.950000	40.219	33.3942
1.975000	40.707	36.3631
2.000000	41.146	38.8711
2.030000	41.595	41.1865
2.060000	42.023	42.7984
2.090000	42.449	43.8075
2.120000	42.871	44.3013
2.140000	43.150	44.3875
2.180000	43.698	44.0928
2.200000	43.966	43.7638
2.240000	44.490	42.8720
2.270000	44.869	42.1006
2.300000	45.235	41.3383
2.330000	45.586	40.6727
2.360000	45.920	40.1860
2.400000	46.335	39.5126
2.430000	46.626	38.8808
2.470000	46.990	37.9009
2.500000	47.250	37.0846
2.540000	47.581	35.9195
2.580000	47.903	34.7031
2.620000	48.219	33.4750
2.650000	48.458	32.5701
2.690000	48.781	31.4169
2.720000	49.025	30.5674
2.760000	49.344	29.3802
2.800000	49.655	28.1535
2.850000	50.038	26.6025
2.900000	50.417	25.0776
2.950000	50.798	23.6275
3.000000	51.183	22.3010
3.040000	51.496	21.3554
3.070000	51.734	20.6684
3.110000	52.052	19.7674
3.150000	52.371	18.9057
3.200000	52.772	17.9212
3.250000	53.174	17.0839
3.300000	53.577	16.4413
3.350000	53.981	16.0410
3.400000	54.385	15.8964
3.450000	54.792	15.9407
3.500000	55.201	16.1773
3.550000	55.610	16.6150
3.600000	56.017	17.2624
3.650000	56.421	18.1284
3.700000	56.821	19.2217
3.750000	57.216	20.6080
3.820000	57.766	23.0524
3.870000	58.155	25.0581
3.950000	58.771	28.5128
4.000000	59.150	30.7106
4.060000	59.597	33.2957
4.120000	60.037	36.0371
4.180000	60.471	38.9084
4.250000	60.969	42.2710
4.310000	61.392	45.0341
4.370000	61.811	47.5672
4.440000	62.294	50.2422
4.500000	62.702	52.3923
4.550000	63.039	54.0769
4.620000	63.509	56.2618
4.680000	63.911	57.9640
4.750000	64.381	59.7340
4.820000	64.849	61.2584
4.870000	65.183	62.2152
4.940000	65.650	63.3991
5.000000	66.051	64.2954
5.080000	66.587	65.3529
5.150000	67.059	66.1105
5.220000	67.532	66.7157
5.300000	68.071	67.2449
5.380000	68.605	67.6281
5.450000	69.070	67.8342
5.520000	69.535	67.9036
5.600000	70.062	67.8494
5.700000	70.705	67.6383
5.800000	71.331	67.2845
5.900000	71.942	66.7516
6.000000	72.533	66.1116
6.080000	72.985	65.5690
6.150000	73.369	65.0487
6.220000	73.740	64.4873
6.300000	74.150	63.8196
6.400000	74.637	62.9868
6.500000	75.096	62.1430
6.600000	75.528	61.2852
6.700000	75.937	60.4553
6.800000	76.323	59.6711
6.900000	76.683	58.9081
7.000000	77.027	58.2056
7.100000	77.360	57.6041
7.200000	77.677	57.0946
7.300000	77.984	56.6691
7.400000	78.293	56.3281
7.500000	78.605	56.0867
7.620000	78.980	55.9125
7.750000	79.405	55.7926
7.880000	79.853	55.7700
8.000000	80.285	55.7806
8.120000	80.734	55.7021
8.250000	81.245	55.5578
8.380000	81.766	55.2830
8.500000	82.248	54.8432
8.620000	82.734	54.2527
8.750000	83.248	53.4426
8.850000	83.629	52.6856
9.000000	84.181	51.3568
9.120000	84.593	50.1810
9.250000	85.008	48.7660
9.380000	85.390	47.2788
9.500000	85.709	45.9066
9.620000	85.997	44.5034
9.750000	86.278	43.0406
9.880000	86.524	41.6656
10.000000	86.723	40.4709
10.150000	86.947	39.1804
10.300000	87.138	38.1024
10.440000	87.307	37.3285
10.600000	87.490	36.7603
10.750000	87.666	36.4802
10.900000	87.861	36.4363
11.060000	88.089	36.5978
11.200000	88.319	36.8071
11.380000	88.651	37.1749
11.500000	88.893	37.3621
11.720000	89.378	37.6050
11.800000	89.559	37.6182
12.060000	90.168	37.3778
12.200000	90.489	37.0746
12.410000	90.959	36.4079
12.500000	91.150	36.0850
12.650000	91.457	35.4817
12.800000	91.747	34.8519
13.150000	92.344	33.3651
13.200000	92.391	33.1609
13.400000	92.502	32.3757
13.600000	92.555	31.7073
13.800000	92.572	31.1321
14.000000	92.601	30.6240
14.300000	92.660	29.8979
14.500000	92.707	29.4223
14.750000	92.761	28.8452
15.000000	92.817	28.2266
15.250000	92.872	27.5633
15.500000	92.925	26.8775
15.750000	92.961	26.2426
16.000000	92.996	25.6379
16.250000	93.037	25.0554
16.500000	93.084	24.4939
16.750000	93.126	23.9764
17.000000	93.175	23.4449
17.250000	93.228	22.8793
17.500000	93.284	22.2728
17.750000	93.326	21.6558
18.000000	93.363	21.0189
18.250000	93.394	20.3781
18.500000	93.418	19.7564
18.750000	93.429	19.2015
19.000000	93.439	18.7002
19.250000	93.450	18.2488
19.500000	93.465	17.8440
19.750000	93.479	17.4877
20.000000	93.498	17.1396
20.299999	93.529	16.7089
20.600000	93.562	16.2570
20.900000	93.589	15.7897
21.200001	93.615	15.2871
21.400000	93.630	14.9443
21.799999	93.645	14.2966
22.000000	93.649	13.9887
22.400000	93.656	13.4090
22.700001	93.660	13.0235
23.000000	93.666	12.6514
23.299999	93.678	12.2512
23.600000	93.690	11.8250
24.000000	93.697	11.2341
24.299999	93.699	10.7742
24.700001	93.693	10.2135
25.000000	93.689	9.8415
25.400000	93.696	9.3502
25.799999	93.711	8.8279
26.200001	93.730	8.1939
26.500000	93.737	7.6609
26.900000	93.726	6.9710
27.200001	93.710	6.4980
27.600000	93.687	5.9812
28.000000	93.671	5.5672
28.500000	93.673	5.0383
29.000000	93.674	4.4819
29.500000	93.673	3.9369
30.000000	93.676	3.4651
30.400000	93.691	3.0381
30.700001	93.701	2.6678
31.100000	93.703	2.1088
31.500000	93.688	1.5423
32.000000	93.653	0.9878
32.500000	93.632	0.5468
33.000000	93.626	0.0681
33.500000	93.615	-0.5839
34.000000	93.570	-1.2108
34.500000	93.513	-1.6306
35.000000	93.475	-1.8081
35.500000	93.483	-2.0010
36.000000	93.512	-2.3930
36.500000	93.529	-3.0459
37.000000	93.508	-3.7434
37.500000	93.461	-4.2956
38.200001	93.401	-4.7021
38.700001	93.389	-4.9556
39.500000	93.371	-5.6623
40.000000	93.330	-6.1095
40.599998	93.287	-6.4714
41.200001	93.274	-6.9029
41.799999	93.249	-7.6435
42.500000	93.151	-8.4132
43.099998	93.078	-8.6067
43.700001	93.083	-8.8064
44.400002	93.106	-9.5413
45.000000	93.076	-10.2157
45.500000	93.049	-10.5536
46.200001	93.053	-10.9380
46.799999	93.058	-11.4694
47.500000	93.007	-11.9711
48.200001	92.954	-11.9910
48.700001	92.951	-11.9194
49.400002	92.961	-12.0046
50.000000	92.960	-12.1529
50.799999	92.977	-12.5517
51.500000	92.951	-13.4563
52.200001	92.797	-14.1822
53.000000	92.683	-13.8060
53.799999	92.810	-14.4191
54.500000	92.732	-16.4963
55.200001	92.392	-17.0476
56.000000	92.339	-15.3341
57.000000	92.581	-16.7477
58.000000	92.259	-17.2957
59.000000	92.508	-15.8413
60.000000	92.584	-19.0228
60.799999	92.182	-19.3906
61.500000	92.128	-17.8132
62.200001	92.311	-17.8525
63.000000	92.318	-19.5585
64.000000	92.061	-20.4833
65.000000	91.929	-19.9470
66.000000	92.010	-19.6672
67.000000	92.107	-20.7711
68.000000	91.990	-22.1538
69.000000	91.782	-22.3446
70.000000	91.670	-21.6862
71.000000	91.692	-21.3557
72.000000	91.695	-21.6867
73.000000	91.688	-22.0637
74.000000	91.679	-22.9010
75.000000	91.603	-23.6735
76.199997	91.539	-24.2786
77.500000	91.469	-24.8408
78.800003	91.375	-24.9999
80.000000	91.356	-24.7483
81.199997	91.284	-25.1305
82.500000	91.153	-24.6211
83.800003	91.125	-25.0109
85.000000	90.928	-25.4900
86.199997	90.857	-25.3037
87.500000	90.793	-26.3701
88.500000	90.697	-26.4493
90.000000	90.706	-27.3622
91.199997	90.589	-27.5008
92.500000	90.568	-27.6959
93.800003	90.474	-27.6949
95.000000	90.425	-27.6524
96.199997	90.390	-27.8496
97.500000	90.287	-28.3001
98.800003	90.209	-28.4168
100.000000	90.156	-28.4882
101.500000	90.166	-29.0134
103.000000	90.026	-29.3264
104.400002	89.964	-29.0897
106.000000	89.878	-29.3430
107.500000	89.737	-29.1335
109.000000	89.542	-30.3197
110.599998	89.531	-28.7189
112.000000	89.467	-30.9072
113.800003	89.482	-30.4092
115.000000	89.381	-29.8110
117.199997	89.240	-29.6038
118.000000	89.265	-29.7585
120.599998	89.018	-27.0449
122.000000	88.826	-29.4341
124.099998	88.628	-29.8187
125.000000	88.840	-27.6668
126.500000	88.688	-27.9047
128.000000	89.386	-26.3506
131.500000	88.991	-29.7144
132.000000	88.775	-29.8120
134.000000	88.682	-29.5205
136.000000	88.805	-30.4103
138.000000	88.699	-30.0187
140.000000	88.638	-30.9709
143.000000	88.529	-30.1857
145.000000	88.473	-30.7029
147.500000	88.382	-30.6476
150.000000	88.286	-30.0440
152.500000	88.180	-30.3183
155.000000	88.109	-30.6131
157.500000	88.020	-30.8223
160.000000	87.911	-30.9306
162.500000	87.814	-31.1164
165.000000	87.732	-31.0829
167.500000	87.644	-31.0297
170.000000	87.540	-31.1119
172.500000	87.425	-30.9329
175.000000	87.322	-30.9795
177.500000	87.231	-30.8403
180.000000	87.113	-30.7314
182.500000	87.028	-30.7559
185.000000	86.936	-30.6094
187.500000	86.839	-30.5143
190.000000	86.742	-30.3337
192.500000	86.630	-30.1917
195.000000	86.553	-29.8918
197.500000	86.434	-29.6417
200.000000	86.370	-29.2707
203.000000	86.252	-28.8407
206.000000	86.176	-28.3235
209.000000	86.108	-27.8136
212.000000	86.068	-27.0601
214.000000	86.064	-26.8574
218.000000	86.094	-26.1489
220.000000	86.099	-26.1371
224.000000	86.113	-26.0564
227.000000	86.090	-26.1067
230.000000	86.054	-26.1954
233.000000	86.016	-26.2505
236.000000	85.953	-26.3846
240.000000	85.880	-26.0009
243.000000	85.861	-26.2803
247.000000	85.771	-26.1589
250.000000	85.734	-26.2720
254.000000	85.671	-25.9685
258.000000	85.592	-25.8174
262.000000	85.506	-25.6606
265.000000	85.445	-25.5750
269.000000	85.363	-25.3491
272.000000	85.316	-25.3255
276.000000	85.239	-25.0320
280.000000	85.162	-24.7363
285.000000	85.067	-24.4542
290.000000	84.999	-24.0699
295.000000	84.903	-23.7172
300.000000	84.829	-23.4934
304.000000	84.749	-23.1338
307.000000	84.712	-22.9179
311.000000	84.639	-22.6987
315.000000	84.595	-22.2688
320.000000	84.525	-21.9837
325.000000	84.455	-21.5777
330.000000	84.386	-21.2088
335.000000	84.316	-20.8364
340.000000	84.264	-20.3626
345.000000	84.205	-20.0511
350.000000	84.140	-19.6145
355.000000	84.093	-19.2018
360.000000	83.893	-18.4285
365.000000	83.964	-18.5369
370.000000	83.900	-18.2437
375.000000	83.875	-17.7316
382.000000	83.809	-17.2046
387.000000	83.767	-16.6643
395.000000	83.704	-16.1365
400.000000	83.652	-15.6728
406.000000	83.600	-15.2447
412.000000	83.554	-14.6975
418.000000	83.509	-14.2635
425.000000	83.464	-13.7626
431.000000	83.412	-13.1231
437.000000	83.362	-12.7736
444.000000	83.326	-12.1479
450.000000	83.274	-11.7516
455.000000	83.261	-11.3442
462.000000	83.212	-10.7416
468.000000	83.179	-10.2174
475.000000	83.153	-9.6846
482.000000	83.120	-9.1584
487.000000	83.092	-8.8095
494.000000	83.059	-8.2333
500.000000	83.026	-7.8141
508.000000	82.994	-7.1417
515.000000	82.973	-6.5593
522.000000	82.932	-6.0389
530.000000	82.903	-5.4024
538.000000	82.883	-4.7590
545.000000	82.860	-4.1842
552.000000	82.847	-3.6514
560.000000	82.820	-3.0542
570.000000	82.797	-2.2468
580.000000	82.778	-1.4612
590.000000	82.748	-0.7293
600.000000	82.756	-0.0475
608.000000	82.734	0.6867
615.000000	82.723	1.2837
622.000000	82.718	1.7713
630.000000	82.706	2.3159
640.000000	82.706	3.1059
650.000000	82.693	3.9334
660.000000	82.696	4.6529
670.000000	82.705	5.3855
680.000000	82.720	6.1322
690.000000	82.724	6.9241
700.000000	82.736	7.6912
710.000000	82.721	8.4597
720.000000	82.744	9.2172
730.000000	82.766	9.9742
740.000000	82.796	10.6604
750.000000	82.828	11.4463
762.000000	82.870	12.3351
775.000000	82.901	13.2383
788.000000	82.932	14.2786
800.000000	82.974	15.1837
812.000000	83.026	16.0295
825.000000	83.083	16.9100
838.000000	83.140	17.8022
850.000000	83.180	18.6504
862.000000	83.243	19.6083
875.000000	83.316	20.4141
885.000000	83.388	21.0915
900.000000	83.465	22.0387
912.000000	83.546	22.8205
925.000000	83.645	23.6028
938.000000	83.726	24.3883
950.000000	83.813	25.1218
962.000000	83.892	25.8019
975.000000	84.003	26.4997
988.000000	84.120	27.1064
1000.000000	84.224	27.7095
1015.000000	84.365	28.4248
1030.000000	84.489	29.0530
1044.000000	84.632	29.6052
1060.000000	84.777	30.1583
1075.000000	84.906	30.6827
1090.000000	85.036	31.1576
1106.000000	85.212	31.5608
1120.000000	85.362	31.8467
1138.000000	85.536	32.1477
1150.000000	85.641	32.3406
1172.000000	85.847	32.7296
1180.000000	85.921	32.8368
1206.000000	86.165	33.0476
1220.000000	86.284	33.1443
1241.000000	86.464	33.1764
1250.000000	86.549	33.1618
1265.000000	86.672	33.1750
1280.000000	86.800	32.9910
1315.000000	86.977	32.4383
1320.000000	86.980	32.4064
1340.000000	87.074	33.2791
1360.000000	87.303	33.5970
1380.000000	87.518	33.3639
1400.000000	87.701	32.7916
1430.000000	87.742	32.2481
1450.000000	87.843	32.9717
1475.000000	88.065	33.1674
1500.000000	88.277	32.9062
1525.000000	88.468	32.5463
1550.000000	88.666	32.1200
1575.000000	88.840	31.6048
1600.000000	89.000	31.0606
1625.000000	89.147	30.4366
1650.000000	89.276	29.7765
1675.000000	89.403	29.0321
1700.000000	89.516	28.2574
1725.000000	89.602	27.4601
1750.000000	89.667	26.6287
1775.000000	89.718	25.8314
1800.000000	89.747	25.0218
1825.000000	89.752	24.2492
1850.000000	89.732	23.5541
1875.000000	89.709	22.9140
1900.000000	89.655	22.4058
1925.000000	89.586	22.0880
1950.000000	89.499	21.8592
1975.000000	89.411	21.8495
2000.000000	89.312	22.0657
2030.000000	89.216	22.6048
2060.000000	89.129	23.5362
2090.000000	89.071	24.8162
2120.000000	89.073	26.4740
2140.000000	89.121	27.7128
2180.000000	89.371	30.0423
2200.000000	89.550	30.9441
2240.000000	89.932	32.0736
2270.000000	90.201	32.6156
2300.000000	90.477	32.8943
2330.000000	90.756	32.9682
2360.000000	91.027	32.9646
2400.000000	91.414	32.7670
2430.000000	91.727	32.4140
2470.000000	92.142	31.5103
2500.000000	92.434	30.3624
2540.000000	92.791	28.4187
2580.000000	93.069	26.1231
2620.000000	93.285	23.6901
2650.000000	93.386	21.8104
2690.000000	93.466	19.5169
2720.000000	93.504	17.6888
2760.000000	93.507	15.7056
2800.000000	93.475	13.5493
2850.000000	93.347	11.5034
2900.000000	93.198	9.3672
2950.000000	93.059	8.0670
3000.000000	92.845	6.6484
3040.000000	92.685	6.1531
3070.000000	92.627	5.5786
3110.000000	92.466	5.3049
3150.000000	92.328	4.5189
3200.000000	92.077	4.3887
3250.000000	91.936	4.2030
3300.000000	91.805	4.8655
3350.000000	91.595	4.9527
3400.000000	91.465	4.7184
3450.000000	91.338	4.8800
3500.000000	91.264	6.1330
3550.000000	91.178	6.1683
3600.000000	91.067	7.8040
3650.000000	90.967	7.9616
3700.000000	91.025	8.5783
3750.000000	90.990	10.4342
3820.000000	91.123	11.0488
3870.000000	91.242	12.2033
3950.000000	91.488	12.6733
4000.000000	91.432	12.5163
4060.000000	91.529	12.8864
4120.000000	91.900	12.0024
4180.000000	92.078	11.9563
4250.000000	92.296	10.9356
4310.000000	92.489	10.0937
4370.000000	92.542	6.8093
4440.000000	92.593	4.1339
4500.000000	92.522	1.3163
4550.000000	92.400	-1.5022
4620.000000	92.130	-4.4466
4680.000000	91.540	-7.5740
4750.000000	90.873	-9.0856
4820.000000	89.936	-10.8076
4870.000000	89.350	-10.1379
4940.000000	88.499	-7.5933
5000.000000	87.894	-4.7333
5080.000000	87.040	1.5247
5150.000000	86.607	8.0028
5220.000000	86.469	14.2426
5300.000000	86.502	21.7699
5380.000000	86.806	28.4860
5450.000000	87.525	34.0389
5520.000000	88.122	38.3068
5600.000000	89.059	41.5737
5700.000000	90.085	43.7556
5800.000000	91.285	45.0125
5900.000000	92.608	43.7921
6000.000000	93.828	39.6805
6080.000000	94.520	34.9078
6150.000000	94.926	30.5484
6220.000000	95.264	24.5287
6300.000000	95.478	18.6100
6400.000000	95.392	11.5101
6500.000000	95.023	6.4707
6600.000000	94.926	3.5771
6700.000000	94.660	-1.3890
6800.000000	94.310	-4.0367
6900.000000	93.862	-4.8984
7000.000000	93.432	-6.3050
7100.000000	93.349	-6.9527
7200.000000	93.362	-6.7628
7300.000000	93.461	-7.7115
7400.000000	93.488	-7.0473
7500.000000	93.839	-9.3590
7620.000000	94.312	-10.0509
7750.000000	94.736	-14.5626
7880.000000	95.324	-21.8559
8000.000000	95.819	-29.3254
8120.000000	95.316	-39.3204
8250.000000	94.294	-49.4019
8380.000000	92.852	-57.2707
8500.000000	91.476	-62.2799
8620.000000	89.764	-64.1216
8750.000000	88.367	-64.3777
8850.000000	87.140	-63.7013
9000.000000	85.521	-61.8772
9120.000000	84.389	-57.8087
9250.000000	83.125	-54.3231
9380.000000	81.915	-49.2372
9500.000000	80.943	-44.7557
9620.000000	79.809	-38.0615
9750.000000	78.907	-31.0271
9880.000000	78.126	-23.2090
10000.000000	77.620	-13.7795
10150.000000	77.059	-1.6476
10300.000000	76.656	10.2903
10440.000000	76.937	24.1758
10600.000000	77.611	39.1453
10750.000000	78.906	49.9694
10900.000000	80.713	58.9312
11060.000000	82.524	62.2118
11200.000000	84.210	61.6763
11380.000000	85.387	58.6573
11500.000000	85.825	54.9832
11720.000000	86.438	53.1324
11800.000000	86.546	52.9176
12060.000000	87.069	53.6573
12200.000000	87.411	55.2835
12410.000000	88.456	57.2854
12500.000000	89.069	58.1246
12650.000000	90.254	57.3697
12800.000000	91.672	54.3389
13150.000000	95.229	29.3757
13200.000000	95.508	23.8714
13400.000000	94.766	-1.4957
13600.000000	92.563	-16.7715
13800.000000	90.513	-23.0074
14000.000000	88.556	-24.1943
14300.000000	86.904	-22.3140
14500.000000	86.116	-18.8210
14750.000000	85.914	-15.6687
15000.000000	85.970	-13.0093
15250.000000	86.351	-11.7090
15500.000000	86.986	-15.5307
15750.000000	87.083	-24.5683
16000.000000	86.075	-35.7550
16250.000000	84.734	-41.6591
16500.000000	82.757	-42.8229
16750.000000	81.138	-38.0149
17000.000000	79.788	-31.0997
17250.000000	78.844	-21.8061
17500.000000	78.200	-12.4638
17750.000000	78.145	-4.8381
18000.000000	78.368	2.1031
18250.000000	78.610	3.7168
18500.000000	78.423	4.1984
18750.000000	78.132	2.8443
19000.000000	77.205	0.8970
19250.000000	76.115	1.8667
19500.000000	75.521	2.2347
19750.000000	74.715	1.7634
