* Measurement data measured by REW V5.20.13
* Source: Trace Arithmetic result A / B
* Format: Trace Arithmetic result A / B
* Dated: Feb 24, 2024 10:21:01 PM
* REW Settings:
*  C-weighting compensation: Off
*  Target level: 75.0 dB
* Note: Trace Arithmetic A over B A = OB_KATO_R B = OB Calib
* Measurement: KATO R
* Smoothing: 1/24 octave
* Frequency Step: 1/48 octave
* Start Frequency: 20.000 Hz
*
* Freq(Hz) SPL(dB)
20.000000 72.876
20.299999 72.952
20.600000 72.900
20.900000 72.902
21.200001 72.906
21.400000 72.903
21.799999 72.881
22.000000 72.870
22.400000 72.849
22.700001 72.832
23.000000 72.813
23.299999 72.794
23.600000 72.781
24.000000 72.772
24.299999 72.766
24.700001 72.754
25.000000 72.745
25.400000 72.741
25.799999 72.739
26.200001 72.741
26.500000 72.746
26.900000 72.749
27.200001 72.739
27.600000 72.714
28.000000 72.697
28.500000 72.676
29.000000 72.639
29.500000 72.614
30.000000 72.612
30.400000 72.615
30.700001 72.617
31.100000 72.614
31.500000 72.602
32.000000 72.575
32.500000 72.539
33.000000 72.499
33.500000 72.475
34.000000 72.477
34.500000 72.493
35.000000 72.502
35.500000 72.509
36.000000 72.513
36.500000 72.502
37.000000 72.469
37.500000 72.434
38.200001 72.430
38.700001 72.443
39.500000 72.449
40.000000 72.454
40.599998 72.453
41.200001 72.441
41.799999 72.420
42.500000 72.376
43.099998 72.333
43.700001 72.302
44.400002 72.285
45.000000 72.268
45.500000 72.248
46.200001 72.210
46.799999 72.182
47.500000 72.161
48.200001 72.146
48.700001 72.146
49.400002 72.165
50.000000 72.171
50.799999 72.134
51.500000 72.090
52.200001 72.072
53.000000 72.079
53.799999 72.081
54.500000 72.063
55.200001 72.033
56.000000 72.000
57.000000 71.958
58.000000 71.913
59.000000 71.882
60.000000 71.831
60.799999 71.773
61.500000 71.727
62.200001 71.701
63.000000 71.684
64.000000 71.656
65.000000 71.643
66.000000 71.642
67.000000 71.638
68.000000 71.644
69.000000 71.652
70.000000 71.647
71.000000 71.630
72.000000 71.595
73.000000 71.532
74.000000 71.444
75.000000 71.362
76.199997 71.312
77.500000 71.314
78.800003 71.301
80.000000 71.261
81.199997 71.201
82.500000 71.120
83.800003 71.054
85.000000 71.030
86.199997 71.020
87.500000 71.000
88.500000 70.964
90.000000 70.888
91.199997 70.851
92.500000 70.828
93.800003 70.778
95.000000 70.724
96.199997 70.700
97.500000 70.702
98.800003 70.694
100.000000 70.666
101.500000 70.619
103.000000 70.563
104.400002 70.488
106.000000 70.405
107.500000 70.351
109.000000 70.336
110.599998 70.313
112.000000 70.245
113.800003 70.163
115.000000 70.128
117.199997 70.070
118.000000 70.050
120.599998 69.980
122.000000 69.942
124.099998 69.906
125.000000 69.886
126.500000 69.833
128.000000 69.767
131.500000 69.645
132.000000 69.636
134.000000 69.631
136.000000 69.622
138.000000 69.559
140.000000 69.442
143.000000 69.290
145.000000 69.274
147.500000 69.295
150.000000 69.301
152.500000 69.264
155.000000 69.200
157.500000 69.104
160.000000 69.005
162.500000 68.940
165.000000 68.882
167.500000 68.844
170.000000 68.806
172.500000 68.736
175.000000 68.679
177.500000 68.639
180.000000 68.596
182.500000 68.570
185.000000 68.509
187.500000 68.381
190.000000 68.291
192.500000 68.243
195.000000 68.186
197.500000 68.133
200.000000 68.111
203.000000 68.103
206.000000 68.059
209.000000 67.965
212.000000 67.845
214.000000 67.793
218.000000 67.789
220.000000 67.787
224.000000 67.735
227.000000 67.682
230.000000 67.614
233.000000 67.536
236.000000 67.454
240.000000 67.370
243.000000 67.340
247.000000 67.322
250.000000 67.297
254.000000 67.222
258.000000 67.101
262.000000 66.961
265.000000 66.872
269.000000 66.814
272.000000 66.791
276.000000 66.738
280.000000 66.672
285.000000 66.628
290.000000 66.578
295.000000 66.504
300.000000 66.396
304.000000 66.308
307.000000 66.267
311.000000 66.242
315.000000 66.212
320.000000 66.153
325.000000 66.083
330.000000 66.017
335.000000 65.959
340.000000 65.884
345.000000 65.813
350.000000 65.785
355.000000 65.787
360.000000 65.806
365.000000 65.834
370.000000 65.814
375.000000 65.754
382.000000 65.676
387.000000 65.616
395.000000 65.545
400.000000 65.532
406.000000 65.501
412.000000 65.462
418.000000 65.477
425.000000 65.483
431.000000 65.427
437.000000 65.350
444.000000 65.261
450.000000 65.206
455.000000 65.178
462.000000 65.139
468.000000 65.109
475.000000 65.113
482.000000 65.127
487.000000 65.114
494.000000 65.072
500.000000 65.036
508.000000 64.971
515.000000 64.935
522.000000 64.936
530.000000 64.911
538.000000 64.850
545.000000 64.800
552.000000 64.754
560.000000 64.723
570.000000 64.756
580.000000 64.757
590.000000 64.664
600.000000 64.563
608.000000 64.520
615.000000 64.502
622.000000 64.478
630.000000 64.457
640.000000 64.474
650.000000 64.509
660.000000 64.545
670.000000 64.569
680.000000 64.558
690.000000 64.519
700.000000 64.489
710.000000 64.510
720.000000 64.554
730.000000 64.544
740.000000 64.513
750.000000 64.509
762.000000 64.528
775.000000 64.531
788.000000 64.516
800.000000 64.527
812.000000 64.576
825.000000 64.632
838.000000 64.664
850.000000 64.685
862.000000 64.713
875.000000 64.732
885.000000 64.757
900.000000 64.837
912.000000 64.903
925.000000 64.978
938.000000 65.058
950.000000 65.123
962.000000 65.196
975.000000 65.283
988.000000 65.370
1000.000000 65.459
1015.000000 65.567
1030.000000 65.663
1044.000000 65.762
1060.000000 65.892
1075.000000 66.026
1090.000000 66.177
1106.000000 66.338
1120.000000 66.457
1138.000000 66.595
1150.000000 66.688
1172.000000 66.856
1180.000000 66.912
1206.000000 67.112
1220.000000 67.218
1241.000000 67.333
1250.000000 67.378
1265.000000 67.454
1280.000000 67.526
1315.000000 67.741
1320.000000 67.772
1340.000000 67.888
1360.000000 68.009
1380.000000 68.122
1400.000000 68.219
1430.000000 68.377
1450.000000 68.490
1475.000000 68.594
1500.000000 68.680
1525.000000 68.775
1550.000000 68.882
1575.000000 68.977
1600.000000 69.083
1625.000000 69.190
1650.000000 69.296
1675.000000 69.398
1700.000000 69.506
1725.000000 69.605
1750.000000 69.698
1775.000000 69.803
1800.000000 69.917
1825.000000 70.037
1850.000000 70.147
1875.000000 70.228
1900.000000 70.309
1925.000000 70.423
1950.000000 70.549
1975.000000 70.641
2000.000000 70.711
2030.000000 70.815
2060.000000 70.910
2090.000000 71.016
2120.000000 71.167
2140.000000 71.283
2180.000000 71.538
2200.000000 71.683
2240.000000 71.996
2270.000000 72.208
2300.000000 72.387
2330.000000 72.535
2360.000000 72.672
2400.000000 72.873
2430.000000 73.027
2470.000000 73.204
2500.000000 73.309
2540.000000 73.445
2580.000000 73.585
2620.000000 73.702
2650.000000 73.771
2690.000000 73.850
2720.000000 73.898
2760.000000 73.954
2800.000000 74.003
2850.000000 74.090
2900.000000 74.161
2950.000000 74.222
3000.000000 74.312
3040.000000 74.386
3070.000000 74.423
3110.000000 74.450
3150.000000 74.464
3200.000000 74.454
3250.000000 74.429
3300.000000 74.381
3350.000000 74.297
3400.000000 74.222
3450.000000 74.151
3500.000000 74.059
3550.000000 73.971
3600.000000 73.888
3650.000000 73.796
3700.000000 73.699
3750.000000 73.595
3820.000000 73.445
3870.000000 73.337
3950.000000 73.182
4000.000000 73.097
4060.000000 72.983
4120.000000 72.861
4180.000000 72.779
4250.000000 72.700
4310.000000 72.603
4370.000000 72.495
4440.000000 72.381
4500.000000 72.312
4550.000000 72.274
4620.000000 72.227
4680.000000 72.178
4750.000000 72.098
4820.000000 72.032
4870.000000 72.004
4940.000000 71.974
5000.000000 71.959
5080.000000 71.913
5150.000000 71.815
5220.000000 71.730
5300.000000 71.682
5380.000000 71.674
5450.000000 71.676
5520.000000 71.669
5600.000000 71.670
5700.000000 71.726
5800.000000 71.750
5900.000000 71.636
6000.000000 71.460
6080.000000 71.307
6150.000000 71.176
6220.000000 71.030
6300.000000 70.845
6400.000000 70.639
6500.000000 70.464
6600.000000 70.337
6700.000000 70.293
6800.000000 70.323
6900.000000 70.440
7000.000000 70.648
7100.000000 70.918
7200.000000 71.233
7300.000000 71.605
7400.000000 72.062
7500.000000 72.605
7620.000000 73.303
7750.000000 73.944
7880.000000 74.339
8000.000000 74.367
8120.000000 74.104
8250.000000 73.608
8380.000000 72.800
8500.000000 71.744
8620.000000 70.453
8750.000000 69.125
8850.000000 68.280
9000.000000 67.111
9120.000000 66.182
9250.000000 65.218
9380.000000 64.300
9500.000000 63.473
9620.000000 62.740
9750.000000 62.108
9880.000000 61.572
10000.000000 61.108
10150.000000 60.545
10300.000000 60.038
10440.000000 59.661
10600.000000 59.286
10750.000000 58.943
10900.000000 58.635
11060.000000 58.372
11200.000000 58.170
11380.000000 57.954
11500.000000 57.824
11720.000000 57.620
11800.000000 57.588
12060.000000 57.667
12200.000000 57.779
12410.000000 58.059
12500.000000 58.213
12650.000000 58.517
12800.000000 58.905
13150.000000 60.003
13200.000000 60.155
13400.000000 60.701
13600.000000 61.213
13800.000000 61.793
14000.000000 62.267
14300.000000 62.418
14500.000000 62.292
14750.000000 62.263
15000.000000 62.118
15250.000000 61.787
15500.000000 61.444
15750.000000 61.263
16000.000000 61.223
16250.000000 61.251
16500.000000 61.224
16750.000000 60.683
17000.000000 59.626
17250.000000 58.610
17500.000000 57.866
17750.000000 57.207
18000.000000 56.490
18250.000000 55.759
18500.000000 55.082
18750.000000 54.449
19000.000000 53.887
19250.000000 53.488
19500.000000 53.120
19750.000000 52.610
