* Measurement data measured by REW V5.30.9
* Source: Microphone (Realtek USB2.0 Audio), MICROPHONE (Master Volume), L, volume: 0.500
* Format: 1M Log Swept Sine, 1 sweep at -12.0 dBFS with no timing reference
* Dated: 06 29, 24 1:20:39 PM
* REW Settings:
*  C-weighting compensation: Off
*  Target level: 75.0 dB
* Note: ; 
* Measurement: kbxw L
* Smoothing: None
* Frequency Step: 1/48 octave
* Start Frequency: 1.000 Hz
*
* Freq(Hz)	SPL(dB)	Phase(degrees)
1.000000	51.647	11.7643
1.015000	51.650	12.4955
1.030000	51.663	13.2177
1.044000	51.683	13.8942
1.060000	51.715	14.6676
1.075000	51.753	15.3903
1.090000	51.798	16.1082
1.106000	51.853	16.8658
1.120000	51.906	17.5195
1.138000	51.980	18.3439
1.150000	52.032	18.8816
1.172000	52.131	19.8375
1.180000	52.168	20.1743
1.206000	52.290	21.2232
1.220000	52.355	21.7557
1.241000	52.451	22.5064
1.250000	52.491	22.8090
1.265000	52.555	23.2860
1.280000	52.616	23.7265
1.315000	52.738	24.5984
1.320000	52.753	24.7038
1.340000	52.804	25.0736
1.360000	52.846	25.3576
1.380000	52.887	25.5585
1.400000	52.929	25.6821
1.430000	52.988	25.7345
1.450000	53.026	25.6891
1.475000	53.068	25.5516
1.500000	53.103	25.3348
1.525000	53.131	25.0495
1.550000	53.149	24.7066
1.575000	53.156	24.3172
1.600000	53.149	23.8921
1.625000	53.128	23.4422
1.650000	53.092	22.9786
1.675000	53.037	22.5120
1.700000	52.965	22.0379
1.725000	52.882	21.5191
1.750000	52.788	20.9557
1.775000	52.682	20.3500
1.800000	52.564	19.7046
1.825000	52.433	19.0219
1.850000	52.289	18.3045
1.875000	52.132	17.5548
1.900000	51.960	16.7753
1.925000	51.774	15.9684
1.950000	51.573	15.1368
1.975000	51.356	14.2827
2.000000	51.124	13.4088
2.030000	50.821	12.3344
2.060000	50.480	11.2073
2.090000	50.102	10.0259
2.120000	49.693	8.7970
2.140000	49.407	7.9547
2.180000	48.812	6.2234
2.200000	48.507	5.3385
2.240000	47.891	3.5400
2.270000	47.432	2.1738
2.300000	46.984	0.8002
2.330000	46.553	-0.5740
2.360000	46.144	-1.9439
2.400000	45.544	-3.8731
2.430000	45.043	-5.4083
2.470000	44.344	-7.5229
2.500000	43.824	-9.1251
2.540000	43.176	-11.2328
2.580000	42.625	-13.2505
2.620000	42.219	-15.1154
2.650000	42.040	-16.3761
2.690000	42.008	-17.8226
2.720000	42.153	-18.7201
2.760000	42.543	-19.7147
2.800000	43.119	-20.5144
2.850000	44.045	-21.2995
2.900000	45.128	-21.9178
2.950000	46.291	-22.4460
3.000000	47.459	-22.9604
3.040000	48.353	-23.4098
3.070000	49.057	-23.7503
3.110000	50.062	-24.1834
3.150000	51.121	-24.5827
3.200000	52.485	-25.0176
3.250000	53.849	-25.3611
3.300000	55.165	-25.5921
3.350000	56.386	-25.6892
3.400000	57.492	-25.6538
3.450000	58.539	-25.5298
3.500000	59.535	-25.3022
3.550000	60.481	-24.9523
3.600000	61.383	-24.4612
3.650000	62.242	-23.8101
3.700000	63.061	-22.9802
3.750000	63.836	-21.9167
3.820000	64.840	-20.0443
3.870000	65.506	-18.5201
3.950000	66.493	-15.9358
4.000000	67.070	-14.3300
4.060000	67.728	-12.4937
4.120000	68.335	-10.5830
4.180000	68.892	-8.6132
4.250000	69.488	-6.3546
4.310000	69.957	-4.5508
4.370000	70.393	-2.9593
4.440000	70.857	-1.4042
4.500000	71.210	-0.2610
4.550000	71.477	0.5872
4.620000	71.815	1.6598
4.680000	72.078	2.5141
4.750000	72.354	3.4437
4.820000	72.583	4.1784
4.870000	72.722	4.6336
4.940000	72.897	5.2670
5.000000	73.037	5.8888
5.080000	73.222	6.9449
5.150000	73.354	8.0027
5.220000	73.472	9.1558
5.300000	73.618	10.5927
5.380000	73.808	12.1588
5.450000	74.015	13.7180
5.520000	74.243	15.4669
5.600000	74.537	17.5171
5.700000	74.969	19.8491
5.800000	75.496	21.7891
5.900000	76.111	23.5298
6.000000	76.761	24.8502
6.080000	77.273	25.4508
6.150000	77.733	25.6382
6.220000	78.202	25.5590
6.300000	78.729	25.1905
6.400000	79.339	24.3944
6.500000	79.898	23.1572
6.600000	80.416	21.5107
6.700000	80.874	19.6371
6.800000	81.261	17.6128
6.900000	81.587	15.3291
7.000000	81.847	12.9651
7.100000	82.036	10.6895
7.200000	82.155	8.3598
7.300000	82.206	6.1088
7.400000	82.192	4.1767
7.500000	82.104	2.5032
7.620000	81.909	0.8493
7.750000	81.647	0.1530
7.880000	81.287	0.7237
8.000000	80.949	2.3250
8.120000	80.767	5.2246
8.250000	80.689	10.2236
8.380000	80.827	15.7302
8.500000	81.272	20.3626
8.620000	81.981	24.9761
8.750000	82.857	28.8280
8.850000	83.582	30.5403
9.000000	84.762	31.6731
9.120000	85.635	31.7397
9.250000	86.510	30.8253
9.380000	87.315	29.2680
9.500000	87.973	27.6380
9.620000	88.556	25.6657
9.750000	89.116	23.4336
9.880000	89.601	21.2197
10.000000	89.986	19.1535
10.150000	90.409	16.7597
10.300000	90.761	14.5536
10.440000	91.052	12.7246
10.600000	91.346	10.9640
10.750000	91.599	9.5733
10.900000	91.848	8.4256
11.060000	92.106	7.4239
11.200000	92.338	6.6357
11.380000	92.639	5.7561
11.500000	92.837	5.1747
11.720000	93.196	4.1338
11.800000	93.319	3.7578
12.060000	93.694	2.5349
12.200000	93.874	1.9384
12.410000	94.118	1.1424
12.500000	94.217	0.8743
12.650000	94.372	0.5247
12.800000	94.529	0.2603
13.150000	94.900	-0.0931
13.200000	94.925	-0.1481
13.400000	94.974	-0.4044
13.600000	94.981	-0.8445
13.800000	94.952	-1.4794
14.000000	94.909	-2.3766
14.300000	94.767	-3.9823
14.500000	94.608	-5.0265
14.750000	94.324	-6.0148
15.000000	93.998	-6.3498
15.250000	93.697	-5.9728
15.500000	93.478	-4.9692
15.750000	93.392	-3.6406
16.000000	93.452	-2.7032
16.250000	93.606	-2.4963
16.500000	93.796	-3.1942
16.750000	93.933	-4.6763
17.000000	93.986	-6.6019
17.250000	93.952	-8.6563
17.500000	93.837	-10.5389
17.750000	93.666	-11.9373
18.000000	93.502	-12.8359
18.250000	93.379	-13.3736
18.500000	93.322	-13.7464
18.750000	93.317	-14.2697
19.000000	93.329	-15.1266
19.250000	93.323	-16.2944
19.500000	93.262	-17.6572
19.750000	93.114	-18.8817
20.000000	92.902	-19.6575
20.299999	92.612	-19.7032
20.600000	92.369	-18.6442
20.900000	92.265	-16.7962
21.200001	92.352	-14.9311
21.400000	92.492	-14.0783
21.799999	92.825	-13.6150
22.000000	92.963	-13.9514
22.400000	93.122	-15.2669
22.700001	93.122	-16.2619
23.000000	93.056	-16.9567
23.299999	92.969	-17.2815
23.600000	92.897	-17.3154
24.000000	92.842	-17.2470
24.299999	92.824	-17.3221
24.700001	92.791	-17.5853
25.000000	92.756	-17.8069
25.400000	92.719	-18.0881
25.799999	92.709	-18.4536
26.200001	92.718	-19.1814
26.500000	92.706	-20.0028
26.900000	92.624	-21.2194
27.200001	92.517	-22.0099
27.600000	92.353	-22.6024
28.000000	92.225	-22.6948
28.500000	92.178	-22.7600
29.000000	92.163	-23.3471
29.500000	92.069	-24.1581
30.000000	91.909	-24.2454
30.400000	91.835	-23.6622
30.700001	91.851	-23.1127
31.100000	91.954	-22.7465
31.500000	92.075	-23.1031
32.000000	92.122	-24.1702
32.500000	92.033	-25.0681
33.000000	91.908	-25.1979
33.500000	91.858	-24.9520
34.000000	91.862	-24.9545
34.500000	91.848	-25.3078
35.000000	91.788	-25.5395
35.500000	91.744	-25.4859
36.000000	91.746	-25.4205
36.500000	91.764	-25.6636
37.000000	91.751	-26.0036
37.500000	91.732	-26.2156
38.200001	91.742	-26.6153
38.700001	91.728	-27.2818
39.500000	91.572	-28.1944
40.000000	91.473	-28.3545
40.599998	91.392	-28.7743
41.200001	91.242	-29.3654
41.799999	91.087	-29.2489
42.500000	91.162	-29.4600
43.099998	91.186	-32.0961
43.700001	90.708	-35.2136
44.400002	89.830	-33.3848
45.000000	89.897	-28.2856
45.500000	90.473	-27.3085
46.200001	90.890	-31.0591
46.799999	90.637	-33.4659
47.500000	90.425	-32.3629
48.200001	90.691	-31.9938
48.700001	90.794	-33.4012
49.400002	90.626	-34.8037
50.000000	90.488	-34.5749
50.799999	90.466	-34.5037
51.500000	90.374	-34.8615
52.200001	90.281	-34.6664
53.000000	90.277	-34.8026
53.799999	90.216	-35.4976
54.500000	90.138	-35.8282
55.200001	90.091	-36.2223
56.000000	89.987	-36.7433
57.000000	89.878	-36.5195
58.000000	89.902	-36.8218
59.000000	89.768	-37.7048
60.000000	89.580	-37.6345
60.799999	89.509	-37.3893
61.500000	89.504	-37.4623
62.200001	89.489	-38.0909
63.000000	89.359	-38.8076
64.000000	89.257	-38.3402
65.000000	89.362	-38.8379
66.000000	89.206	-39.8257
67.000000	89.077	-38.8400
68.000000	89.136	-38.8506
69.000000	88.946	-39.5202
70.000000	88.723	-38.6996
71.000000	88.694	-38.3078
72.000000	88.619	-38.8220
73.000000	88.522	-39.2230
74.000000	88.454	-39.5412
75.000000	88.457	-39.6307
76.199997	88.498	-40.3510
77.500000	88.462	-40.4723
78.800003	88.400	-41.1401
80.000000	88.291	-40.3700
81.199997	88.209	-41.5232
82.500000	87.969	-40.4067
83.800003	87.867	-42.5914
85.000000	87.445	-40.7506
86.199997	87.741	-40.8614
87.500000	87.599	-43.1432
88.500000	87.298	-43.3489
90.000000	87.377	-40.6260
91.199997	87.569	-41.8587
92.500000	87.478	-41.8612
93.800003	87.490	-42.3284
95.000000	87.366	-42.2377
96.199997	87.365	-43.1910
97.500000	87.009	-43.4446
98.800003	87.019	-43.1218
100.000000	86.940	-42.9727
101.500000	87.084	-44.5122
103.000000	86.798	-44.4798
104.400002	86.767	-44.4925
106.000000	86.732	-44.2094
107.500000	86.573	-45.1812
109.000000	86.409	-44.7169
110.599998	86.304	-44.2389
112.000000	86.328	-44.0312
113.800003	86.183	-44.1574
115.000000	86.092	-43.3364
117.199997	85.960	-44.7308
118.000000	85.917	-43.9004
120.599998	85.645	-44.4397
122.000000	85.942	-44.5092
124.099998	85.782	-44.9955
125.000000	85.771	-45.1349
126.500000	85.644	-45.6980
128.000000	85.474	-45.7066
131.500000	85.603	-45.3134
132.000000	85.564	-45.8645
134.000000	86.032	-43.1766
136.000000	85.280	-46.9220
138.000000	85.180	-45.5753
140.000000	85.067	-46.0306
143.000000	84.888	-46.8824
145.000000	84.969	-46.0248
147.500000	84.935	-46.0326
150.000000	84.455	-45.5406
152.500000	84.449	-46.4932
155.000000	84.271	-45.4960
157.500000	84.269	-45.5146
160.000000	84.255	-46.7096
162.500000	84.275	-45.7745
165.000000	83.902	-45.7849
167.500000	83.842	-45.6708
170.000000	83.732	-46.5258
172.500000	83.596	-46.0824
175.000000	83.550	-45.3591
177.500000	83.339	-46.3057
180.000000	83.291	-45.1843
182.500000	83.233	-45.4132
185.000000	83.194	-44.5820
187.500000	83.002	-44.6484
190.000000	82.847	-44.5730
192.500000	82.758	-44.3143
195.000000	82.794	-43.8164
197.500000	82.756	-44.7102
200.000000	82.611	-44.5068
203.000000	82.442	-43.8997
206.000000	82.409	-43.6174
209.000000	82.316	-44.1128
212.000000	82.074	-42.5128
214.000000	82.258	-42.5858
218.000000	82.519	-44.6264
220.000000	82.041	-43.9201
224.000000	81.868	-47.2687
227.000000	81.973	-45.0290
230.000000	81.719	-43.3934
233.000000	81.464	-41.7035
236.000000	81.479	-42.3333
240.000000	81.420	-42.4975
243.000000	81.251	-42.0004
247.000000	81.370	-41.2481
250.000000	81.292	-41.4065
254.000000	81.085	-41.4187
258.000000	81.035	-39.7722
262.000000	80.966	-41.4996
265.000000	80.906	-41.3232
269.000000	80.533	-39.6293
272.000000	80.859	-38.7074
276.000000	80.706	-40.9715
280.000000	80.402	-39.7405
285.000000	80.379	-37.6955
290.000000	80.406	-37.8742
295.000000	80.153	-37.0370
300.000000	79.924	-37.2329
304.000000	79.975	-37.0248
307.000000	80.128	-36.3494
311.000000	80.049	-37.1101
315.000000	79.696	-37.7495
320.000000	79.686	-35.2301
325.000000	79.607	-34.4466
330.000000	79.359	-36.3310
335.000000	79.504	-34.4444
340.000000	79.335	-35.5692
345.000000	79.503	-31.8164
350.000000	78.576	-36.8833
355.000000	79.287	-27.9180
360.000000	79.292	-30.7972
365.000000	79.244	-27.8796
370.000000	78.639	-33.0001
375.000000	78.728	-31.2364
382.000000	78.526	-29.6179
387.000000	78.563	-29.8854
395.000000	78.619	-30.5396
400.000000	78.223	-29.0128
406.000000	78.339	-27.9923
412.000000	78.294	-28.3153
418.000000	78.068	-25.7801
425.000000	77.507	-26.9340
431.000000	77.729	-21.7109
437.000000	77.896	-21.9699
444.000000	77.699	-23.6887
450.000000	78.167	-25.8256
455.000000	78.129	-24.6270
462.000000	78.008	-24.8065
468.000000	77.977	-20.7526
475.000000	77.285	-24.2964
482.000000	77.522	-19.7656
487.000000	77.326	-20.5201
494.000000	77.380	-22.3174
500.000000	77.259	-19.1336
508.000000	77.448	-19.9082
515.000000	77.204	-20.0228
522.000000	77.160	-18.1043
530.000000	77.107	-18.5938
538.000000	76.957	-18.0157
545.000000	77.323	-16.4628
552.000000	76.651	-14.1172
560.000000	77.091	-14.2630
570.000000	76.917	-15.1122
580.000000	77.139	-12.9033
590.000000	76.833	-13.0498
600.000000	76.739	-10.7450
608.000000	76.702	-10.5316
615.000000	76.723	-9.9636
622.000000	76.581	-9.5320
630.000000	76.587	-8.8330
640.000000	76.378	-7.0625
650.000000	76.423	-7.6349
660.000000	76.783	-8.7781
670.000000	76.259	-3.7305
680.000000	76.033	-3.6683
690.000000	76.371	-4.7918
700.000000	76.304	-2.9023
710.000000	76.079	0.4290
720.000000	76.108	-0.0418
730.000000	76.429	1.4380
740.000000	76.285	0.9577
750.000000	76.511	2.8443
762.000000	76.029	3.8022
775.000000	76.086	4.1995
788.000000	76.270	7.3005
800.000000	76.550	7.1946
812.000000	76.144	10.7912
825.000000	76.409	7.6726
838.000000	76.778	11.9660
850.000000	76.608	12.1246
862.000000	76.312	14.6210
875.000000	76.560	14.5882
885.000000	76.430	14.9894
900.000000	76.589	16.7450
912.000000	76.566	17.6636
925.000000	76.691	19.1554
938.000000	76.726	19.8865
950.000000	76.789	20.7882
962.000000	76.872	21.9673
975.000000	77.000	22.4997
988.000000	77.042	23.4170
1000.000000	77.129	24.8631
1015.000000	77.240	25.5451
1030.000000	77.346	26.8629
1044.000000	77.575	27.8645
1060.000000	77.751	28.5562
1075.000000	77.822	29.6943
1090.000000	77.653	30.6370
1106.000000	78.299	30.3505
1120.000000	78.067	31.1304
1138.000000	78.342	32.2205
1150.000000	78.397	32.6898
1172.000000	78.486	33.5954
1180.000000	78.550	33.5842
1206.000000	78.846	34.8768
1220.000000	78.919	35.4617
1241.000000	79.048	36.1668
1250.000000	79.108	36.5165
1265.000000	79.257	37.0350
1280.000000	79.338	37.5014
1315.000000	79.590	38.6997
1320.000000	79.683	38.8195
1340.000000	79.789	39.1714
1360.000000	79.926	39.9699
1380.000000	80.074	40.4493
1400.000000	80.239	41.1763
1430.000000	80.411	41.7375
1450.000000	80.545	42.2621
1475.000000	80.713	43.1084
1500.000000	80.869	43.7353
1525.000000	81.033	44.4187
1550.000000	81.154	45.0158
1575.000000	81.323	46.0166
1600.000000	81.459	46.7242
1625.000000	81.603	47.8295
1650.000000	81.731	48.9108
1675.000000	81.943	50.1094
1700.000000	82.088	51.8372
1725.000000	82.376	53.1043
1750.000000	82.688	55.0966
1775.000000	83.133	55.8670
1800.000000	83.509	56.4652
1825.000000	83.927	55.9606
1850.000000	84.221	56.0055
1875.000000	84.524	55.6629
1900.000000	84.782	55.3349
1925.000000	85.017	55.4096
1950.000000	85.277	54.9227
1975.000000	85.548	54.9654
2000.000000	85.751	55.0204
2030.000000	86.115	54.4762
2060.000000	86.350	54.7587
2090.000000	86.664	54.1839
2120.000000	87.035	53.8449
2140.000000	87.222	53.5261
2180.000000	87.634	53.2957
2200.000000	87.807	53.2974
2240.000000	88.238	51.9635
2270.000000	88.513	51.1176
2300.000000	88.899	50.4599
2330.000000	89.240	49.2099
2360.000000	89.591	48.5606
2400.000000	90.041	47.1450
2430.000000	90.249	45.0744
2470.000000	90.827	43.5718
2500.000000	91.059	40.8707
2540.000000	91.459	37.3502
2580.000000	91.659	34.1927
2620.000000	91.836	30.5216
2650.000000	91.874	28.1892
2690.000000	91.908	24.8896
2720.000000	91.922	22.4712
2760.000000	91.827	19.6729
2800.000000	91.738	17.0339
2850.000000	91.518	14.2558
2900.000000	91.360	11.3880
2950.000000	91.089	9.4909
3000.000000	90.764	7.4925
3040.000000	90.611	6.3190
3070.000000	90.401	5.6439
3110.000000	90.113	5.1880
3150.000000	89.993	3.9725
3200.000000	89.580	3.8344
3250.000000	89.325	3.7130
3300.000000	89.189	4.2850
3350.000000	88.806	4.7701
3400.000000	88.627	4.5598
3450.000000	88.453	4.8120
3500.000000	88.259	6.6236
3550.000000	88.221	6.6269
3600.000000	88.062	8.5258
3650.000000	87.902	8.7495
3700.000000	87.920	9.1558
3750.000000	87.756	11.1163
3820.000000	87.770	11.8459
3870.000000	87.748	13.5716
3950.000000	87.792	15.0625
4000.000000	87.623	15.7178
4060.000000	87.572	17.3580
4120.000000	87.824	18.0321
4180.000000	87.910	19.8915
4250.000000	88.041	21.7113
4310.000000	88.250	23.6827
4370.000000	88.336	23.5741
4440.000000	88.633	24.9821
4500.000000	88.850	26.1012
4550.000000	89.137	26.5231
4620.000000	89.632	27.7910
4680.000000	89.930	27.6643
4750.000000	90.459	28.4062
4820.000000	90.945	26.8898
4870.000000	91.413	26.3559
4940.000000	92.044	25.1207
5000.000000	92.713	22.5516
5080.000000	93.270	19.0393
5150.000000	93.791	14.4950
5220.000000	94.273	8.0466
5300.000000	94.438	0.1841
5380.000000	94.275	-8.6314
5450.000000	94.167	-15.6324
5520.000000	93.539	-22.1895
5600.000000	92.793	-28.7486
5700.000000	91.469	-34.9560
5800.000000	90.216	-37.7580
5900.000000	89.161	-39.3976
6000.000000	88.203	-40.3587
6080.000000	87.298	-40.3004
6150.000000	86.543	-39.2064
6220.000000	86.016	-38.8074
6300.000000	85.597	-37.3182
6400.000000	85.044	-35.9711
6500.000000	84.441	-34.7656
6600.000000	84.014	-30.9377
6700.000000	83.883	-29.4552
6800.000000	83.613	-26.8860
6900.000000	83.428	-23.4724
7000.000000	83.278	-21.3404
7100.000000	83.345	-19.1874
7200.000000	83.681	-16.5535
7300.000000	84.043	-15.0389
7400.000000	84.272	-11.6239
7500.000000	84.913	-11.5423
7620.000000	85.789	-9.8601
7750.000000	86.776	-10.5213
7880.000000	88.325	-15.2333
8000.000000	89.806	-23.1859
8120.000000	90.461	-36.1981
8250.000000	89.850	-54.0518
8380.000000	88.264	-68.4785
8500.000000	86.407	-76.3636
8620.000000	84.368	-78.4365
8750.000000	82.629	-79.0031
8850.000000	81.307	-77.9412
9000.000000	79.497	-75.4527
9120.000000	78.465	-70.5721
9250.000000	77.339	-65.8093
9380.000000	76.186	-60.5741
9500.000000	75.495	-56.3689
9620.000000	74.564	-50.8362
9750.000000	73.701	-45.3289
9880.000000	73.205	-40.1881
10000.000000	72.644	-33.6098
10150.000000	72.074	-26.5347
10300.000000	71.412	-19.9120
10440.000000	71.102	-12.1400
10600.000000	70.649	-4.5466
10750.000000	70.156	2.4050
10900.000000	69.896	10.2901
11060.000000	69.650	17.4459
11200.000000	69.548	24.4982
11380.000000	69.207	33.1005
11500.000000	68.992	38.1887
11720.000000	68.983	49.5105
11800.000000	68.938	52.7167
12060.000000	68.861	63.7939
12200.000000	68.782	70.3603
12410.000000	68.853	79.3072
12500.000000	68.962	83.6711
12650.000000	69.156	88.8990
12800.000000	69.372	93.7663
13150.000000	70.079	104.9852
13200.000000	70.269	106.6215
13400.000000	70.938	110.7888
13600.000000	71.798	113.3362
13800.000000	73.053	112.5320
14000.000000	74.188	108.4611
14300.000000	76.195	91.2511
14500.000000	76.668	73.5796
14750.000000	75.913	49.1109
15000.000000	73.865	33.0744
15250.000000	71.992	26.0877
15500.000000	70.570	23.5100
15750.000000	69.431	24.3078
16000.000000	68.669	27.3727
16250.000000	68.727	33.8515
16500.000000	68.747	40.1578
16750.000000	69.078	48.8044
17000.000000	69.475	57.4299
17250.000000	70.025	67.3977
17500.000000	70.629	77.4403
17750.000000	71.799	85.7148
18000.000000	72.864	95.3197
18250.000000	74.489	99.9552
18500.000000	76.182	101.3347
18750.000000	77.497	94.2712
19000.000000	76.802	81.5684
19250.000000	74.705	78.1992
19500.000000	72.355	82.7961
19750.000000	69.935	93.1065
