* Measurement data measured by REW V5.30.9
* Source: Microphone (Realtek USB2.0 Audio), MICROPHONE (Master Volume), L, volume: 0.500
* Format: 1M Log Swept Sine, 1 sweep at -12.0 dBFS with no timing reference
* Dated: 06 29, 24 1:24:19 PM
* REW Settings:
*  C-weighting compensation: Off
*  Target level: 75.0 dB
* Note: ; 
* Measurement: kbxw R
* Smoothing: None
* Frequency Step: 1/48 octave
* Start Frequency: 1.000 Hz
*
* Freq(Hz)	SPL(dB)	Phase(degrees)
1.000000	52.583	-136.0834
1.015000	52.614	-135.9871
1.030000	52.641	-135.8782
1.044000	52.661	-135.7672
1.060000	52.679	-135.6284
1.075000	52.692	-135.4860
1.090000	52.700	-135.3309
1.106000	52.705	-135.1505
1.120000	52.706	-134.9793
1.138000	52.704	-134.7399
1.150000	52.700	-134.5677
1.172000	52.689	-134.2240
1.180000	52.683	-134.0897
1.206000	52.663	-133.6169
1.220000	52.649	-133.3384
1.241000	52.628	-132.8875
1.250000	52.618	-132.6815
1.265000	52.602	-132.3209
1.280000	52.585	-131.9377
1.315000	52.547	-130.9517
1.320000	52.542	-130.8000
1.340000	52.522	-130.1644
1.360000	52.501	-129.4837
1.380000	52.474	-128.7625
1.400000	52.440	-128.0015
1.430000	52.380	-126.7870
1.450000	52.336	-125.9296
1.475000	52.278	-124.8054
1.500000	52.219	-123.6240
1.525000	52.162	-122.3867
1.550000	52.108	-121.0947
1.575000	52.061	-119.7493
1.600000	52.022	-118.3519
1.625000	51.995	-116.9036
1.650000	51.980	-115.4058
1.675000	51.982	-113.8598
1.700000	51.998	-112.2459
1.725000	52.022	-110.5152
1.750000	52.053	-108.6820
1.775000	52.091	-106.7644
1.800000	52.138	-104.7804
1.825000	52.192	-102.7480
1.850000	52.255	-100.6855
1.875000	52.327	-98.6107
1.900000	52.409	-96.5418
1.925000	52.499	-94.4968
1.950000	52.600	-92.4939
1.975000	52.710	-90.5509
2.000000	52.832	-88.6862
2.030000	52.992	-86.5675
2.060000	53.174	-84.5008
2.090000	53.376	-82.4655
2.120000	53.596	-80.4659
2.140000	53.752	-79.1546
2.180000	54.079	-76.5901
2.200000	54.248	-75.3394
2.240000	54.597	-72.9071
2.270000	54.862	-71.1483
2.300000	55.128	-69.4502
2.330000	55.392	-67.8170
2.360000	55.650	-66.2531
2.400000	55.997	-64.2921
2.430000	56.264	-62.9106
2.470000	56.627	-61.1717
2.500000	56.902	-59.9342
2.540000	57.272	-58.3573
2.580000	57.643	-56.8462
2.620000	58.011	-55.3811
2.650000	58.285	-54.3008
2.690000	58.644	-52.8694
2.720000	58.909	-51.8175
2.760000	59.263	-50.4848
2.800000	59.614	-49.2167
2.850000	60.051	-47.6971
2.900000	60.485	-46.2198
2.950000	60.914	-44.7524
3.000000	61.337	-43.2622
3.040000	61.672	-42.0362
3.070000	61.921	-41.1285
3.110000	62.251	-39.9439
3.150000	62.578	-38.7723
3.200000	62.983	-37.2991
3.250000	63.382	-35.7842
3.300000	63.774	-34.1931
3.350000	64.160	-32.4913
3.400000	64.539	-30.6704
3.450000	64.912	-28.7816
3.500000	65.279	-26.8197
3.550000	65.640	-24.7756
3.600000	65.994	-22.6404
3.650000	66.340	-20.4049
3.700000	66.677	-18.0601
3.750000	67.007	-15.5494
3.820000	67.455	-11.7482
3.870000	67.766	-8.9155
3.950000	68.249	-4.3560
4.000000	68.540	-1.5888
4.060000	68.879	1.5677
4.120000	69.207	4.7198
4.180000	69.522	7.8507
4.250000	69.877	11.3597
4.310000	70.172	14.1435
4.370000	70.457	16.6280
4.440000	70.778	19.1290
4.500000	71.041	21.0042
4.550000	71.254	22.3952
4.620000	71.543	24.1073
4.680000	71.786	25.3812
4.750000	72.063	26.6441
4.820000	72.329	27.5850
4.870000	72.514	28.0954
4.940000	72.770	28.6497
5.000000	72.987	29.0340
5.080000	73.279	29.4900
5.150000	73.531	29.7508
5.220000	73.780	29.8900
5.300000	74.068	29.9519
5.380000	74.363	29.9677
5.450000	74.628	29.9481
5.520000	74.896	29.8679
5.600000	75.209	29.7193
5.700000	75.610	29.4779
5.800000	76.026	29.1949
5.900000	76.457	28.8524
6.000000	76.894	28.4457
6.080000	77.247	28.0717
6.150000	77.559	27.7106
6.220000	77.876	27.3176
6.300000	78.237	26.8274
6.400000	78.680	26.1501
6.500000	79.116	25.3916
6.600000	79.547	24.5613
6.700000	79.964	23.6803
6.800000	80.362	22.7494
6.900000	80.747	21.7514
7.000000	81.115	20.7401
7.100000	81.466	19.7663
7.200000	81.798	18.7977
7.300000	82.114	17.8574
7.400000	82.419	16.9941
7.500000	82.711	16.2108
7.620000	83.045	15.3629
7.750000	83.402	14.6153
7.880000	83.756	14.0813
8.000000	84.082	13.7363
8.120000	84.420	13.4921
8.250000	84.798	13.3797
8.380000	85.188	13.3235
8.500000	85.561	13.2511
8.620000	85.947	13.1916
8.750000	86.367	13.0495
8.850000	86.691	12.8609
9.000000	87.176	12.4755
9.120000	87.548	12.0558
9.250000	87.937	11.4684
9.380000	88.305	10.8001
9.500000	88.619	10.1494
9.620000	88.911	9.4450
9.750000	89.202	8.7014
9.880000	89.465	8.0029
10.000000	89.684	7.3946
10.150000	89.939	6.7694
10.300000	90.167	6.2876
10.440000	90.373	5.9810
10.600000	90.602	5.8345
10.750000	90.820	5.8291
10.900000	91.052	5.9190
11.060000	91.311	6.0853
11.200000	91.551	6.1910
11.380000	91.875	6.2887
11.500000	92.092	6.2683
11.720000	92.494	6.0649
11.800000	92.635	5.9404
12.060000	93.071	5.3390
12.200000	93.285	4.9598
12.410000	93.579	4.3405
12.500000	93.698	4.1029
12.650000	93.883	3.7346
12.800000	94.062	3.4123
13.150000	94.456	2.8506
13.200000	94.482	2.7788
13.400000	94.528	2.5005
13.600000	94.537	2.1862
13.800000	94.525	1.8070
14.000000	94.526	1.2934
14.300000	94.519	0.3206
14.500000	94.498	-0.3801
14.750000	94.438	-1.1721
15.000000	94.366	-1.7698
15.250000	94.305	-2.1522
15.500000	94.272	-2.3329
15.750000	94.275	-2.3681
16.000000	94.326	-2.5030
16.250000	94.411	-2.8571
16.500000	94.508	-3.4864
16.750000	94.576	-4.3275
17.000000	94.606	-5.2537
17.250000	94.601	-6.1243
17.500000	94.565	-6.8033
17.750000	94.510	-7.1459
18.000000	94.474	-7.2107
18.250000	94.474	-7.1106
18.500000	94.517	-6.9800
18.750000	94.589	-6.9897
19.000000	94.674	-7.2523
19.250000	94.751	-7.7686
19.500000	94.802	-8.4925
19.750000	94.806	-9.2734
20.000000	94.773	-10.0061
20.299999	94.697	-10.7135
20.600000	94.602	-11.1497
20.900000	94.507	-11.3335
21.200001	94.436	-11.4014
21.400000	94.401	-11.4441
21.799999	94.340	-11.5913
22.000000	94.312	-11.7224
22.400000	94.250	-12.0704
22.700001	94.193	-12.3319
23.000000	94.131	-12.5697
23.299999	94.072	-12.7882
23.600000	94.014	-12.9617
24.000000	93.945	-13.0967
24.299999	93.912	-13.1591
24.700001	93.899	-13.2299
25.000000	93.914	-13.3763
25.400000	93.958	-13.8673
25.799999	93.981	-14.6913
26.200001	93.952	-15.6773
26.500000	93.889	-16.3065
26.900000	93.776	-16.7283
27.200001	93.710	-16.7175
27.600000	93.687	-16.4917
28.000000	93.740	-16.4543
28.500000	93.834	-17.2038
29.000000	93.819	-18.5284
29.500000	93.667	-19.5983
30.000000	93.474	-19.7332
30.400000	93.384	-19.3534
30.700001	93.368	-19.0572
31.100000	93.391	-18.9553
31.500000	93.415	-19.2582
32.000000	93.392	-19.8484
32.500000	93.334	-20.3228
33.000000	93.284	-20.6329
33.500000	93.256	-21.0702
34.000000	93.208	-21.6228
34.500000	93.136	-22.0737
35.000000	93.073	-22.2646
35.500000	93.056	-22.4541
36.000000	93.050	-22.8721
36.500000	93.013	-23.4733
37.000000	92.936	-23.8736
37.500000	92.872	-23.9496
38.200001	92.858	-24.0107
38.700001	92.860	-24.4016
39.500000	92.767	-25.2114
40.000000	92.670	-25.3675
40.599998	92.597	-25.2419
41.200001	92.582	-25.2526
41.799999	92.566	-25.6837
42.500000	92.477	-26.3373
43.099998	92.373	-26.5395
43.700001	92.325	-26.5332
44.400002	92.336	-26.9015
45.000000	92.318	-27.6438
45.500000	92.265	-28.2327
46.200001	92.185	-28.7354
46.799999	92.142	-29.0993
47.500000	92.084	-29.5201
48.200001	92.029	-29.7028
48.700001	92.013	-29.8211
49.400002	91.974	-30.1410
50.000000	91.906	-30.2869
50.799999	91.833	-30.2224
51.500000	91.772	-30.2760
52.200001	91.694	-30.1649
53.000000	91.684	-30.1103
53.799999	91.642	-30.9967
54.500000	91.477	-31.4628
55.200001	91.387	-31.1083
56.000000	91.434	-31.3086
57.000000	91.408	-32.3194
58.000000	91.360	-33.1439
59.000000	91.226	-33.4947
60.000000	91.276	-33.2350
60.799999	91.279	-34.3823
61.500000	91.111	-34.8851
62.200001	91.015	-34.5459
63.000000	90.994	-34.8642
64.000000	90.825	-35.4034
65.000000	90.746	-35.5400
66.000000	90.596	-36.1898
67.000000	90.499	-35.6657
68.000000	90.563	-36.1205
69.000000	90.457	-36.9466
70.000000	90.361	-36.8415
71.000000	90.341	-37.1426
72.000000	90.244	-37.6032
73.000000	90.156	-37.8133
74.000000	90.035	-38.2528
75.000000	89.898	-37.9155
76.199997	89.947	-37.8422
77.500000	89.863	-38.9416
78.800003	89.720	-39.0039
80.000000	89.678	-39.5083
81.199997	89.441	-39.2551
82.500000	89.689	-38.4069
83.800003	89.516	-41.3537
85.000000	89.207	-39.6392
86.199997	89.397	-39.4751
87.500000	89.222	-41.2254
88.500000	88.967	-40.5496
90.000000	89.102	-40.4922
91.199997	88.906	-41.6707
92.500000	88.814	-41.3389
93.800003	88.796	-41.7165
95.000000	88.656	-42.1228
96.199997	88.598	-41.4587
97.500000	88.469	-42.2688
98.800003	88.245	-41.0464
100.000000	88.244	-40.6784
101.500000	88.209	-41.2360
103.000000	88.006	-41.5840
104.400002	87.903	-42.2548
106.000000	87.854	-41.6351
107.500000	87.645	-42.9793
109.000000	87.722	-41.2588
110.599998	87.467	-43.3075
112.000000	87.654	-39.9983
113.800003	87.654	-40.8993
115.000000	87.866	-43.7772
117.199997	88.043	-34.0874
118.000000	88.394	-38.3695
120.599998	88.175	-51.5580
122.000000	85.930	-47.2034
124.099998	85.826	-41.1916
125.000000	86.292	-34.8525
126.500000	87.401	-42.8470
128.000000	86.913	-39.6938
131.500000	87.034	-38.3400
132.000000	87.052	-39.1175
134.000000	87.256	-39.3485
136.000000	86.099	-39.4363
138.000000	87.465	-37.5095
140.000000	87.289	-46.1343
143.000000	85.576	-44.1175
145.000000	85.578	-38.3678
147.500000	85.568	-40.6652
150.000000	86.051	-45.4799
152.500000	86.617	-45.7818
155.000000	86.592	-43.4232
157.500000	86.331	-42.8285
160.000000	86.059	-43.8799
162.500000	85.992	-44.3716
165.000000	85.932	-44.0009
167.500000	85.753	-43.9567
170.000000	85.591	-43.7553
172.500000	85.603	-44.3648
175.000000	85.395	-44.2184
177.500000	85.278	-45.1534
180.000000	85.114	-44.0578
182.500000	85.256	-44.4303
185.000000	85.089	-43.9455
187.500000	84.859	-44.3764
190.000000	84.882	-44.5569
192.500000	84.646	-43.3641
195.000000	84.741	-44.3018
197.500000	84.519	-43.9860
200.000000	84.297	-43.4770
203.000000	84.336	-42.6616
206.000000	84.325	-42.7545
209.000000	84.149	-42.3220
212.000000	83.976	-42.1113
214.000000	83.900	-40.6549
218.000000	83.753	-43.9208
220.000000	83.765	-44.1525
224.000000	83.732	-37.6975
227.000000	84.041	-41.1593
230.000000	83.976	-41.0520
233.000000	83.775	-41.5870
236.000000	83.428	-42.2627
240.000000	83.115	-40.6322
243.000000	82.990	-40.8540
247.000000	82.948	-40.9541
250.000000	83.150	-42.4064
254.000000	82.963	-41.5709
258.000000	82.778	-40.0492
262.000000	82.561	-38.8288
265.000000	82.755	-39.6000
269.000000	82.721	-41.6435
272.000000	82.618	-40.4418
276.000000	82.542	-40.0975
280.000000	82.423	-38.6825
285.000000	82.235	-38.7232
290.000000	82.073	-38.9957
295.000000	82.069	-38.5547
300.000000	81.914	-38.3689
304.000000	81.818	-37.7884
307.000000	81.757	-37.2243
311.000000	81.703	-38.1264
315.000000	81.607	-36.8842
320.000000	81.499	-36.8670
325.000000	81.426	-36.4431
330.000000	81.326	-35.9749
335.000000	81.270	-35.3904
340.000000	81.101	-35.4865
345.000000	81.052	-34.4115
350.000000	80.934	-33.9135
355.000000	80.851	-34.0420
360.000000	80.735	-33.1609
365.000000	80.696	-33.1988
370.000000	80.597	-33.7064
375.000000	80.491	-33.1169
382.000000	80.538	-32.9050
387.000000	80.603	-32.8358
395.000000	80.213	-29.5218
400.000000	80.276	-30.3453
406.000000	79.674	-30.9954
412.000000	80.069	-28.8108
418.000000	79.932	-29.4821
425.000000	80.577	-29.3939
431.000000	79.991	-27.0983
437.000000	79.883	-31.5214
444.000000	79.433	-28.7084
450.000000	79.593	-23.7147
455.000000	79.535	-23.7533
462.000000	78.883	-27.2398
468.000000	79.200	-24.2828
475.000000	79.633	-21.8952
482.000000	79.242	-22.3306
487.000000	79.092	-22.8821
494.000000	79.283	-22.4288
500.000000	79.037	-21.5965
508.000000	79.063	-21.1313
515.000000	79.006	-21.0576
522.000000	78.922	-22.6426
530.000000	78.715	-19.3081
538.000000	78.679	-18.7146
545.000000	78.806	-17.9437
552.000000	78.684	-17.8311
560.000000	78.503	-17.2603
570.000000	78.468	-16.3331
580.000000	78.461	-15.4864
590.000000	78.360	-14.4368
600.000000	78.407	-13.4165
608.000000	78.279	-13.2461
615.000000	78.280	-12.0396
622.000000	78.114	-11.6132
630.000000	78.099	-10.6503
640.000000	78.109	-10.2209
650.000000	77.999	-9.2399
660.000000	78.059	-8.4024
670.000000	78.010	-7.3434
680.000000	77.959	-6.4452
690.000000	77.976	-5.5157
700.000000	77.927	-4.6577
710.000000	77.883	-3.7040
720.000000	77.921	-2.8452
730.000000	77.761	-2.3626
740.000000	77.840	-0.9939
750.000000	77.832	0.1139
762.000000	77.782	0.8086
775.000000	77.738	2.5716
788.000000	77.731	3.2404
800.000000	77.793	4.1280
812.000000	77.766	5.5371
825.000000	77.829	6.7569
838.000000	77.888	7.4442
850.000000	77.893	8.8795
862.000000	77.941	9.8439
875.000000	77.983	10.6058
885.000000	77.967	11.8472
900.000000	78.033	13.3138
912.000000	78.063	14.1973
925.000000	78.102	15.0747
938.000000	78.207	16.1442
950.000000	78.290	17.1202
962.000000	78.374	17.8644
975.000000	78.451	18.8186
988.000000	78.481	19.7769
1000.000000	78.633	20.3504
1015.000000	78.655	21.7305
1030.000000	78.806	21.9188
1044.000000	78.896	22.8787
1060.000000	79.031	23.5119
1075.000000	79.088	23.8290
1090.000000	79.219	24.6816
1106.000000	79.269	25.2418
1120.000000	79.369	26.0263
1138.000000	79.434	26.6295
1150.000000	79.465	27.2516
1172.000000	79.589	28.0725
1180.000000	79.554	28.4884
1206.000000	79.704	29.7844
1220.000000	79.878	30.0126
1241.000000	79.818	31.8065
1250.000000	79.949	32.3606
1265.000000	80.010	32.7816
1280.000000	80.177	33.3856
1315.000000	80.415	34.8659
1320.000000	80.459	34.9700
1340.000000	80.542	36.0989
1360.000000	80.699	36.7684
1380.000000	80.951	37.3068
1400.000000	81.081	39.0844
1430.000000	81.209	40.0758
1450.000000	81.410	39.8240
1475.000000	81.475	40.4178
1500.000000	81.682	41.8599
1525.000000	81.819	40.9009
1550.000000	82.060	42.3464
1575.000000	82.247	43.5948
1600.000000	82.410	44.4155
1625.000000	82.702	44.5231
1650.000000	84.066	46.3398
1675.000000	82.545	49.0182
1700.000000	83.008	49.0147
1725.000000	83.190	50.4064
1750.000000	83.577	50.9463
1775.000000	83.933	51.3487
1800.000000	84.198	52.0360
1825.000000	84.649	52.4759
1850.000000	84.729	52.7777
1875.000000	84.963	53.2918
1900.000000	85.274	51.9419
1925.000000	85.610	54.3447
1950.000000	85.756	53.9530
1975.000000	86.023	54.3296
2000.000000	86.433	54.7970
2030.000000	86.896	53.7952
2060.000000	87.200	53.1520
2090.000000	87.532	52.9523
2120.000000	87.862	52.3351
2140.000000	88.082	51.9612
2180.000000	88.493	51.0567
2200.000000	88.721	50.7254
2240.000000	89.151	49.5133
2270.000000	89.475	48.5378
2300.000000	89.764	47.3633
2330.000000	90.092	46.0005
2360.000000	90.381	44.6063
2400.000000	90.723	42.5305
2430.000000	90.995	40.7328
2470.000000	91.269	38.3119
2500.000000	91.467	36.1677
2540.000000	91.714	33.5897
2580.000000	91.876	30.9125
2620.000000	92.000	27.8337
2650.000000	92.087	25.6602
2690.000000	92.065	23.0947
2720.000000	92.102	20.8897
2760.000000	92.084	18.3479
2800.000000	91.981	15.8142
2850.000000	91.825	13.1810
2900.000000	91.628	10.5539
2950.000000	91.363	8.7539
3000.000000	91.092	6.8733
3040.000000	90.781	6.5745
3070.000000	90.756	5.4877
3110.000000	90.485	5.6345
3150.000000	90.279	5.0355
3200.000000	90.046	4.6800
3250.000000	89.874	4.7224
3300.000000	89.668	5.5156
3350.000000	89.455	5.5350
3400.000000	89.320	5.1206
3450.000000	89.145	5.2937
3500.000000	89.037	6.5796
3550.000000	88.965	6.4627
3600.000000	88.784	8.1869
3650.000000	88.639	8.1320
3700.000000	88.650	8.6190
3750.000000	88.504	10.4283
3820.000000	88.516	11.1983
3870.000000	88.512	12.8450
3950.000000	88.587	14.3577
4000.000000	88.487	14.7912
4060.000000	88.461	16.3333
4120.000000	88.738	16.8754
4180.000000	88.876	18.3724
4250.000000	89.064	19.6542
4310.000000	89.264	21.3818
4370.000000	89.389	21.0172
4440.000000	89.744	21.9944
4500.000000	90.009	22.7865
4550.000000	90.286	23.1127
4620.000000	90.891	23.5002
4680.000000	91.198	22.7578
4750.000000	91.806	22.3703
4820.000000	92.313	19.6608
4870.000000	92.816	18.4038
4940.000000	93.480	15.5531
5000.000000	94.001	11.3929
5080.000000	94.401	5.4886
5150.000000	94.689	-1.0674
5220.000000	94.700	-8.9190
5300.000000	94.329	-17.2071
5380.000000	93.615	-24.8702
5450.000000	93.142	-30.2487
5520.000000	92.227	-34.2383
5600.000000	91.382	-38.2385
5700.000000	90.095	-41.7599
5800.000000	88.937	-42.4845
5900.000000	87.934	-42.3542
6000.000000	87.060	-42.2356
6080.000000	86.321	-41.5924
6150.000000	85.653	-39.9417
6220.000000	85.163	-39.0753
6300.000000	84.801	-37.0355
6400.000000	84.371	-35.2876
6500.000000	83.822	-33.6048
6600.000000	83.564	-29.6119
6700.000000	83.396	-27.7140
6800.000000	83.324	-24.9357
6900.000000	83.177	-21.4905
7000.000000	83.090	-19.4615
7100.000000	83.345	-17.3369
7200.000000	83.692	-14.7481
7300.000000	84.087	-13.4310
7400.000000	84.437	-10.7740
7500.000000	85.135	-11.2682
7620.000000	86.074	-9.7878
7750.000000	87.139	-12.4941
7880.000000	88.543	-19.4400
8000.000000	89.838	-28.8330
8120.000000	89.856	-43.6259
8250.000000	88.806	-59.1922
8380.000000	86.950	-69.9015
8500.000000	85.197	-75.4541
8620.000000	83.222	-76.8397
8750.000000	81.692	-75.9962
8850.000000	80.427	-74.3182
9000.000000	78.844	-71.2470
9120.000000	77.791	-66.1665
9250.000000	76.675	-62.0693
9380.000000	75.668	-56.8636
9500.000000	75.001	-52.8567
9620.000000	74.088	-47.1531
9750.000000	73.391	-42.4440
9880.000000	72.759	-37.3690
10000.000000	72.193	-31.2975
10150.000000	71.583	-24.3639
10300.000000	70.849	-18.2855
10440.000000	70.490	-10.9494
10600.000000	69.891	-3.0429
10750.000000	69.448	3.2384
10900.000000	69.051	11.3007
11060.000000	68.610	18.9610
11200.000000	68.542	26.6517
11380.000000	68.150	36.0452
11500.000000	67.921	40.9948
11720.000000	67.821	52.1461
11800.000000	67.796	55.8238
12060.000000	67.599	67.5072
12200.000000	67.423	74.1244
12410.000000	67.432	84.1512
12500.000000	67.402	88.3599
12650.000000	67.430	94.7454
12800.000000	67.640	100.4458
13150.000000	68.031	113.2191
13200.000000	68.214	115.4947
13400.000000	68.642	121.5945
13600.000000	69.277	126.6627
13800.000000	70.295	129.2400
14000.000000	71.141	130.6996
14300.000000	73.453	126.2192
14500.000000	75.142	118.3855
14750.000000	77.325	94.3554
15000.000000	76.793	62.8660
15250.000000	74.197	44.4589
15500.000000	71.929	37.2232
15750.000000	70.179	36.0965
16000.000000	68.990	38.4437
16250.000000	68.808	44.4788
16500.000000	68.617	50.6103
16750.000000	68.827	59.2913
17000.000000	68.980	68.1005
17250.000000	69.580	77.9002
17500.000000	70.133	88.1497
17750.000000	71.128	97.5776
18000.000000	72.380	107.9844
18250.000000	74.148	113.7186
18500.000000	76.219	115.7420
18750.000000	78.258	105.6821
19000.000000	77.545	86.3983
19250.000000	74.481	80.7405
19500.000000	71.686	86.6052
19750.000000	69.176	98.2474
