* Measurement data measured by REW V5.30.9
* Source: Headset (Odo By VECLAN.COM), MICROPHONE (Master Volume), L, volume: 0.250
* Format: 512k Log Swept Sine, 1 sweep at -12.0 dBFS with no timing reference
* Dated: 11 5, 24 2:19:34 PM
* REW Settings:
*  C-weighting compensation: Off
*  Target level: 75.0 dB
* Note: ; 
* Measurement: klean black R
* Smoothing: None
* Frequency Step: 1/48 octave
* Start Frequency: 1.000 Hz
*
* Freq(Hz)	SPL(dB)	Phase(degrees)
1.000000	65.804	-38.3058
1.015000	66.154	-39.1609
1.030000	66.499	-40.0240
1.044000	66.814	-40.8475
1.060000	67.169	-41.8233
1.075000	67.496	-42.7843
1.090000	67.816	-43.8027
1.106000	68.151	-44.9521
1.120000	68.440	-45.9396
1.138000	68.805	-47.1640
1.150000	69.045	-47.9534
1.172000	69.475	-49.3482
1.180000	69.628	-49.8395
1.206000	70.115	-51.3814
1.220000	70.370	-52.1794
1.241000	70.743	-53.3378
1.250000	70.899	-53.8212
1.265000	71.154	-54.6106
1.280000	71.403	-55.3814
1.315000	71.956	-57.1171
1.320000	72.032	-57.3589
1.340000	72.328	-58.3128
1.360000	72.611	-59.2489
1.380000	72.881	-60.1714
1.400000	73.137	-61.0844
1.430000	73.494	-62.4451
1.450000	73.714	-63.3523
1.475000	73.966	-64.4894
1.500000	74.184	-65.5977
1.525000	74.368	-66.6709
1.550000	74.523	-67.7114
1.575000	74.651	-68.7215
1.600000	74.757	-69.7037
1.625000	74.845	-70.6603
1.650000	74.918	-71.5937
1.675000	74.980	-72.5062
1.700000	75.036	-73.4004
1.725000	75.088	-74.2785
1.750000	75.141	-75.1430
1.775000	75.198	-75.9962
1.800000	75.264	-76.8405
1.825000	75.342	-77.6783
1.850000	75.431	-78.5074
1.875000	75.517	-79.3182
1.900000	75.602	-80.1112
1.925000	75.685	-80.8872
1.950000	75.765	-81.6470
1.975000	75.844	-82.3915
2.000000	75.922	-83.1216
2.030000	76.012	-83.9799
2.060000	76.101	-84.8201
2.090000	76.188	-85.6437
2.120000	76.273	-86.4522
2.140000	76.329	-86.9835
2.180000	76.439	-88.0297
2.200000	76.493	-88.5454
2.240000	76.599	-89.5546
2.270000	76.676	-90.2903
2.300000	76.751	-91.0088
2.330000	76.824	-91.7109
2.360000	76.895	-92.3974
2.400000	76.987	-93.2901
2.430000	77.055	-93.9436
2.470000	77.143	-94.7951
2.500000	77.208	-95.4201
2.540000	77.293	-96.2366
2.580000	77.376	-97.0352
2.620000	77.457	-97.8117
2.650000	77.517	-98.3791
2.690000	77.593	-99.1158
2.720000	77.649	-99.6538
2.760000	77.723	-100.3522
2.800000	77.794	-101.0291
2.850000	77.881	-101.8460
2.900000	77.966	-102.6309
2.950000	78.049	-103.3843
3.000000	78.129	-104.1023
3.040000	78.191	-104.6517
3.070000	78.236	-105.0499
3.110000	78.295	-105.5629
3.150000	78.353	-106.0566
3.200000	78.425	-106.6480
3.250000	78.497	-107.2126
3.300000	78.569	-107.7525
3.350000	78.642	-108.2613
3.400000	78.713	-108.7365
3.450000	78.783	-109.1825
3.500000	78.853	-109.6034
3.550000	78.924	-110.0035
3.600000	78.996	-110.3871
3.650000	79.069	-110.7585
3.700000	79.144	-111.1153
3.750000	79.220	-111.4469
3.820000	79.327	-111.8772
3.870000	79.405	-112.1673
3.950000	79.533	-112.6156
4.000000	79.614	-112.8940
4.060000	79.714	-113.2300
4.120000	79.817	-113.5518
4.180000	79.921	-113.8628
4.250000	80.046	-114.2218
4.310000	80.153	-114.5344
4.370000	80.261	-114.8592
4.440000	80.388	-115.2570
4.500000	80.498	-115.6040
4.550000	80.591	-115.8983
4.620000	80.721	-116.3213
4.680000	80.832	-116.6966
4.750000	80.959	-117.1532
4.820000	81.084	-117.6325
4.870000	81.174	-117.9879
4.940000	81.297	-118.5005
5.000000	81.402	-118.9515
5.080000	81.536	-119.5653
5.150000	81.648	-120.1112
5.220000	81.757	-120.6739
5.300000	81.877	-121.3338
5.380000	81.991	-122.0010
5.450000	82.085	-122.5821
5.520000	82.174	-123.1550
5.600000	82.269	-123.8151
5.700000	82.379	-124.6387
5.800000	82.480	-125.4368
5.900000	82.572	-126.1884
6.000000	82.653	-126.9100
6.080000	82.712	-127.4606
6.150000	82.761	-127.9158
6.220000	82.808	-128.3401
6.300000	82.859	-128.7859
6.400000	82.916	-129.2923
6.500000	82.972	-129.7450
6.600000	83.029	-130.1470
6.700000	83.088	-130.4863
6.800000	83.148	-130.7706
6.900000	83.211	-131.0247
7.000000	83.281	-131.2674
7.100000	83.357	-131.4751
7.200000	83.438	-131.6679
7.300000	83.523	-131.8778
7.400000	83.614	-132.1178
7.500000	83.710	-132.3683
7.620000	83.829	-132.7080
7.750000	83.956	-133.1574
7.880000	84.085	-133.6857
8.000000	84.200	-134.2313
8.120000	84.305	-134.8297
8.250000	84.410	-135.5490
8.380000	84.503	-136.3039
8.500000	84.576	-137.0093
8.620000	84.637	-137.7414
8.750000	84.690	-138.5177
8.850000	84.721	-139.0776
9.000000	84.751	-139.8850
9.120000	84.767	-140.4729
9.250000	84.779	-141.0245
9.380000	84.785	-141.5007
9.500000	84.790	-141.8778
9.620000	84.800	-142.1874
9.750000	84.813	-142.4494
9.880000	84.828	-142.6811
10.000000	84.844	-142.8771
10.150000	84.867	-143.0930
10.300000	84.896	-143.3327
10.440000	84.932	-143.5731
10.600000	84.978	-143.8899
10.750000	85.024	-144.2461
10.900000	85.074	-144.6581
11.060000	85.126	-145.1995
11.200000	85.173	-145.7664
11.380000	85.225	-146.5428
11.500000	85.253	-147.0771
11.720000	85.295	-148.0907
11.800000	85.307	-148.4622
12.060000	85.333	-149.6935
12.200000	85.341	-150.3820
12.410000	85.346	-151.4336
12.500000	85.349	-151.8737
12.650000	85.355	-152.5989
12.800000	85.356	-153.3062
13.150000	85.332	-154.8741
13.200000	85.326	-155.0749
13.400000	85.294	-155.8268
13.600000	85.260	-156.4266
13.800000	85.225	-156.8364
14.000000	85.208	-157.1182
14.300000	85.226	-157.3564
14.500000	85.278	-157.4854
14.750000	85.377	-157.7895
15.000000	85.503	-158.3420
15.250000	85.628	-159.2972
15.500000	85.718	-160.5073
15.750000	85.757	-161.8634
16.000000	85.733	-163.1672
16.250000	85.664	-164.2025
16.500000	85.567	-164.8670
16.750000	85.472	-165.0278
17.000000	85.425	-164.8575
17.250000	85.435	-164.5314
17.500000	85.515	-164.2935
17.750000	85.630	-164.3929
18.000000	85.753	-164.8644
18.250000	85.855	-165.7396
18.500000	85.905	-166.7990
18.750000	85.901	-167.8814
19.000000	85.845	-168.8357
19.250000	85.761	-169.5165
19.500000	85.670	-169.9184
19.750000	85.591	-170.0473
20.000000	85.544	-170.0434
20.299999	85.523	-170.0287
20.600000	85.531	-170.1117
20.900000	85.550	-170.3267
21.200001	85.568	-170.6411
21.400000	85.579	-170.8612
21.799999	85.611	-171.3192
22.000000	85.635	-171.5838
22.400000	85.698	-172.3063
22.700001	85.742	-173.0603
23.000000	85.764	-173.9801
23.299999	85.752	-174.9658
23.600000	85.705	-175.8764
24.000000	85.611	-176.7979
24.299999	85.542	-177.2370
24.700001	85.484	-177.5989
25.000000	85.472	-177.8628
25.400000	85.472	-178.3960
25.799999	85.464	-179.1507
26.200001	85.418	-179.9624
26.500000	85.363	179.5364
26.900000	85.283	179.1281
27.200001	85.241	178.9769
27.600000	85.224	178.8160
28.000000	85.239	178.4912
28.500000	85.257	177.7604
29.000000	85.242	176.9378
29.500000	85.220	176.2404
30.000000	85.224	175.5273
30.400000	85.229	174.7562
30.700001	85.211	174.0906
31.100000	85.147	173.3159
31.500000	85.060	172.9189
32.000000	85.010	172.9837
32.500000	85.076	172.9908
33.000000	85.168	172.2770
33.500000	85.160	171.1407
34.000000	85.049	170.5215
34.500000	84.974	170.7302
35.000000	85.024	170.9880
35.500000	85.107	170.4359
36.000000	85.073	169.4198
36.500000	84.926	168.9680
37.000000	84.828	169.4443
37.500000	84.892	169.8896
38.200001	85.032	168.7318
38.700001	84.953	167.2570
39.500000	84.636	166.7529
40.000000	84.582	167.4317
40.599998	84.700	167.5243
41.200001	84.775	166.3568
41.799999	84.692	165.0880
42.500000	84.530	164.6337
43.099998	84.475	164.7155
43.700001	84.469	164.5613
44.400002	84.437	164.1627
45.000000	84.392	163.9770
45.500000	84.374	163.8902
46.200001	84.376	163.5598
46.799999	84.366	162.9693
47.500000	84.306	162.1099
48.200001	84.196	161.3052
48.700001	84.097	160.8726
49.400002	83.961	160.5687
50.000000	83.882	160.4875
50.799999	83.830	160.2441
51.500000	83.787	159.8421
52.200001	83.733	159.4953
53.000000	83.687	159.2247
53.799999	83.664	158.9236
54.500000	83.641	158.5651
55.200001	83.592	158.2642
56.000000	83.540	158.2622
57.000000	83.563	158.2085
58.000000	83.561	157.4567
59.000000	83.455	156.7082
60.000000	83.289	156.4402
60.799999	83.201	156.6500
61.500000	83.176	156.5885
62.200001	83.123	156.2646
63.000000	83.053	156.0702
64.000000	82.996	155.4323
65.000000	82.825	155.0395
66.000000	82.798	155.2211
67.000000	82.705	154.0886
68.000000	82.424	154.6340
69.000000	82.456	155.7134
70.000000	82.423	155.3018
71.000000	82.310	155.8220
72.000000	82.330	156.0794
73.000000	82.301	155.9486
74.000000	82.298	155.9084
75.000000	82.297	155.5435
76.199997	82.269	155.1198
77.500000	82.212	154.7095
78.800003	82.145	154.8284
80.000000	82.173	154.4718
81.199997	82.005	154.1237
82.500000	82.055	154.3553
83.800003	81.903	153.3620
85.000000	81.905	153.2639
86.199997	81.743	152.4130
87.500000	81.714	152.5544
88.500000	81.631	152.1919
90.000000	81.567	151.9174
91.199997	81.432	152.2452
92.500000	81.401	152.1066
93.800003	81.310	152.3646
95.000000	81.216	152.2089
96.199997	81.248	152.5567
97.500000	81.118	151.8077
98.800003	81.251	152.3087
100.000000	81.101	150.3232
101.500000	80.963	151.7170
103.000000	80.909	151.1398
104.400002	80.842	151.5801
106.000000	80.846	151.7726
107.500000	80.865	150.8796
109.000000	80.673	150.3203
110.599998	80.620	150.7648
112.000000	80.561	150.1497
113.800003	80.382	150.5939
115.000000	80.419	150.8360
117.199997	80.349	150.6313
118.000000	80.342	150.6248
120.599998	80.284	150.2084
122.000000	80.161	150.2134
124.099998	80.022	150.3892
125.000000	79.975	150.5322
126.500000	79.913	150.6957
128.000000	79.868	150.7245
131.500000	79.743	150.5122
132.000000	79.723	150.5598
134.000000	79.640	150.5015
136.000000	79.545	150.5275
138.000000	79.478	150.5853
140.000000	79.404	150.5205
143.000000	79.370	150.8311
145.000000	79.283	151.0799
147.500000	79.209	151.1620
150.000000	79.135	151.2791
152.500000	79.066	151.2977
155.000000	79.019	151.2835
157.500000	78.917	151.2298
160.000000	78.834	151.3666
162.500000	78.731	151.5910
165.000000	78.625	151.6948
167.500000	78.521	151.7567
170.000000	78.443	151.9610
172.500000	78.343	152.0276
175.000000	78.241	152.2692
177.500000	78.121	152.5106
180.000000	78.037	152.6148
182.500000	77.945	153.0462
185.000000	77.846	153.5251
187.500000	77.779	153.9286
190.000000	77.642	154.5212
192.500000	77.565	154.9706
195.000000	77.546	155.8481
197.500000	77.506	156.4487
200.000000	77.498	157.1349
203.000000	77.664	157.7712
206.000000	77.707	158.1783
209.000000	77.723	157.6847
212.000000	77.703	157.0562
214.000000	77.652	156.9080
218.000000	77.579	156.6774
220.000000	77.534	156.6955
224.000000	77.439	156.6864
227.000000	77.355	156.9975
230.000000	77.298	156.9828
233.000000	77.223	157.0916
236.000000	77.183	157.1451
240.000000	77.130	158.0328
243.000000	77.049	157.8486
247.000000	76.982	158.0230
250.000000	76.935	158.2253
254.000000	76.854	158.6451
258.000000	76.788	158.8108
262.000000	76.718	159.2092
265.000000	76.665	159.4994
269.000000	76.611	159.8766
272.000000	76.557	160.0616
276.000000	76.499	160.3955
280.000000	76.447	160.7963
285.000000	76.394	161.1296
290.000000	76.323	161.5718
295.000000	76.255	162.0273
300.000000	76.190	162.4651
304.000000	76.169	162.7747
307.000000	76.107	163.0444
311.000000	76.063	163.3937
315.000000	76.026	163.8327
320.000000	75.957	164.2140
325.000000	75.918	164.5869
330.000000	75.868	165.0098
335.000000	75.829	165.4916
340.000000	75.790	165.9123
345.000000	75.757	166.4526
350.000000	75.704	166.7863
355.000000	75.653	167.0399
360.000000	75.475	166.9393
365.000000	75.590	167.9554
370.000000	75.537	168.3835
375.000000	75.518	168.8199
382.000000	75.462	169.3671
387.000000	75.417	169.6962
395.000000	75.364	170.3786
400.000000	75.368	170.8436
406.000000	75.312	171.3795
412.000000	75.267	171.8062
418.000000	75.259	172.3395
425.000000	75.200	172.9097
431.000000	75.175	173.4368
437.000000	75.145	173.8482
444.000000	75.125	174.4136
450.000000	75.077	174.8513
455.000000	75.061	175.2606
462.000000	75.045	175.8715
468.000000	75.008	176.3163
475.000000	75.003	176.8066
482.000000	74.986	177.3614
487.000000	74.975	177.7408
494.000000	74.958	178.2716
500.000000	74.948	178.6912
508.000000	74.930	179.3461
515.000000	74.906	179.8918
522.000000	74.881	-179.5977
530.000000	74.863	-178.9710
538.000000	74.843	-178.4378
545.000000	74.828	-177.9060
552.000000	74.823	-177.3751
560.000000	74.806	-176.7705
570.000000	74.797	-176.0446
580.000000	74.784	-175.3092
590.000000	74.772	-174.6134
600.000000	74.766	-173.8094
608.000000	74.767	-173.2389
615.000000	74.769	-172.7493
622.000000	74.757	-172.2292
630.000000	74.757	-171.6293
640.000000	74.766	-170.8642
650.000000	74.758	-170.1913
660.000000	74.775	-169.5018
670.000000	74.781	-168.6922
680.000000	74.791	-168.0285
690.000000	74.809	-167.3859
700.000000	74.811	-166.6014
710.000000	74.820	-165.8521
720.000000	74.839	-165.1401
730.000000	74.854	-164.4388
740.000000	74.875	-163.7184
750.000000	74.898	-163.0387
762.000000	74.933	-162.1351
775.000000	74.961	-161.1931
788.000000	74.994	-160.2970
800.000000	75.039	-159.3934
812.000000	75.084	-158.5645
825.000000	75.132	-157.6812
838.000000	75.182	-156.7238
850.000000	75.234	-155.9632
862.000000	75.291	-155.1370
875.000000	75.366	-154.2834
885.000000	75.417	-153.6279
900.000000	75.501	-152.6107
912.000000	75.571	-151.8822
925.000000	75.661	-151.0701
938.000000	75.751	-150.2150
950.000000	75.827	-149.5488
962.000000	75.917	-148.8878
975.000000	76.007	-148.2124
988.000000	76.111	-147.4799
1000.000000	76.200	-146.8973
1015.000000	76.323	-146.1877
1030.000000	76.446	-145.4970
1044.000000	76.562	-144.9521
1060.000000	76.701	-144.2686
1075.000000	76.827	-143.7368
1090.000000	76.955	-143.2136
1106.000000	77.094	-142.7563
1120.000000	77.209	-142.3222
1138.000000	77.366	-141.8665
1150.000000	77.455	-141.5332
1172.000000	77.636	-141.1286
1180.000000	77.700	-140.9538
1206.000000	77.905	-140.5416
1220.000000	78.001	-140.3471
1241.000000	78.130	-139.9747
1250.000000	78.196	-139.7874
1265.000000	78.307	-139.4635
1280.000000	78.431	-139.1333
1315.000000	78.693	-138.6765
1320.000000	78.727	-138.5717
1340.000000	78.872	-138.3465
1360.000000	79.014	-138.1405
1380.000000	79.166	-137.8937
1400.000000	79.299	-137.6993
1430.000000	79.513	-137.4151
1450.000000	79.651	-137.2212
1475.000000	79.827	-136.9352
1500.000000	79.997	-136.7409
1525.000000	80.177	-136.5722
1550.000000	80.346	-136.3841
1575.000000	80.520	-136.1924
1600.000000	80.704	-136.0841
1625.000000	80.874	-135.9225
1650.000000	81.051	-135.8941
1675.000000	81.233	-135.7781
1700.000000	81.399	-135.7772
1725.000000	81.590	-135.7050
1750.000000	81.781	-135.8449
1775.000000	81.972	-135.8815
1800.000000	82.162	-135.9968
1825.000000	82.358	-136.1823
1850.000000	82.546	-136.3270
1875.000000	82.733	-136.6017
1900.000000	82.925	-136.9465
1925.000000	83.121	-137.2311
1950.000000	83.310	-137.6799
1975.000000	83.502	-138.0817
2000.000000	83.688	-138.6278
2030.000000	83.921	-139.3214
2060.000000	84.148	-140.1011
2090.000000	84.364	-140.9404
2120.000000	84.576	-141.9027
2140.000000	84.718	-142.6184
2180.000000	84.981	-144.0791
2200.000000	85.104	-144.8684
2240.000000	85.329	-146.5170
2270.000000	85.486	-147.8525
2300.000000	85.634	-149.1910
2330.000000	85.765	-150.6014
2360.000000	85.894	-152.0889
2400.000000	86.026	-154.2060
2430.000000	86.098	-155.8708
2470.000000	86.165	-158.0069
2500.000000	86.179	-159.6699
2540.000000	86.177	-161.7240
2580.000000	86.144	-163.6077
2620.000000	86.088	-165.3615
2650.000000	86.030	-166.4250
2690.000000	85.964	-167.7564
2720.000000	85.917	-168.6778
2760.000000	85.867	-169.9344
2800.000000	85.811	-171.1992
2850.000000	85.698	-172.7555
2900.000000	85.564	-174.1180
2950.000000	85.420	-175.3004
3000.000000	85.262	-176.2869
3040.000000	85.137	-176.9209
3070.000000	85.046	-177.4030
3110.000000	84.922	-177.9031
3150.000000	84.797	-178.3657
3200.000000	84.620	-178.7569
3250.000000	84.438	-178.9729
3300.000000	84.271	-179.0938
3350.000000	84.118	-179.0768
3400.000000	83.976	-178.9596
3450.000000	83.848	-178.8087
3500.000000	83.730	-178.5211
3550.000000	83.627	-178.2331
3600.000000	83.534	-177.8234
3650.000000	83.451	-177.4203
3700.000000	83.376	-176.9086
3750.000000	83.323	-176.4005
3820.000000	83.280	-175.6774
3870.000000	83.260	-175.1596
3950.000000	83.253	-174.3373
4000.000000	83.257	-173.8438
4060.000000	83.294	-173.3282
4120.000000	83.341	-172.7448
4180.000000	83.402	-172.2311
4250.000000	83.489	-171.6386
4310.000000	83.586	-171.1874
4370.000000	83.698	-170.8017
4440.000000	83.842	-170.4467
4500.000000	83.976	-170.1887
4550.000000	84.099	-170.1306
4620.000000	84.283	-170.0810
4680.000000	84.457	-170.1779
4750.000000	84.661	-170.4580
4820.000000	84.872	-170.9331
4870.000000	85.030	-171.4489
4940.000000	85.243	-172.2614
5000.000000	85.427	-173.2243
5080.000000	85.605	-174.6884
5150.000000	85.742	-176.2059
5220.000000	85.856	-177.9219
5300.000000	85.956	179.9277
5380.000000	86.016	177.6382
5450.000000	86.026	175.5526
5520.000000	86.003	173.4335
5600.000000	85.940	170.8936
5700.000000	85.806	167.7106
5800.000000	85.591	164.5155
5900.000000	85.293	161.2566
6000.000000	84.866	158.1860
6080.000000	84.427	156.2006
6150.000000	83.990	154.9734
6220.000000	83.529	154.4380
6300.000000	83.032	154.5577
6400.000000	82.543	155.5239
6500.000000	82.179	157.1595
6600.000000	81.943	159.0680
6700.000000	81.793	160.8319
6800.000000	81.728	162.6635
6900.000000	81.739	164.3824
7000.000000	81.833	166.0298
7100.000000	82.005	167.4831
7200.000000	82.274	168.6868
7300.000000	82.628	169.4337
7400.000000	83.059	169.6395
7500.000000	83.584	169.0941
7620.000000	84.301	167.1189
7750.000000	85.150	162.7058
7880.000000	85.907	155.2380
8000.000000	86.283	145.3875
8120.000000	86.040	133.9077
8250.000000	85.041	122.2160
8380.000000	83.524	113.5016
8500.000000	81.947	108.5135
8620.000000	80.386	105.9870
8750.000000	78.780	105.3215
8850.000000	77.629	105.8658
9000.000000	76.037	107.8495
9120.000000	74.885	110.3234
9250.000000	73.747	113.4148
9380.000000	72.699	117.0003
9500.000000	71.830	120.7246
9620.000000	71.004	124.4027
9750.000000	70.193	128.8302
9880.000000	69.427	133.5340
10000.000000	68.787	137.8642
10150.000000	68.107	143.4899
10300.000000	67.499	149.1996
10440.000000	66.934	155.1447
10600.000000	66.363	161.9398
10750.000000	65.900	168.7728
10900.000000	65.468	176.1274
11060.000000	65.123	-175.3602
11200.000000	64.919	-167.0804
11380.000000	64.905	-154.9699
11500.000000	65.138	-146.7577
11720.000000	66.314	-132.2194
11800.000000	66.989	-128.1561
12060.000000	69.339	-121.0823
12200.000000	70.403	-120.9610
12410.000000	71.437	-121.8532
12500.000000	71.737	-122.0228
12650.000000	72.204	-121.7076
12800.000000	72.660	-120.7952
13150.000000	74.044	-117.8673
13200.000000	74.286	-117.4605
13400.000000	75.426	-116.8849
13600.000000	76.820	-118.2479
13800.000000	78.327	-122.9982
14000.000000	79.699	-132.3734
14300.000000	80.338	-153.1449
14500.000000	79.622	-165.3377
14750.000000	78.171	-174.3535
15000.000000	76.871	-178.2984
15250.000000	75.824	-179.4044
15500.000000	75.118	-179.1381
15750.000000	74.754	-179.0268
16000.000000	74.609	179.7208
16250.000000	74.789	176.3608
16500.000000	74.803	170.3286
16750.000000	74.328	162.5014
17000.000000	73.211	155.3356
17250.000000	71.681	150.9818
17500.000000	69.985	149.7952
17750.000000	68.353	151.2502
18000.000000	66.803	154.6028
18250.000000	65.363	159.9449
18500.000000	64.059	166.5894
18750.000000	63.014	174.9113
19000.000000	62.299	-176.4801
19250.000000	61.672	-168.1573
19500.000000	61.368	-159.4405
19750.000000	61.115	-150.5624
