* Measurement data measured by REW V5.30.9
* Source: Microphone (Realtek USB2.0 Audio), MICROPHONE (Master Volume), L, volume: 0.500
* Format: 1M Log Swept Sine, 1 sweep at -12.0 dBFS with no timing reference
* Dated: 06 29, 24 12:50:39 PM
* REW Settings:
*  C-weighting compensation: Off
*  Target level: 75.0 dB
* Note: ; 
* Measurement: libra R
* Smoothing: None
* Frequency Step: 1/48 octave
* Start Frequency: 1.000 Hz
*
* Freq(Hz)	SPL(dB)	Phase(degrees)
1.000000	51.654	-124.7685
1.015000	51.703	-124.8097
1.030000	51.748	-124.8406
1.044000	51.787	-124.8604
1.060000	51.827	-124.8721
1.075000	51.861	-124.8723
1.090000	51.891	-124.8619
1.106000	51.919	-124.8388
1.120000	51.940	-124.8084
1.138000	51.963	-124.7548
1.150000	51.976	-124.7099
1.172000	51.994	-124.6082
1.180000	51.999	-124.5649
1.206000	52.009	-124.4003
1.220000	52.012	-124.2963
1.241000	52.011	-124.1197
1.250000	52.010	-124.0363
1.265000	52.005	-123.8869
1.280000	51.998	-123.7244
1.315000	51.975	-123.2927
1.320000	51.970	-123.2249
1.340000	51.952	-122.9382
1.360000	51.929	-122.6336
1.380000	51.900	-122.3289
1.400000	51.864	-122.0205
1.430000	51.799	-121.5404
1.450000	51.750	-121.2014
1.475000	51.682	-120.7480
1.500000	51.608	-120.2527
1.525000	51.529	-119.7058
1.550000	51.445	-119.0979
1.575000	51.359	-118.4195
1.600000	51.271	-117.6611
1.625000	51.182	-116.8130
1.650000	51.092	-115.8658
1.675000	51.004	-114.8100
1.700000	50.914	-113.6450
1.725000	50.810	-112.3922
1.750000	50.695	-111.0551
1.775000	50.572	-109.6360
1.800000	50.445	-108.1370
1.825000	50.316	-106.5603
1.850000	50.189	-104.9080
1.875000	50.067	-103.1823
1.900000	49.952	-101.3854
1.925000	49.849	-99.5195
1.950000	49.761	-97.5868
1.975000	49.689	-95.5893
2.000000	49.639	-93.5294
2.030000	49.608	-90.9658
2.060000	49.597	-88.1925
2.090000	49.600	-85.2171
2.120000	49.619	-82.0834
2.140000	49.642	-79.9279
2.180000	49.710	-75.5163
2.200000	49.757	-73.2861
2.240000	49.876	-68.8419
2.270000	49.990	-65.5741
2.300000	50.125	-62.4109
2.330000	50.282	-59.3963
2.360000	50.464	-56.5715
2.400000	50.758	-52.9556
2.430000	51.017	-50.3022
2.470000	51.404	-46.8546
2.500000	51.718	-44.3449
2.540000	52.160	-41.1122
2.580000	52.616	-38.0231
2.620000	53.074	-35.0928
2.650000	53.411	-33.0084
2.690000	53.842	-30.3926
2.720000	54.156	-28.5766
2.760000	54.583	-26.3672
2.800000	55.016	-24.3618
2.850000	55.561	-22.0788
2.900000	56.101	-19.9687
2.950000	56.631	-17.9506
3.000000	57.142	-15.9432
3.040000	57.533	-14.2996
3.070000	57.819	-13.1102
3.110000	58.193	-11.6067
3.150000	58.558	-10.1689
3.200000	59.002	-8.4168
3.250000	59.433	-6.6583
3.300000	59.852	-4.8328
3.350000	60.258	-2.8798
3.400000	60.651	-0.7844
3.450000	61.030	1.3634
3.500000	61.395	3.5725
3.550000	61.749	5.8589
3.600000	62.091	8.2388
3.650000	62.424	10.7281
3.700000	62.748	13.3430
3.750000	63.062	16.1393
3.820000	63.483	20.3556
3.870000	63.771	23.4940
3.950000	64.216	28.5549
4.000000	64.485	31.6413
4.060000	64.800	35.1857
4.120000	65.103	38.7395
4.180000	65.395	42.2825
4.250000	65.724	46.2761
4.310000	65.999	49.4706
4.370000	66.271	52.3540
4.440000	66.580	55.3135
4.500000	66.836	57.5823
4.550000	67.046	59.2956
4.620000	67.336	61.4406
4.680000	67.584	63.0597
4.750000	67.873	64.6895
4.820000	68.158	65.9741
4.870000	68.360	66.7129
4.940000	68.644	67.5563
5.000000	68.889	68.1539
5.080000	69.221	68.8360
5.150000	69.515	69.2435
5.220000	69.811	69.4859
5.300000	70.154	69.6163
5.380000	70.504	69.6523
5.450000	70.817	69.6021
5.520000	71.135	69.4428
5.600000	71.504	69.1647
5.700000	71.973	68.7374
5.800000	72.451	68.2508
5.900000	72.938	67.6645
6.000000	73.429	67.0221
6.080000	73.822	66.4969
6.150000	74.169	66.0199
6.220000	74.516	65.5239
6.300000	74.913	64.9409
6.400000	75.405	64.1994
6.500000	75.893	63.4429
6.600000	76.377	62.6680
6.700000	76.854	61.8802
6.800000	77.323	61.0787
6.900000	77.785	60.2581
7.000000	78.240	59.4377
7.100000	78.687	58.6364
7.200000	79.126	57.8467
7.300000	79.558	57.0701
7.400000	79.985	56.3143
7.500000	80.406	55.5784
7.620000	80.904	54.7208
7.750000	81.438	53.8406
7.880000	81.966	53.0236
8.000000	82.449	52.3104
8.120000	82.928	51.6191
8.250000	83.442	50.9058
8.380000	83.949	50.2034
8.500000	84.409	49.5447
8.620000	84.863	48.8849
8.750000	85.342	48.1519
8.850000	85.701	47.5708
9.000000	86.223	46.6757
9.120000	86.624	45.9340
9.250000	87.040	45.0960
9.380000	87.438	44.2460
9.500000	87.788	43.4687
9.620000	88.121	42.6898
9.750000	88.465	41.8677
9.880000	88.791	41.0766
10.000000	89.077	40.3717
10.150000	89.421	39.5451
10.300000	89.747	38.7775
10.440000	90.042	38.1174
10.600000	90.370	37.4409
10.750000	90.670	36.8585
10.900000	90.966	36.3116
11.060000	91.277	35.7600
11.200000	91.547	35.2762
11.380000	91.889	34.6587
11.500000	92.112	34.2392
11.720000	92.513	33.4559
11.800000	92.655	33.1682
12.060000	93.102	32.2204
12.200000	93.335	31.7184
12.410000	93.672	30.9822
12.500000	93.815	30.6868
12.650000	94.049	30.2215
12.800000	94.281	29.7734
13.150000	94.809	28.7681
13.200000	94.853	28.6187
13.400000	94.966	28.0079
13.600000	95.032	27.3805
13.800000	95.068	26.7263
14.000000	95.111	26.0214
14.300000	95.170	24.9090
14.500000	95.202	24.1850
14.750000	95.223	23.3917
15.000000	95.244	22.7186
15.250000	95.278	22.1347
15.500000	95.329	21.6084
15.750000	95.390	21.1126
16.000000	95.463	20.5183
16.250000	95.540	19.7948
16.500000	95.607	18.9537
16.750000	95.638	18.0974
17.000000	95.641	17.3173
17.250000	95.626	16.6931
17.500000	95.606	16.2879
17.750000	95.594	16.1425
18.000000	95.618	16.1041
18.250000	95.684	16.0190
18.500000	95.790	15.7338
18.750000	95.904	15.1092
19.000000	96.003	14.1015
19.250000	96.064	12.7700
19.500000	96.066	11.2256
19.750000	95.987	9.7020
20.000000	95.841	8.4026
20.299999	95.606	7.3751
20.600000	95.354	7.1436
20.900000	95.154	7.7046
21.200001	95.078	8.7173
21.400000	95.108	9.3718
21.799999	95.304	10.0153
22.000000	95.432	9.8367
22.400000	95.663	8.5513
22.700001	95.752	7.1316
23.000000	95.758	5.6955
23.299999	95.705	4.5244
23.600000	95.629	3.7975
24.000000	95.566	3.4376
24.299999	95.580	3.2873
24.700001	95.649	2.8156
25.000000	95.690	2.1727
25.400000	95.683	1.1545
25.799999	95.599	0.5114
26.200001	95.524	0.4842
26.500000	95.525	0.6708
26.900000	95.597	0.6139
27.200001	95.660	0.0274
27.600000	95.647	-1.3262
28.000000	95.458	-2.6126
28.500000	95.062	-2.6718
29.000000	94.825	-0.4958
29.500000	95.020	1.7857
30.000000	95.431	1.6440
30.400000	95.669	-0.2367
30.700001	95.721	-2.0701
31.100000	95.631	-4.3183
31.500000	95.449	-5.7991
32.000000	95.252	-6.5437
32.500000	95.187	-6.9253
33.000000	95.185	-7.6310
33.500000	95.163	-8.5926
34.000000	95.109	-9.3021
34.500000	95.083	-9.6583
35.000000	95.109	-9.9375
35.500000	95.165	-10.5099
36.000000	95.185	-11.3420
36.500000	95.145	-12.1858
37.000000	95.061	-12.7120
37.500000	94.987	-12.9344
38.200001	94.918	-13.1938
38.700001	94.861	-13.5189
39.500000	94.732	-13.8303
40.000000	94.681	-13.8339
40.599998	94.672	-14.0637
41.200001	94.667	-14.6836
41.799999	94.639	-15.5148
42.500000	94.578	-16.6822
43.099998	94.456	-17.7273
43.700001	94.266	-18.1613
44.400002	94.145	-17.4875
45.000000	94.229	-17.0437
45.500000	94.333	-17.4804
46.200001	94.352	-18.6601
46.799999	94.288	-19.2103
47.500000	94.272	-19.4585
48.200001	94.281	-20.1515
48.700001	94.234	-20.7588
49.400002	94.129	-21.1320
50.000000	94.086	-21.1843
50.799999	94.068	-21.6410
51.500000	93.999	-22.2060
52.200001	93.915	-22.4588
53.000000	93.866	-22.6953
53.799999	93.821	-23.2203
54.500000	93.754	-23.6478
55.200001	93.695	-23.9417
56.000000	93.656	-24.3245
57.000000	93.608	-25.0781
58.000000	93.502	-25.8017
59.000000	93.405	-26.0121
60.000000	93.366	-26.2804
60.799999	93.321	-26.6127
61.500000	93.281	-26.8481
62.200001	93.242	-27.1471
63.000000	93.180	-27.5780
64.000000	93.068	-28.0065
65.000000	92.968	-28.1565
66.000000	92.910	-28.4437
67.000000	92.826	-28.8307
68.000000	92.747	-29.1537
69.000000	92.640	-29.2489
70.000000	92.646	-29.0198
71.000000	92.649	-30.0603
72.000000	92.451	-30.5692
73.000000	92.357	-30.2802
74.000000	92.284	-30.3344
75.000000	92.261	-30.1977
76.199997	92.251	-30.9407
77.500000	92.136	-31.3835
78.800003	92.083	-31.6536
80.000000	92.037	-32.0351
81.199997	91.979	-32.5346
82.500000	91.835	-33.0400
83.800003	91.784	-33.0345
85.000000	91.627	-34.0266
86.199997	91.558	-33.4490
87.500000	91.416	-35.1521
88.500000	91.203	-33.6560
90.000000	91.439	-34.1861
91.199997	91.320	-34.7828
92.500000	91.170	-35.2335
93.800003	91.093	-34.8504
95.000000	90.998	-35.1444
96.199997	90.905	-35.2327
97.500000	90.865	-34.8323
98.800003	90.873	-36.1621
100.000000	90.645	-36.0482
101.500000	90.638	-35.4925
103.000000	90.622	-35.6412
104.400002	90.526	-35.6195
106.000000	90.491	-35.4367
107.500000	90.361	-35.8342
109.000000	90.299	-35.9611
110.599998	90.186	-35.4939
112.000000	90.117	-36.5090
113.800003	90.133	-36.7652
115.000000	89.891	-36.6184
117.199997	90.000	-38.3108
118.000000	89.797	-37.8995
120.599998	89.682	-36.6585
122.000000	89.714	-36.8697
124.099998	89.729	-37.1613
125.000000	89.656	-38.0438
126.500000	89.475	-37.8308
128.000000	89.470	-38.0115
131.500000	89.296	-38.0306
132.000000	89.272	-37.9267
134.000000	89.198	-38.2998
136.000000	89.079	-38.1991
138.000000	88.999	-38.2072
140.000000	88.861	-38.0984
143.000000	88.714	-38.3242
145.000000	88.682	-38.1452
147.500000	88.612	-38.7859
150.000000	88.488	-37.9999
152.500000	88.405	-38.3443
155.000000	88.274	-38.0815
157.500000	88.144	-38.6034
160.000000	88.111	-38.1737
162.500000	88.073	-37.8128
165.000000	87.909	-37.2572
167.500000	87.702	-37.7290
170.000000	87.619	-37.3595
172.500000	87.586	-37.9153
175.000000	87.470	-37.0356
177.500000	87.248	-36.5818
180.000000	87.262	-36.6913
182.500000	87.178	-36.3272
185.000000	87.218	-37.1420
187.500000	87.180	-36.1989
190.000000	86.969	-35.9557
192.500000	86.875	-36.2596
195.000000	86.811	-35.8529
197.500000	86.744	-35.9774
200.000000	86.796	-35.5736
203.000000	86.645	-34.2582
206.000000	86.767	-34.6655
209.000000	86.368	-34.8150
212.000000	86.543	-34.3477
214.000000	86.508	-35.9813
218.000000	86.518	-35.8019
220.000000	86.527	-34.5395
224.000000	86.294	-35.2788
227.000000	86.141	-34.9548
230.000000	86.134	-34.2358
233.000000	86.090	-34.6061
236.000000	86.051	-35.4779
240.000000	85.842	-32.8136
243.000000	85.843	-34.0116
247.000000	85.707	-33.4133
250.000000	85.603	-34.1747
254.000000	85.541	-33.2224
258.000000	85.477	-33.6895
262.000000	85.465	-32.9414
265.000000	85.402	-33.6601
269.000000	85.343	-32.2741
272.000000	85.195	-32.9190
276.000000	85.086	-32.3279
280.000000	85.050	-31.9033
285.000000	85.003	-31.7131
290.000000	84.862	-31.4197
295.000000	84.798	-30.9179
300.000000	84.693	-29.7364
304.000000	84.579	-30.2107
307.000000	84.530	-30.0548
311.000000	84.443	-29.3558
315.000000	84.489	-28.8809
320.000000	84.403	-29.2141
325.000000	84.252	-28.2000
330.000000	84.182	-28.0021
335.000000	84.207	-27.7515
340.000000	84.204	-27.8398
345.000000	84.065	-27.3390
350.000000	83.944	-25.9451
355.000000	83.928	-25.4307
360.000000	83.894	-25.2598
365.000000	83.838	-26.4668
370.000000	83.759	-25.8113
375.000000	83.900	-25.4838
382.000000	83.625	-24.8624
387.000000	83.635	-24.5029
395.000000	83.525	-23.7576
400.000000	83.425	-24.2991
406.000000	83.468	-22.9183
412.000000	83.373	-22.9212
418.000000	83.121	-23.0235
425.000000	83.275	-21.8755
431.000000	83.220	-20.7308
437.000000	83.124	-21.3446
444.000000	83.012	-20.5207
450.000000	82.985	-19.5984
455.000000	82.899	-19.8404
462.000000	82.865	-19.1571
468.000000	82.864	-19.1421
475.000000	82.778	-18.6659
482.000000	82.766	-17.7245
487.000000	82.622	-17.5692
494.000000	82.671	-17.2808
500.000000	82.673	-16.0555
508.000000	82.624	-15.9692
515.000000	82.460	-15.2089
522.000000	82.530	-15.1046
530.000000	82.473	-14.8171
538.000000	82.433	-13.5447
545.000000	82.317	-13.2923
552.000000	82.199	-12.8236
560.000000	82.140	-12.2601
570.000000	82.199	-11.0257
580.000000	82.173	-10.4095
590.000000	81.997	-10.0410
600.000000	81.915	-8.5551
608.000000	82.056	-7.9206
615.000000	82.109	-8.6670
622.000000	82.014	-7.3928
630.000000	82.126	-7.1221
640.000000	82.027	-6.5719
650.000000	82.016	-5.3636
660.000000	81.795	-5.4013
670.000000	81.888	-4.6289
680.000000	81.900	-3.7487
690.000000	81.893	-3.0992
700.000000	81.889	-2.1273
710.000000	81.862	-1.5941
720.000000	81.826	-1.0079
730.000000	81.837	0.0214
740.000000	81.840	0.7438
750.000000	81.829	1.4703
762.000000	81.784	2.4250
775.000000	81.735	3.0038
788.000000	81.759	4.0518
800.000000	81.763	4.5023
812.000000	81.710	6.1413
825.000000	81.684	7.9772
838.000000	81.936	9.4592
850.000000	82.006	9.5587
862.000000	82.055	10.4311
875.000000	82.039	10.6329
885.000000	82.111	11.6286
900.000000	82.165	12.1980
912.000000	82.225	13.4674
925.000000	82.237	13.6730
938.000000	82.333	14.6367
950.000000	82.391	15.4621
962.000000	82.445	16.1773
975.000000	82.437	16.8576
988.000000	82.618	17.6700
1000.000000	82.668	18.3049
1015.000000	82.759	18.5977
1030.000000	82.843	19.7630
1044.000000	82.928	20.2430
1060.000000	83.082	21.1059
1075.000000	83.189	21.3091
1090.000000	83.332	21.7451
1106.000000	83.432	22.3822
1120.000000	83.499	22.6369
1138.000000	83.650	23.0599
1150.000000	83.748	23.5276
1172.000000	83.868	23.6962
1180.000000	83.968	24.1986
1206.000000	84.073	24.2992
1220.000000	84.199	24.5492
1241.000000	84.316	24.8809
1250.000000	84.341	24.9256
1265.000000	84.421	25.1336
1280.000000	84.527	25.2283
1315.000000	84.699	25.6330
1320.000000	84.712	25.5724
1340.000000	84.799	25.7825
1360.000000	84.930	25.8646
1380.000000	85.012	25.9855
1400.000000	85.067	26.2497
1430.000000	85.193	26.5049
1450.000000	85.281	26.7693
1475.000000	85.372	26.7911
1500.000000	85.472	27.0927
1525.000000	85.504	27.4083
1550.000000	85.612	27.6951
1575.000000	85.700	27.7942
1600.000000	85.775	28.2535
1625.000000	85.870	28.6053
1650.000000	85.930	28.9580
1675.000000	85.996	29.0284
1700.000000	86.044	29.6606
1725.000000	86.128	29.8732
1750.000000	86.175	30.4622
1775.000000	86.242	31.0451
1800.000000	86.243	32.0722
1825.000000	86.359	33.8436
1850.000000	86.543	34.8976
1875.000000	86.695	36.3757
1900.000000	86.984	37.1833
1925.000000	87.280	37.3271
1950.000000	87.548	36.9149
1975.000000	87.794	36.4345
2000.000000	87.952	35.8578
2030.000000	88.109	35.4351
2060.000000	88.364	35.6517
2090.000000	88.513	35.4602
2120.000000	88.665	35.4507
2140.000000	88.812	35.6834
2180.000000	89.116	34.8497
2200.000000	89.125	34.6620
2240.000000	89.424	33.6045
2270.000000	89.598	33.3595
2300.000000	89.697	32.9942
2330.000000	89.807	32.6528
2360.000000	89.911	32.0184
2400.000000	90.055	31.5807
2430.000000	90.174	31.3076
2470.000000	90.328	30.9384
2500.000000	90.472	31.1346
2540.000000	90.587	30.3261
2580.000000	90.820	29.8184
2620.000000	90.994	29.3297
2650.000000	91.135	29.1239
2690.000000	91.277	27.7848
2720.000000	91.477	27.7372
2760.000000	91.742	27.0147
2800.000000	91.891	25.8751
2850.000000	92.114	24.5030
2900.000000	92.298	22.6769
2950.000000	92.427	20.9116
3000.000000	92.505	18.9873
3040.000000	92.508	17.9858
3070.000000	92.583	16.8721
3110.000000	92.606	15.6660
3150.000000	92.610	14.1910
3200.000000	92.555	12.9797
3250.000000	92.569	11.3703
3300.000000	92.553	10.5914
3350.000000	92.407	9.2462
3400.000000	92.310	7.4662
3450.000000	92.246	6.0020
3500.000000	92.173	5.7073
3550.000000	92.079	4.3599
3600.000000	91.966	4.4671
3650.000000	91.770	3.0696
3700.000000	91.702	1.9217
3750.000000	91.513	2.2353
3820.000000	91.402	0.7360
3870.000000	91.282	1.0961
3950.000000	91.102	0.4398
4000.000000	90.804	-0.1839
4060.000000	90.572	-0.2024
4120.000000	90.617	-1.0591
4180.000000	90.490	-0.6630
4250.000000	90.303	-0.4310
4310.000000	90.190	0.1316
4370.000000	89.956	-1.1342
4440.000000	89.773	-0.7770
4500.000000	89.646	-0.6905
4550.000000	89.531	-0.6638
4620.000000	89.488	0.2500
4680.000000	89.242	0.0865
4750.000000	89.171	0.9972
4820.000000	88.944	0.4000
4870.000000	88.929	0.8342
4940.000000	88.849	1.5831
5000.000000	88.831	1.7200
5080.000000	88.569	2.6568
5150.000000	88.415	3.4293
5220.000000	88.342	3.4787
5300.000000	88.114	4.5319
5380.000000	87.888	5.1701
5450.000000	88.043	6.0963
5520.000000	87.882	6.7944
5600.000000	87.863	7.2293
5700.000000	87.637	7.4554
5800.000000	87.481	9.0246
5900.000000	87.494	10.1881
6000.000000	87.550	10.6230
6080.000000	87.391	11.2831
6150.000000	87.256	12.5975
6220.000000	87.292	12.8680
6300.000000	87.398	14.1821
6400.000000	87.563	14.5946
6500.000000	87.570	14.7265
6600.000000	87.813	16.8777
6700.000000	88.080	16.5863
6800.000000	88.329	17.4894
6900.000000	88.492	18.7065
7000.000000	88.619	18.5134
7100.000000	89.004	18.3426
7200.000000	89.469	18.8871
7300.000000	89.952	18.0052
7400.000000	90.330	18.5847
7500.000000	90.990	16.0490
7620.000000	91.781	15.1916
7750.000000	92.429	10.5196
7880.000000	93.284	3.5512
8000.000000	94.066	-2.8651
8120.000000	93.928	-12.0900
8250.000000	93.431	-21.7318
8380.000000	92.526	-30.1831
8500.000000	91.645	-36.4138
8620.000000	90.334	-39.8923
8750.000000	89.309	-41.9417
8850.000000	88.350	-42.7353
9000.000000	87.068	-42.7301
9120.000000	86.195	-40.0707
9250.000000	85.387	-37.4580
9380.000000	84.798	-34.9347
9500.000000	84.269	-34.2509
9620.000000	83.505	-31.4869
9750.000000	82.967	-29.1329
9880.000000	82.447	-26.7658
10000.000000	82.120	-23.0314
10150.000000	81.652	-18.9089
10300.000000	81.164	-15.7960
10440.000000	81.018	-11.2032
10600.000000	80.707	-7.0669
10750.000000	80.510	-4.7120
10900.000000	80.509	-0.8566
11060.000000	80.302	1.4314
11200.000000	80.425	4.1294
11380.000000	80.340	6.9941
11500.000000	80.331	6.9664
11720.000000	80.482	9.3467
11800.000000	80.589	9.2980
12060.000000	80.612	6.3923
12200.000000	80.477	4.9396
12410.000000	80.242	1.1948
12500.000000	80.016	-0.2260
12650.000000	79.531	-3.8940
12800.000000	78.921	-7.4961
13150.000000	77.205	-11.7484
13200.000000	77.028	-11.3629
13400.000000	76.085	-12.3326
13600.000000	75.173	-11.5376
13800.000000	74.998	-8.3629
14000.000000	74.405	-9.4185
14300.000000	73.929	-9.2136
14500.000000	73.515	-9.2490
14750.000000	69.344	-5.7118
15000.000000	73.320	17.7011
15250.000000	74.346	19.3436
15500.000000	75.378	20.8731
15750.000000	76.303	20.5045
16000.000000	77.117	16.8514
16250.000000	78.048	10.4133
16500.000000	77.607	1.9503
16750.000000	76.654	-2.4692
17000.000000	74.988	-3.7127
17250.000000	73.310	0.8897
17500.000000	71.613	8.6213
17750.000000	70.313	17.4546
18000.000000	69.234	29.8161
18250.000000	68.278	40.4738
18500.000000	67.367	52.7259
18750.000000	66.828	64.2685
19000.000000	65.990	75.5110
19250.000000	65.298	87.1005
19500.000000	64.742	99.8115
19750.000000	64.002	110.0950
