* Measurement data measured by REW V5.30.9
* Source: Microphone (Realtek USB2.0 Audio), MICROPHONE (Master Volume), L, volume: 0.500
* Format: 512k Log Swept Sine, 1 sweep at -12.0 dBFS with no timing reference
* Dated: 02 22, 24 9:02:11 PM
* REW Settings:
*  C-weighting compensation: Off
*  Target level: 75.0 dB
* Note: ; 
* Measurement: nd 001 r
* Smoothing: None
* Frequency Step: 1/48 octave
* Start Frequency: 1.000 Hz
*
* Freq(Hz)	SPL(dB)	Phase(degrees)
1.000000	49.176	-60.3023
1.015000	48.933	-60.8513
1.030000	48.683	-61.5226
1.044000	48.444	-62.2713
1.060000	48.163	-63.2446
1.075000	47.893	-64.2453
1.090000	47.616	-65.3056
1.106000	47.313	-66.4742
1.120000	47.041	-67.5052
1.138000	46.683	-68.8082
1.150000	46.438	-69.6432
1.172000	45.979	-71.0560
1.180000	45.808	-71.5194
1.206000	45.238	-72.7788
1.220000	44.923	-73.2675
1.241000	44.437	-73.6965
1.250000	44.225	-73.7540
1.265000	43.865	-73.6612
1.280000	43.498	-73.3111
1.315000	42.613	-71.3526
1.320000	42.483	-70.9287
1.340000	41.955	-68.8362
1.360000	41.393	-66.0050
1.380000	40.743	-62.2930
1.400000	40.018	-57.7958
1.430000	38.825	-49.8135
1.450000	37.982	-43.8251
1.475000	36.903	-35.7790
1.500000	35.825	-27.3067
1.525000	34.780	-18.6188
1.550000	33.797	-9.9262
1.575000	32.909	-1.4395
1.600000	32.147	6.6305
1.625000	31.542	14.0732
1.650000	31.125	20.6777
1.675000	30.926	26.2334
1.700000	30.980	30.7402
1.725000	31.287	34.7001
1.750000	31.814	38.1820
1.775000	32.524	41.2227
1.800000	33.382	43.8593
1.825000	34.351	46.1284
1.850000	35.396	48.0670
1.875000	36.481	49.7119
1.900000	37.570	51.0999
1.925000	38.626	52.2680
1.950000	39.615	53.2530
1.975000	40.500	54.0918
2.000000	41.246	54.8212
2.030000	41.919	55.5675
2.060000	42.458	55.8608
2.090000	42.909	55.6746
2.120000	43.283	55.0835
2.140000	43.496	54.5016
2.180000	43.851	52.9864
2.200000	44.000	52.0976
2.240000	44.261	50.1683
2.270000	44.437	48.6760
2.300000	44.611	47.2279
2.330000	44.794	45.8989
2.360000	44.998	44.7598
2.400000	45.255	43.2965
2.430000	45.420	42.1484
2.470000	45.612	40.5665
2.500000	45.740	39.3530
2.540000	45.897	37.7154
2.580000	46.046	36.0744
2.620000	46.199	34.4504
2.650000	46.321	33.2559
2.690000	46.503	31.7112
2.720000	46.647	30.5679
2.760000	46.836	29.0140
2.800000	47.022	27.4492
2.850000	47.259	25.5164
2.900000	47.508	23.6554
2.950000	47.776	21.9155
3.000000	48.073	20.3458
3.040000	48.336	19.2402
3.070000	48.546	18.4566
3.110000	48.841	17.4579
3.150000	49.151	16.5309
3.200000	49.559	15.5049
3.250000	49.986	14.6644
3.300000	50.429	14.0501
3.350000	50.886	13.7029
3.400000	51.358	13.6429
3.450000	51.855	13.8289
3.500000	52.371	14.2482
3.550000	52.901	14.8913
3.600000	53.437	15.7482
3.650000	53.974	16.8094
3.700000	54.504	18.0651
3.750000	55.034	19.5955
3.820000	55.787	22.2459
3.870000	56.326	24.3863
3.950000	57.183	28.0044
4.000000	57.707	30.2542
4.060000	58.321	32.8351
4.120000	58.925	35.5148
4.180000	59.520	38.2736
4.250000	60.199	41.4411
4.310000	60.767	43.9830
4.370000	61.319	46.2455
4.440000	61.942	48.5274
4.500000	62.461	50.2720
4.550000	62.882	51.5830
4.620000	63.455	53.2093
4.680000	63.932	54.4176
4.750000	64.469	55.6007
4.820000	64.986	56.4826
4.870000	65.344	56.9616
4.940000	65.829	57.4798
5.000000	66.232	57.8344
5.080000	66.754	58.2430
5.150000	67.191	58.4548
5.220000	67.612	58.5459
5.300000	68.077	58.5638
5.380000	68.528	58.5586
5.450000	68.911	58.5316
5.520000	69.281	58.4473
5.600000	69.691	58.3199
5.700000	70.190	58.1812
5.800000	70.677	58.1028
5.900000	71.148	58.0435
6.000000	71.610	58.0223
6.080000	71.977	58.0475
6.150000	72.295	58.1079
6.220000	72.609	58.1949
6.300000	72.966	58.3109
6.400000	73.411	58.4543
6.500000	73.855	58.6146
6.600000	74.298	58.7846
6.700000	74.740	58.9132
6.800000	75.181	58.9709
6.900000	75.621	58.9830
7.000000	76.060	58.9339
7.100000	76.494	58.8060
7.200000	76.926	58.6038
7.300000	77.354	58.3297
7.400000	77.775	57.9821
7.500000	78.189	57.5495
7.620000	78.677	56.9307
7.750000	79.191	56.1918
7.880000	79.689	55.3821
8.000000	80.133	54.5828
8.120000	80.562	53.7732
8.250000	81.009	52.8698
8.380000	81.437	51.9648
8.500000	81.816	51.1493
8.620000	82.180	50.3433
8.750000	82.558	49.5041
8.850000	82.839	48.8899
9.000000	83.243	48.0107
9.120000	83.555	47.3447
9.250000	83.882	46.6596
9.380000	84.200	46.0149
9.500000	84.488	45.4599
9.620000	84.769	44.9435
9.750000	85.070	44.4138
9.880000	85.369	43.9129
10.000000	85.641	43.4748
10.150000	85.980	42.9389
10.300000	86.318	42.4181
10.440000	86.631	41.9402
10.600000	86.986	41.4027
10.750000	87.317	40.9008
10.900000	87.643	40.3919
11.060000	87.987	39.8447
11.200000	88.282	39.3605
11.380000	88.654	38.7328
11.500000	88.897	38.3199
11.720000	89.331	37.5726
11.800000	89.486	37.3059
12.060000	89.975	36.4584
12.200000	90.232	36.0133
12.410000	90.607	35.3624
12.500000	90.765	35.0956
12.650000	91.024	34.6682
12.800000	91.278	34.2500
13.150000	91.836	33.2923
13.200000	91.882	33.1533
13.400000	91.995	32.5999
13.600000	92.053	32.0871
13.800000	92.076	31.6036
14.000000	92.105	31.1350
14.300000	92.154	30.4387
14.500000	92.187	29.9923
14.750000	92.218	29.4920
15.000000	92.252	28.9977
15.250000	92.291	28.4854
15.500000	92.333	27.9535
15.750000	92.365	27.4438
16.000000	92.399	26.9148
16.250000	92.438	26.3597
16.500000	92.479	25.7849
16.750000	92.509	25.2340
17.000000	92.540	24.6740
17.250000	92.573	24.0975
17.500000	92.607	23.5055
17.750000	92.630	22.9268
18.000000	92.650	22.3406
18.250000	92.669	21.7533
18.500000	92.685	21.1789
18.750000	92.690	20.6582
19.000000	92.696	20.1774
19.250000	92.706	19.7330
19.500000	92.721	19.3224
19.750000	92.735	18.9476
20.000000	92.755	18.5673
20.299999	92.787	18.0804
20.600000	92.818	17.5582
20.900000	92.841	17.0190
21.200001	92.859	16.4602
21.400000	92.866	16.0977
21.799999	92.868	15.4610
22.000000	92.868	15.1815
22.400000	92.873	14.6844
22.700001	92.883	14.3581
23.000000	92.899	14.0242
23.299999	92.924	13.6310
23.600000	92.948	13.1770
24.000000	92.969	12.4942
24.299999	92.976	11.9293
24.700001	92.965	11.2026
25.000000	92.945	10.7226
25.400000	92.920	10.1761
25.799999	92.902	9.7557
26.200001	92.906	9.3535
26.500000	92.921	9.0089
26.900000	92.940	8.4781
27.200001	92.952	8.0158
27.600000	92.955	7.4094
28.000000	92.948	6.9030
28.500000	92.953	6.4030
29.000000	92.978	5.9540
29.500000	93.016	5.3790
30.000000	93.030	4.7591
30.400000	93.026	4.3300
30.700001	93.019	4.1127
31.100000	93.023	3.9265
31.500000	93.050	3.7168
32.000000	93.095	3.2488
32.500000	93.111	2.4888
33.000000	93.066	1.7499
33.500000	92.986	1.2977
34.000000	92.922	1.2080
34.500000	92.916	1.1647
35.000000	92.942	0.8703
35.500000	92.962	0.2287
36.000000	92.940	-0.5178
36.500000	92.890	-1.1833
37.000000	92.831	-1.6427
37.500000	92.788	-1.9464
38.200001	92.767	-2.2009
38.700001	92.792	-2.4364
39.500000	92.849	-3.3375
40.000000	92.833	-4.1524
40.599998	92.745	-4.8850
41.200001	92.651	-5.0267
41.799999	92.631	-4.9459
42.500000	92.662	-5.2700
43.099998	92.656	-5.8059
43.700001	92.633	-6.2263
44.400002	92.638	-6.6889
45.000000	92.637	-7.3009
45.500000	92.604	-7.7633
46.200001	92.563	-7.9652
46.799999	92.590	-8.1009
47.500000	92.604	-8.7110
48.200001	92.525	-9.0326
48.700001	92.496	-8.8003
49.400002	92.549	-8.8414
50.000000	92.536	-9.5793
50.799999	92.377	-10.0226
51.500000	92.344	-9.9580
52.200001	92.334	-10.8955
53.000000	92.183	-11.7475
53.799999	92.221	-12.2344
54.500000	92.219	-14.0212
55.200001	92.039	-14.3180
56.000000	92.441	-13.1996
57.000000	92.975	-20.1883
58.000000	91.722	-23.6682
59.000000	91.682	-15.6396
60.000000	92.249	-16.9556
60.799999	92.040	-16.9084
61.500000	92.127	-15.8309
62.200001	92.185	-16.6368
63.000000	91.980	-16.9205
64.000000	91.983	-16.3949
65.000000	91.907	-17.8211
66.000000	91.744	-17.9371
67.000000	91.753	-18.2346
68.000000	91.735	-18.8479
69.000000	91.707	-19.3964
70.000000	91.647	-19.7443
71.000000	91.606	-19.9552
72.000000	91.575	-20.3096
73.000000	91.515	-20.7838
74.000000	91.466	-20.9310
75.000000	91.507	-21.4115
76.199997	91.417	-22.5968
77.500000	91.298	-22.2849
78.800003	91.311	-22.5457
80.000000	91.237	-22.8175
81.199997	91.177	-22.9735
82.500000	91.162	-23.7512
83.800003	90.908	-24.2420
85.000000	91.009	-23.3778
86.199997	91.021	-25.2275
87.500000	90.840	-25.2112
88.500000	90.821	-25.5314
90.000000	90.736	-25.3457
91.199997	90.771	-25.9700
92.500000	90.646	-26.3024
93.800003	90.621	-26.0263
95.000000	90.650	-26.0296
96.199997	90.647	-26.7558
97.500000	90.489	-27.2865
98.800003	90.417	-27.3116
100.000000	90.335	-28.0176
101.500000	90.247	-27.7570
103.000000	90.277	-28.6405
104.400002	90.202	-28.6420
106.000000	90.078	-28.8814
107.500000	90.080	-28.5519
109.000000	89.951	-28.8137
110.599998	89.873	-29.1917
112.000000	89.829	-29.4014
113.800003	89.857	-30.4865
115.000000	89.493	-32.1625
117.199997	89.502	-30.4458
118.000000	89.692	-31.4815
120.599998	89.126	-29.9087
122.000000	89.401	-31.4325
124.099998	89.694	-32.7878
125.000000	89.310	-31.9987
126.500000	89.456	-31.4061
128.000000	89.282	-32.2396
131.500000	89.087	-32.0244
132.000000	89.090	-31.6200
134.000000	89.096	-32.6539
136.000000	89.062	-33.2942
138.000000	89.009	-32.3537
140.000000	88.766	-33.5947
143.000000	88.770	-33.7133
145.000000	88.842	-32.9544
147.500000	88.567	-33.0930
150.000000	88.505	-32.8560
152.500000	88.501	-33.5361
155.000000	88.396	-34.3853
157.500000	88.316	-33.9578
160.000000	88.339	-35.1652
162.500000	88.164	-34.7231
165.000000	88.132	-34.6569
167.500000	88.037	-35.4638
170.000000	87.875	-35.2025
172.500000	87.775	-35.2787
175.000000	87.743	-35.2922
177.500000	87.759	-35.6284
180.000000	87.611	-35.6604
182.500000	87.500	-35.8361
185.000000	87.419	-35.7216
187.500000	87.317	-35.4911
190.000000	87.207	-35.7194
192.500000	87.117	-35.5989
195.000000	87.000	-35.8508
197.500000	86.927	-35.8832
200.000000	86.806	-35.9532
203.000000	86.817	-35.9667
206.000000	86.668	-36.0974
209.000000	86.577	-35.8775
212.000000	86.489	-36.1741
214.000000	86.481	-36.1193
218.000000	86.425	-35.9252
220.000000	86.271	-35.9623
224.000000	86.208	-35.6500
227.000000	86.156	-35.2654
230.000000	86.049	-34.1012
233.000000	85.967	-35.5345
236.000000	85.939	-35.3535
240.000000	86.339	-32.1703
243.000000	85.737	-34.7654
247.000000	85.666	-35.1646
250.000000	85.579	-34.7751
254.000000	85.469	-34.7024
258.000000	85.428	-34.3038
262.000000	85.291	-34.2366
265.000000	85.267	-34.1231
269.000000	85.152	-33.7623
272.000000	85.077	-33.4715
276.000000	85.040	-33.2966
280.000000	84.932	-32.8325
285.000000	84.812	-32.8251
290.000000	84.764	-32.5043
295.000000	84.689	-31.7953
300.000000	84.555	-31.7836
304.000000	84.531	-31.5233
307.000000	84.439	-31.2544
311.000000	84.418	-30.9359
315.000000	84.316	-30.6545
320.000000	84.272	-30.3245
325.000000	84.153	-29.8914
330.000000	84.156	-29.2055
335.000000	84.041	-28.6927
340.000000	84.012	-27.2340
345.000000	83.865	-27.7019
350.000000	83.889	-28.1185
355.000000	83.753	-26.2706
360.000000	83.283	-21.4160
365.000000	83.704	-25.6551
370.000000	83.489	-24.8281
375.000000	83.593	-24.4127
382.000000	83.515	-23.7042
387.000000	83.432	-22.7508
395.000000	83.492	-21.8128
400.000000	83.403	-21.1286
406.000000	83.473	-20.4810
412.000000	83.447	-19.7609
418.000000	83.432	-18.7089
425.000000	83.470	-17.6472
431.000000	83.516	-17.0634
437.000000	83.512	-16.2626
444.000000	83.582	-15.6716
450.000000	83.615	-14.5804
455.000000	83.736	-14.1317
462.000000	83.778	-13.3053
468.000000	83.884	-12.8071
475.000000	84.017	-12.4489
482.000000	84.068	-11.7504
487.000000	84.216	-11.9523
494.000000	84.266	-11.2900
500.000000	84.479	-10.9887
508.000000	84.578	-10.7004
515.000000	84.682	-10.7991
522.000000	84.816	-10.8983
530.000000	84.941	-10.8376
538.000000	85.112	-10.8757
545.000000	85.187	-11.5695
552.000000	85.337	-11.4572
560.000000	85.409	-11.9924
570.000000	85.573	-12.5662
580.000000	85.688	-13.1852
590.000000	85.809	-14.0430
600.000000	85.871	-14.8001
608.000000	85.950	-15.4948
615.000000	85.989	-16.0499
622.000000	85.999	-16.4880
630.000000	86.057	-17.1596
640.000000	86.092	-17.9834
650.000000	86.098	-18.7688
660.000000	86.097	-19.5321
670.000000	86.114	-20.2448
680.000000	86.120	-20.9637
690.000000	86.102	-21.5942
700.000000	86.073	-22.4734
710.000000	86.066	-23.0738
720.000000	86.043	-23.5182
730.000000	86.008	-24.0329
740.000000	85.987	-24.4237
750.000000	85.956	-24.8795
762.000000	85.955	-25.6191
775.000000	85.902	-26.3447
788.000000	85.849	-26.9306
800.000000	85.796	-27.5265
812.000000	85.727	-28.1601
825.000000	85.656	-28.6188
838.000000	85.561	-29.0692
850.000000	85.466	-29.2619
862.000000	85.403	-29.4850
875.000000	85.345	-29.7564
885.000000	85.306	-29.8474
900.000000	85.242	-29.9784
912.000000	85.197	-30.1498
925.000000	85.157	-30.3688
938.000000	85.103	-30.5319
950.000000	85.040	-30.6677
962.000000	85.011	-30.7646
975.000000	84.960	-30.9052
988.000000	84.921	-31.0189
1000.000000	84.882	-31.1733
1015.000000	84.844	-31.2553
1030.000000	84.823	-31.4728
1044.000000	84.777	-31.5493
1060.000000	84.739	-31.7280
1075.000000	84.696	-31.9045
1090.000000	84.657	-32.1211
1106.000000	84.608	-32.3302
1120.000000	84.562	-32.5428
1138.000000	84.499	-32.8402
1150.000000	84.457	-33.1129
1172.000000	84.384	-33.3167
1180.000000	84.358	-33.5287
1206.000000	84.242	-33.8284
1220.000000	84.169	-34.0159
1241.000000	84.051	-34.1302
1250.000000	83.998	-34.2108
1265.000000	83.918	-34.3860
1280.000000	83.837	-34.3924
1315.000000	83.643	-34.3879
1320.000000	83.620	-34.3837
1340.000000	83.464	-34.2973
1360.000000	83.339	-34.0694
1380.000000	83.232	-33.9202
1400.000000	83.126	-33.5221
1430.000000	82.982	-32.9622
1450.000000	82.890	-32.5377
1475.000000	82.735	-31.9400
1500.000000	82.607	-31.2280
1525.000000	82.491	-30.4015
1550.000000	82.364	-29.5292
1575.000000	82.244	-28.4098
1600.000000	82.128	-27.2709
1625.000000	82.031	-26.1884
1650.000000	81.945	-24.9414
1675.000000	81.869	-23.5878
1700.000000	81.804	-22.1551
1725.000000	81.750	-20.7632
1750.000000	81.718	-19.2494
1775.000000	81.695	-17.6648
1800.000000	81.678	-16.0861
1825.000000	81.699	-14.4449
1850.000000	81.715	-12.8259
1875.000000	81.746	-11.1944
1900.000000	81.806	-9.4961
1925.000000	81.884	-7.7338
1950.000000	81.959	-6.0498
1975.000000	82.064	-4.3235
2000.000000	82.207	-2.6205
2030.000000	82.386	-0.6320
2060.000000	82.590	1.4424
2090.000000	82.817	3.3776
2120.000000	83.062	5.2917
2140.000000	83.232	6.5446
2180.000000	83.642	8.9758
2200.000000	83.845	10.1256
2240.000000	84.319	12.2718
2270.000000	84.698	13.7479
2300.000000	85.121	15.1194
2330.000000	85.552	16.2073
2360.000000	86.018	17.2194
2400.000000	86.676	18.2310
2430.000000	87.209	18.6967
2470.000000	87.957	18.9883
2500.000000	88.547	18.8506
2540.000000	89.379	18.1263
2580.000000	90.232	16.4359
2620.000000	91.107	13.8919
2650.000000	91.729	11.2484
2690.000000	92.475	6.8696
2720.000000	92.983	2.8344
2760.000000	93.496	-3.0776
2800.000000	93.816	-9.7833
2850.000000	93.885	-17.8915
2900.000000	93.666	-25.5800
2950.000000	93.273	-31.5619
3000.000000	92.724	-36.6092
3040.000000	92.273	-39.3506
3070.000000	92.001	-41.3253
3110.000000	91.572	-43.0103
3150.000000	91.189	-44.8965
3200.000000	90.682	-46.0445
3250.000000	90.342	-47.0963
3300.000000	90.057	-47.1683
3350.000000	89.734	-47.8332
3400.000000	89.529	-48.9086
3450.000000	89.344	-49.7763
3500.000000	89.213	-49.7389
3550.000000	89.069	-51.1728
3600.000000	88.844	-51.3300
3650.000000	88.551	-53.1409
3700.000000	88.279	-54.1856
3750.000000	87.823	-53.4818
3820.000000	87.321	-52.6916
3870.000000	87.029	-50.1650
3950.000000	86.846	-46.3980
4000.000000	86.680	-44.1610
4060.000000	86.758	-41.0012
4120.000000	87.186	-39.2402
4180.000000	87.515	-36.7120
4250.000000	87.973	-34.8078
4310.000000	88.437	-33.1008
4370.000000	88.830	-33.7584
4440.000000	89.384	-33.0210
4500.000000	89.912	-33.0552
4550.000000	90.405	-33.5935
4620.000000	91.183	-33.9299
4680.000000	91.676	-35.7835
4750.000000	92.418	-37.4560
4820.000000	93.009	-41.7351
4870.000000	93.501	-44.4861
4940.000000	94.039	-48.7601
5000.000000	94.426	-53.7396
5080.000000	94.492	-59.7230
5150.000000	94.404	-64.7733
5220.000000	94.209	-69.9398
5300.000000	93.775	-74.5119
5380.000000	93.158	-78.3367
5450.000000	92.879	-80.0070
5520.000000	92.445	-81.0674
5600.000000	92.234	-82.9258
5700.000000	91.591	-86.4530
5800.000000	90.794	-88.0920
5900.000000	90.025	-88.4462
6000.000000	89.253	-87.8036
6080.000000	88.568	-86.2885
6150.000000	87.964	-83.6581
6220.000000	87.542	-81.7975
6300.000000	87.275	-78.1680
6400.000000	87.064	-74.5665
6500.000000	86.758	-71.1324
6600.000000	86.729	-65.4587
6700.000000	86.852	-62.5430
6800.000000	87.003	-58.8304
6900.000000	87.065	-54.6529
7000.000000	87.145	-51.8905
7100.000000	87.576	-49.2190
7200.000000	88.045	-46.4443
7300.000000	88.522	-44.9671
7400.000000	88.947	-42.1141
7500.000000	89.711	-42.2070
7620.000000	90.744	-40.4995
7750.000000	91.984	-42.8521
7880.000000	93.675	-49.5453
8000.000000	95.407	-59.8414
8120.000000	95.950	-77.7414
8250.000000	95.109	-99.3759
8380.000000	93.035	-115.8367
8500.000000	90.925	-125.3381
8620.000000	88.468	-129.4489
8750.000000	86.845	-127.9279
8850.000000	85.195	-130.3310
9000.000000	83.518	-117.3955
9120.000000	84.240	-118.3617
9250.000000	83.481	-122.5870
9380.000000	82.624	-123.6755
9500.000000	81.971	-125.5080
9620.000000	81.104	-126.6464
9750.000000	80.308	-130.3720
9880.000000	79.175	-137.8242
10000.000000	77.518	-149.1442
10150.000000	73.286	172.1512
10300.000000	73.842	73.5899
10440.000000	79.827	27.7720
10600.000000	83.055	3.8354
10750.000000	84.734	-8.4526
10900.000000	86.135	-14.1642
11060.000000	87.336	-19.2544
11200.000000	88.760	-23.0280
11380.000000	90.204	-29.8239
11500.000000	91.050	-37.8846
11720.000000	92.016	-54.4818
11800.000000	91.930	-61.1215
12060.000000	90.541	-79.5122
12200.000000	89.355	-85.7419
12410.000000	87.663	-92.3204
12500.000000	86.952	-94.1480
12650.000000	85.766	-98.1099
12800.000000	84.566	-102.1181
13150.000000	81.617	-110.2133
13200.000000	81.222	-110.4642
13400.000000	79.392	-114.1541
13600.000000	77.766	-116.7203
13800.000000	76.461	-117.9096
14000.000000	75.097	-117.6483
14300.000000	74.021	-114.8408
14500.000000	73.471	-110.1440
14750.000000	73.521	-103.2989
15000.000000	73.817	-94.5010
15250.000000	74.445	-83.4849
15500.000000	75.602	-74.7272
15750.000000	77.118	-68.6749
16000.000000	78.775	-70.0630
16250.000000	80.004	-79.0453
16500.000000	78.849	-89.3469
16750.000000	76.919	-89.4919
17000.000000	75.146	-85.5310
17250.000000	73.528	-80.3431
17500.000000	71.337	-76.6602
17750.000000	68.850	-74.2811
18000.000000	65.880	-67.3987
18250.000000	62.880	-62.4039
18500.000000	60.826	-60.9603
18750.000000	62.571	-69.8937
19000.000000	66.546	-92.2257
19250.000000	70.228	-109.1821
19500.000000	73.233	-127.2974
19750.000000	73.202	-142.7463
