* Measurement data measured by REW V5.30.9
* Source: Microphone (Realtek USB2.0 Audio), MICROPHONE (Master Volume), L, volume: 0.250
* Format: 512k Log Swept Sine, 1 sweep at -12.0 dBFS with no timing reference
* Dated: 06 19, 24 11:39:18 PM
* REW Settings:
*  C-weighting compensation: Off
*  Target level: 75.0 dB
* Note: ; 
* Measurement: nm2+ L
* Smoothing: None
* Frequency Step: 1/48 octave
* Start Frequency: 1.000 Hz
*
* Freq(Hz)	SPL(dB)	Phase(degrees)
1.000000	49.647	-87.2862
1.015000	49.564	-88.3118
1.030000	49.481	-89.3247
1.044000	49.403	-90.2570
1.060000	49.314	-91.3078
1.075000	49.228	-92.2795
1.090000	49.142	-93.2390
1.106000	49.048	-94.2499
1.120000	48.964	-95.1246
1.138000	48.853	-96.2368
1.150000	48.778	-96.9711
1.172000	48.634	-98.3039
1.180000	48.580	-98.7847
1.206000	48.398	-100.3347
1.220000	48.296	-101.1625
1.241000	48.135	-102.3971
1.250000	48.064	-102.9240
1.265000	47.941	-103.7999
1.280000	47.813	-104.6737
1.315000	47.493	-106.7086
1.320000	47.445	-106.9993
1.340000	47.245	-108.1631
1.360000	47.041	-109.3299
1.380000	46.849	-110.4994
1.400000	46.666	-111.6696
1.430000	46.399	-113.4220
1.450000	46.220	-114.5855
1.475000	45.988	-116.0313
1.500000	45.737	-117.4640
1.525000	45.460	-118.8798
1.550000	45.148	-120.2750
1.575000	44.793	-121.6458
1.600000	44.385	-122.9885
1.625000	43.918	-124.2993
1.650000	43.382	-125.5745
1.675000	42.768	-126.8104
1.700000	42.038	-128.2324
1.725000	41.115	-130.3807
1.750000	40.033	-133.0865
1.775000	38.832	-136.1391
1.800000	37.550	-139.3281
1.825000	36.226	-142.4427
1.850000	34.901	-145.2726
1.875000	33.612	-147.6070
1.900000	32.399	-149.2355
1.925000	31.301	-149.9474
1.950000	30.357	-149.5321
1.975000	29.606	-147.7793
2.000000	29.088	-144.4781
2.030000	28.824	-138.0874
2.060000	28.924	-128.1305
2.090000	29.331	-115.0280
2.120000	29.990	-99.5186
2.140000	30.544	-88.2067
2.180000	31.856	-64.2349
2.200000	32.582	-52.0128
2.240000	34.095	-28.1906
2.270000	35.222	-11.7303
2.300000	36.282	2.7036
2.330000	37.224	14.3723
2.360000	37.995	21.4897
2.400000	38.920	21.0581
2.430000	39.601	20.3565
2.470000	40.486	19.0627
2.500000	41.129	17.9232
2.540000	41.951	16.3239
2.580000	42.726	14.7999
2.620000	43.447	13.5331
2.650000	43.947	12.8610
2.690000	44.553	12.4814
2.720000	44.956	11.9767
2.760000	45.425	11.3026
2.800000	45.826	10.6898
2.850000	46.250	10.0403
2.900000	46.611	9.5560
2.950000	46.933	9.2756
3.000000	47.239	9.2378
3.040000	47.486	9.4032
3.070000	47.658	9.6063
3.110000	47.860	9.9707
3.150000	48.037	10.4594
3.200000	48.232	11.2735
3.250000	48.410	12.3474
3.300000	48.582	13.7177
3.350000	48.760	15.4209
3.400000	48.943	17.4898
3.450000	49.108	19.9139
3.500000	49.262	22.6561
3.550000	49.416	25.6791
3.600000	49.578	28.9454
3.650000	49.759	32.4175
3.700000	49.967	36.0581
3.750000	50.202	40.0053
3.820000	50.558	46.1585
3.870000	50.831	50.8102
3.950000	51.302	58.3068
4.000000	51.616	62.8063
4.060000	52.013	67.8324
4.120000	52.446	72.7824
4.180000	52.907	77.6536
4.250000	53.463	83.0543
4.310000	53.944	87.2846
4.370000	54.415	91.0020
4.440000	54.959	94.6578
4.500000	55.431	97.3196
4.550000	55.824	99.2355
4.620000	56.365	101.5019
4.680000	56.812	103.1013
4.750000	57.311	104.5750
4.820000	57.793	105.4970
4.870000	58.127	105.8710
4.940000	58.579	106.0963
5.000000	58.951	106.1006
5.080000	59.422	105.9430
5.150000	59.812	105.5030
5.220000	60.181	104.8108
5.300000	60.581	103.8230
5.380000	60.960	102.7504
5.450000	61.273	101.7327
5.520000	61.567	100.5741
5.600000	61.883	99.1566
5.700000	62.257	97.3798
5.800000	62.607	95.6596
5.900000	62.930	93.9117
6.000000	63.235	92.2236
6.080000	63.475	90.9756
6.150000	63.676	89.9475
6.220000	63.870	88.9684
6.300000	64.088	87.9113
6.400000	64.364	86.6858
6.500000	64.640	85.5894
6.600000	64.917	84.6008
6.700000	65.200	83.6685
6.800000	65.495	82.7680
6.900000	65.797	81.9282
7.000000	66.108	81.1109
7.100000	66.427	80.2776
7.200000	66.756	79.4448
7.300000	67.091	78.6076
7.400000	67.428	77.7476
7.500000	67.768	76.8475
7.620000	68.178	75.7366
7.750000	68.618	74.5529
7.880000	69.051	73.3862
8.000000	69.445	72.3422
8.120000	69.833	71.3832
8.250000	70.245	70.4276
8.380000	70.652	69.5700
8.500000	71.027	68.8877
8.620000	71.400	68.3034
8.750000	71.808	67.7420
8.850000	72.126	67.3685
9.000000	72.610	66.8804
9.120000	73.003	66.4643
9.250000	73.436	66.0019
9.380000	73.872	65.4908
9.500000	74.272	64.9293
9.620000	74.672	64.2989
9.750000	75.094	63.5242
9.880000	75.501	62.6339
10.000000	75.862	61.7267
10.150000	76.283	60.5235
10.300000	76.670	59.2224
10.440000	76.997	58.0155
10.600000	77.325	56.6617
10.750000	77.592	55.4774
10.900000	77.821	54.4421
11.060000	78.027	53.5135
11.200000	78.184	52.9319
11.380000	78.355	52.4843
11.500000	78.467	52.4140
11.720000	78.662	52.7503
11.800000	78.743	52.9948
12.060000	79.041	54.2609
12.200000	79.243	55.0856
12.410000	79.599	56.4631
12.500000	79.773	57.0135
12.650000	80.093	57.9134
12.800000	80.438	58.6636
13.150000	81.301	59.6393
13.200000	81.396	59.6729
13.400000	81.713	59.5574
13.600000	81.967	59.0911
13.800000	82.169	58.3017
14.000000	82.347	57.2277
14.300000	82.548	55.2509
14.500000	82.630	53.8171
14.750000	82.662	52.0640
15.000000	82.640	50.4791
15.250000	82.586	49.1454
15.500000	82.517	48.1270
15.750000	82.446	47.4847
16.000000	82.411	47.0731
16.250000	82.421	46.7569
16.500000	82.476	46.4204
16.750000	82.551	45.9809
17.000000	82.641	45.3654
17.250000	82.734	44.5859
17.500000	82.821	43.6776
17.750000	82.884	42.7292
18.000000	82.933	41.7553
18.250000	82.971	40.7701
18.500000	82.995	39.7899
18.750000	82.994	38.8510
19.000000	82.972	37.9702
19.250000	82.931	37.1977
19.500000	82.870	36.5975
19.750000	82.792	36.2713
20.000000	82.722	36.2217
20.299999	82.672	36.4803
20.600000	82.677	36.9510
20.900000	82.740	37.4206
21.200001	82.853	37.6625
21.400000	82.941	37.6532
21.799999	83.107	37.3409
22.000000	83.182	37.0909
22.400000	83.324	36.5173
22.700001	83.435	36.0654
23.000000	83.558	35.5015
23.299999	83.691	34.7022
23.600000	83.810	33.6298
24.000000	83.903	31.8894
24.299999	83.911	30.5419
24.700001	83.843	29.0881
25.000000	83.766	28.4231
25.400000	83.695	28.0562
25.799999	83.695	27.9688
26.200001	83.758	27.6895
26.500000	83.812	27.2364
26.900000	83.844	26.4471
27.200001	83.833	25.8539
27.600000	83.782	25.3102
28.000000	83.721	25.1418
28.500000	83.685	25.2643
29.000000	83.693	25.4609
29.500000	83.727	25.5399
30.000000	83.765	25.5744
30.400000	83.806	25.5699
30.700001	83.844	25.5511
31.100000	83.909	25.4525
31.500000	83.988	25.1992
32.000000	84.089	24.6479
32.500000	84.179	23.8135
33.000000	84.235	22.8401
33.500000	84.260	21.8218
34.000000	84.257	20.9184
34.500000	84.242	20.1620
35.000000	84.222	19.5949
35.500000	84.211	19.1535
36.000000	84.206	18.8215
36.500000	84.210	18.5084
37.000000	84.211	18.2381
37.500000	84.213	17.9947
38.200001	84.212	17.7258
38.700001	84.215	17.5446
39.500000	84.226	17.1835
40.000000	84.234	16.8567
40.599998	84.234	16.3294
41.200001	84.212	15.7718
41.799999	84.179	15.2975
42.500000	84.153	14.8717
43.099998	84.149	14.5691
43.700001	84.169	14.2549
44.400002	84.213	13.7510
45.000000	84.235	13.1846
45.500000	84.230	12.7708
46.200001	84.219	12.4622
46.799999	84.230	12.2678
47.500000	84.237	11.9908
48.200001	84.241	11.8508
48.700001	84.269	11.7139
49.400002	84.299	11.1572
50.000000	84.265	10.6282
50.799999	84.210	10.4761
51.500000	84.242	10.3666
52.200001	84.273	9.7986
53.000000	84.238	9.2412
53.799999	84.231	9.1450
54.500000	84.279	8.9351
55.200001	84.305	8.3870
56.000000	84.254	7.9287
57.000000	84.238	8.0730
58.000000	84.253	7.5311
59.000000	84.154	7.6327
60.000000	84.265	7.8094
60.799999	84.298	6.9072
61.500000	84.261	6.4945
62.200001	84.268	6.1793
63.000000	84.247	5.6547
64.000000	84.265	5.5669
65.000000	84.301	4.5453
66.000000	84.181	4.5687
67.000000	84.319	4.5986
68.000000	84.254	3.3841
69.000000	84.202	3.8769
70.000000	84.286	3.1273
71.000000	84.161	2.7644
72.000000	84.250	3.0976
73.000000	84.270	1.7991
74.000000	84.107	1.9182
75.000000	84.221	2.4350
76.199997	84.262	1.1984
77.500000	84.192	0.7602
78.800003	84.136	0.3755
80.000000	84.138	0.3212
81.199997	84.165	0.1201
82.500000	84.210	-0.2640
83.800003	84.177	-0.7297
85.000000	84.201	-0.7016
86.199997	84.134	-1.9094
87.500000	84.070	-1.1404
88.500000	84.111	-2.5571
90.000000	84.004	-1.1702
91.199997	84.140	-2.6721
92.500000	84.184	-1.6805
93.800003	84.072	-3.4526
95.000000	84.149	-1.2116
96.199997	84.134	-4.2290
97.500000	83.872	-1.9804
98.800003	84.022	-4.4859
100.000000	83.724	-3.4608
101.500000	84.027	-4.9038
103.000000	83.812	-5.0773
104.400002	83.912	-4.7432
106.000000	83.889	-5.7862
107.500000	83.822	-5.1790
109.000000	83.845	-5.0240
110.599998	83.882	-6.7221
112.000000	83.692	-5.6685
113.800003	83.840	-6.5164
115.000000	83.823	-6.9048
117.199997	83.610	-7.6767
118.000000	83.571	-7.1600
120.599998	83.711	-7.1876
122.000000	83.792	-6.9897
124.099998	83.747	-8.2075
125.000000	83.745	-8.3435
126.500000	83.673	-9.1592
128.000000	83.514	-8.9853
131.500000	83.542	-9.6154
132.000000	83.531	-9.6620
134.000000	83.549	-9.7392
136.000000	83.596	-9.6296
138.000000	83.547	-9.6464
140.000000	83.430	-9.6062
143.000000	83.318	-9.8571
145.000000	83.374	-10.4722
147.500000	83.415	-10.9743
150.000000	83.384	-11.0102
152.500000	83.343	-11.2676
155.000000	83.337	-11.4676
157.500000	83.297	-11.5314
160.000000	83.241	-11.7165
162.500000	83.151	-11.9881
165.000000	83.115	-12.3996
167.500000	83.082	-12.5796
170.000000	83.038	-12.7173
172.500000	82.987	-12.9110
175.000000	82.933	-13.1225
177.500000	82.889	-13.5568
180.000000	82.882	-13.3231
182.500000	82.811	-13.5959
185.000000	82.764	-13.7755
187.500000	82.709	-13.9739
190.000000	82.666	-14.0833
192.500000	82.612	-14.1856
195.000000	82.571	-14.3342
197.500000	82.522	-14.4623
200.000000	82.472	-14.5888
203.000000	82.431	-14.7615
206.000000	82.394	-14.8916
209.000000	82.356	-15.0333
212.000000	82.311	-15.2438
214.000000	82.276	-15.2541
218.000000	82.238	-15.4351
220.000000	82.206	-15.4965
224.000000	82.141	-15.5343
227.000000	82.102	-15.6496
230.000000	82.059	-15.7839
233.000000	82.027	-15.8413
236.000000	81.995	-15.8462
240.000000	81.910	-16.3060
243.000000	81.854	-16.1007
247.000000	81.834	-16.2194
250.000000	81.781	-16.2135
254.000000	81.737	-16.2734
258.000000	81.663	-16.3172
262.000000	81.622	-16.4586
265.000000	81.582	-16.5803
269.000000	81.500	-16.5480
272.000000	81.470	-16.5778
276.000000	81.409	-16.5797
280.000000	81.348	-16.5219
285.000000	81.278	-16.5970
290.000000	81.212	-16.6192
295.000000	81.148	-16.6946
300.000000	81.073	-16.4212
304.000000	81.024	-16.5265
307.000000	80.961	-16.5556
311.000000	80.914	-16.4786
315.000000	80.856	-16.3761
320.000000	80.785	-16.3614
325.000000	80.707	-16.1697
330.000000	80.647	-16.0286
335.000000	80.579	-15.9232
340.000000	80.523	-15.7286
345.000000	80.481	-15.6046
350.000000	80.420	-15.3703
355.000000	80.356	-15.5232
360.000000	80.287	-15.1365
365.000000	80.216	-15.0102
370.000000	80.169	-14.9150
375.000000	80.111	-14.8013
382.000000	80.051	-14.6051
387.000000	80.004	-14.4554
395.000000	79.922	-14.2565
400.000000	79.876	-14.1047
406.000000	79.816	-13.8535
412.000000	79.741	-13.7261
418.000000	79.678	-13.4337
425.000000	79.601	-13.2360
431.000000	79.551	-12.9422
437.000000	79.483	-12.7947
444.000000	79.422	-12.4701
450.000000	79.357	-12.1684
455.000000	79.312	-11.8582
462.000000	79.227	-11.6129
468.000000	79.187	-11.2038
475.000000	79.096	-11.0752
482.000000	79.082	-10.5645
487.000000	79.035	-10.4213
494.000000	78.985	-10.0264
500.000000	78.944	-9.7117
508.000000	78.866	-9.2175
515.000000	78.822	-8.9394
522.000000	78.759	-8.4868
530.000000	78.693	-8.0393
538.000000	78.635	-7.6016
545.000000	78.583	-7.2320
552.000000	78.528	-6.7574
560.000000	78.481	-6.1930
570.000000	78.409	-5.5650
580.000000	78.339	-5.0648
590.000000	78.263	-4.3411
600.000000	78.205	-3.7756
608.000000	78.155	-3.1745
615.000000	78.107	-2.6981
622.000000	78.066	-2.2523
630.000000	78.019	-1.6520
640.000000	77.960	-0.9865
650.000000	77.920	-0.3111
660.000000	77.877	0.4885
670.000000	77.815	1.2283
680.000000	77.770	2.0162
690.000000	77.724	2.7834
700.000000	77.690	3.6284
710.000000	77.645	4.4916
720.000000	77.613	5.2689
730.000000	77.582	5.9218
740.000000	77.550	6.8675
750.000000	77.526	7.7664
762.000000	77.478	8.7285
775.000000	77.484	10.0175
788.000000	77.439	11.1087
800.000000	77.423	12.2888
812.000000	77.398	13.4321
825.000000	77.407	14.6634
838.000000	77.389	15.8858
850.000000	77.413	17.2128
862.000000	77.425	18.3372
875.000000	77.432	19.5926
885.000000	77.463	20.7684
900.000000	77.511	22.1837
912.000000	77.561	23.4389
925.000000	77.640	24.7460
938.000000	77.689	26.2725
950.000000	77.766	27.5399
962.000000	77.851	28.5559
975.000000	77.968	29.9852
988.000000	78.103	31.2675
1000.000000	78.222	32.3041
1015.000000	78.390	33.5456
1030.000000	78.568	34.8176
1044.000000	78.734	35.7609
1060.000000	78.928	36.9034
1075.000000	79.118	37.7123
1090.000000	79.320	38.4379
1106.000000	79.528	39.1389
1120.000000	79.691	39.6120
1138.000000	79.915	40.1971
1150.000000	80.040	40.4917
1172.000000	80.275	40.9102
1180.000000	80.346	41.0907
1206.000000	80.603	41.5796
1220.000000	80.719	41.8692
1241.000000	80.890	42.1180
1250.000000	80.953	42.3108
1265.000000	81.075	42.5691
1280.000000	81.193	42.7611
1315.000000	81.448	43.3344
1320.000000	81.483	43.4184
1340.000000	81.628	43.7123
1360.000000	81.769	44.1023
1380.000000	81.898	44.4736
1400.000000	82.033	44.8146
1430.000000	82.228	45.4227
1450.000000	82.355	45.8355
1475.000000	82.517	46.3746
1500.000000	82.668	46.8653
1525.000000	82.826	47.4695
1550.000000	82.987	48.0091
1575.000000	83.158	48.6118
1600.000000	83.321	49.2299
1625.000000	83.484	49.7957
1650.000000	83.648	50.3492
1675.000000	83.822	50.9807
1700.000000	83.989	51.6026
1725.000000	84.163	52.1985
1750.000000	84.334	52.7751
1775.000000	84.516	53.3445
1800.000000	84.699	53.9754
1825.000000	84.881	54.5416
1850.000000	85.065	55.1413
1875.000000	85.254	55.7712
1900.000000	85.446	56.4148
1925.000000	85.638	57.1108
1950.000000	85.840	57.8327
1975.000000	86.048	58.7110
2000.000000	86.286	59.7288
2030.000000	86.642	60.9851
2060.000000	87.090	61.8076
2090.000000	87.552	62.0750
2120.000000	87.977	61.8698
2140.000000	88.237	61.5667
2180.000000	88.708	60.9389
2200.000000	88.926	60.6719
2240.000000	89.396	59.9641
2270.000000	89.741	59.2889
2300.000000	90.062	58.5246
2330.000000	90.369	57.7029
2360.000000	90.667	56.8164
2400.000000	91.070	55.5653
2430.000000	91.360	54.5014
2470.000000	91.744	52.8097
2500.000000	92.010	51.4180
2540.000000	92.350	49.3231
2580.000000	92.636	47.0110
2620.000000	92.883	44.7085
2650.000000	93.021	42.8921
2690.000000	93.170	40.6090
2720.000000	93.270	38.8240
2760.000000	93.355	36.7756
2800.000000	93.407	34.5495
2850.000000	93.404	32.3824
2900.000000	93.376	30.1492
2950.000000	93.363	28.6209
3000.000000	93.276	26.9324
3040.000000	93.215	26.1192
3070.000000	93.230	25.2305
3110.000000	93.158	24.5107
3150.000000	93.092	23.3186
3200.000000	92.927	22.6604
3250.000000	92.867	21.9926
3300.000000	92.811	22.1407
3350.000000	92.664	21.8373
3400.000000	92.607	21.2187
3450.000000	92.560	21.0664
3500.000000	92.559	21.9928
3550.000000	92.561	21.6126
3600.000000	92.540	22.7370
3650.000000	92.517	22.2618
3700.000000	92.637	22.1138
3750.000000	92.652	23.2534
3820.000000	92.847	22.9874
3870.000000	93.002	23.7351
3950.000000	93.314	23.5661
4000.000000	93.314	23.0300
4060.000000	93.495	22.9668
4120.000000	93.961	21.6323
4180.000000	94.261	21.2060
4250.000000	94.644	19.6670
4310.000000	94.999	18.3175
4370.000000	95.237	14.4466
4440.000000	95.568	11.0931
4500.000000	95.799	7.4387
4550.000000	95.958	3.6450
4620.000000	96.138	-1.2749
4680.000000	95.973	-6.8573
4750.000000	95.778	-12.1570
4820.000000	95.282	-18.8214
4870.000000	94.943	-22.2239
4940.000000	94.339	-26.3377
5000.000000	93.801	-29.6963
5080.000000	92.745	-32.1384
5150.000000	91.964	-33.8084
5220.000000	91.205	-35.4001
5300.000000	90.234	-35.7569
5380.000000	89.333	-35.6459
5450.000000	88.911	-34.6270
5520.000000	88.287	-33.9808
5600.000000	87.704	-33.1070
5700.000000	86.847	-31.8309
5800.000000	86.154	-29.0631
5900.000000	85.667	-26.4068
6000.000000	85.197	-23.7668
6080.000000	84.855	-21.0891
6150.000000	84.556	-18.7132
6220.000000	84.365	-17.3186
6300.000000	84.296	-14.4334
6400.000000	84.266	-11.8334
6500.000000	84.089	-9.3571
6600.000000	84.199	-4.6442
6700.000000	84.371	-2.2427
6800.000000	84.623	1.1807
6900.000000	84.873	4.9687
7000.000000	85.096	7.4638
7100.000000	85.683	9.9062
7200.000000	86.369	12.5688
7300.000000	87.125	13.8069
7400.000000	87.848	16.1487
7500.000000	88.906	15.0567
7620.000000	90.267	15.0149
7750.000000	91.693	9.5078
7880.000000	93.155	-1.4846
8000.000000	93.993	-14.3615
8120.000000	93.221	-28.8808
8250.000000	91.612	-39.6888
8380.000000	89.753	-45.2442
8500.000000	88.265	-47.2186
8620.000000	86.623	-45.9861
8750.000000	85.433	-43.2358
8850.000000	84.439	-40.5724
9000.000000	83.240	-36.2029
9120.000000	82.486	-30.5839
9250.000000	81.699	-25.8103
9380.000000	81.021	-20.1673
9500.000000	80.576	-15.9854
9620.000000	79.974	-10.2862
9750.000000	79.603	-5.1326
9880.000000	79.299	-0.0629
10000.000000	79.168	5.6238
10150.000000	78.991	12.3014
10300.000000	78.791	17.4633
10440.000000	78.940	23.5353
10600.000000	78.977	29.2844
10750.000000	79.187	33.1176
10900.000000	79.588	38.0451
11060.000000	79.925	41.3207
11200.000000	80.704	43.9419
11380.000000	81.470	45.6661
11500.000000	82.106	44.1673
11720.000000	83.623	39.8668
11800.000000	84.129	36.4986
12060.000000	85.066	19.1220
12200.000000	84.771	8.7018
12410.000000	83.705	-4.0316
12500.000000	83.093	-7.4460
12650.000000	82.076	-12.0782
12800.000000	81.151	-14.8042
13150.000000	79.537	-14.4017
13200.000000	79.443	-13.1241
13400.000000	78.914	-10.4513
13600.000000	78.650	-6.5362
13800.000000	78.757	-2.2505
14000.000000	78.688	2.6799
14300.000000	79.371	9.9511
14500.000000	79.850	15.5569
14750.000000	81.095	19.8983
15000.000000	82.476	21.5088
15250.000000	83.744	17.2430
15500.000000	84.149	4.9871
15750.000000	82.655	-7.2070
16000.000000	80.140	-11.8041
16250.000000	78.306	-8.4636
16500.000000	76.507	-3.0202
16750.000000	75.314	3.7212
17000.000000	74.247	6.4763
17250.000000	72.267	6.5474
17500.000000	69.210	19.5931
17750.000000	69.995	36.4151
18000.000000	71.813	35.9053
18250.000000	73.703	23.6217
18500.000000	75.381	6.2473
18750.000000	76.701	-14.3791
19000.000000	76.981	-31.9112
19250.000000	76.753	-40.2342
19500.000000	76.815	-43.3341
19750.000000	76.638	-42.5515
