* Measurement data measured by REW V5.30.9
* Source: EQ panda L Filtered
* Format: 
* Dated: 07 18, 24 9:21:15 AM
* REW Settings:
*  C-weighting compensation: Off
*  Target level: 75.0 dB
* Note: Measurement imported from D:\Personal Projects\IEM Review Pics\MEETS\JUE MEET\panda L.txt Format: Comma/Tab/Space delimited data 686 values loaded, 1 Hz to 20,054 Hz log spaced  PK       Fc    7900 Hz  Gain  -9.00 dB  Q  5.000 PK       Fc    6500 Hz  Gain   2.00 dB  Q  5.000 LS       Fc   300.0 Hz  Gain   5.00 dB PK       Fc   17000 Hz  Gain  10.00 dB  Q  8.000 PK       Fc   18000 Hz  Gain  10.00 dB  Q  4.000 HS       Fc   15000 Hz  Gain  -4.00 dB LS       Fc   300.0 Hz  Gain  -5.00 dB HS       Fc    8000 Hz  Gain   4.00 dB
* Measurement: EQ panda L
* Smoothing: 1/3 octave
* Frequency Step: 1/48 octave
* Start Frequency: 1.000 Hz
*
* Freq(Hz)	SPL(dB)	Phase(degrees)
1.000000	46.793	-94.6592
1.015000	46.786	-94.8810
1.030000	46.777	-95.1753
1.044000	46.767	-95.5033
1.060000	46.752	-95.9269
1.075000	46.736	-96.3584
1.090000	46.717	-96.8120
1.106000	46.695	-97.3105
1.120000	46.674	-97.7525
1.138000	46.644	-98.3214
1.150000	46.622	-98.6981
1.172000	46.578	-99.3780
1.180000	46.561	-99.6209
1.206000	46.501	-100.3908
1.220000	46.466	-100.7920
1.241000	46.409	-101.3750
1.250000	46.383	-101.6176
1.265000	46.338	-102.0121
1.280000	46.290	-102.3938
1.315000	46.167	-103.2322
1.320000	46.148	-103.3457
1.340000	46.069	-103.7833
1.360000	45.984	-104.1932
1.380000	45.893	-104.5738
1.400000	45.796	-104.9232
1.430000	45.638	-105.3844
1.450000	45.525	-105.6469
1.475000	45.375	-105.9201
1.500000	45.215	-106.1277
1.525000	45.046	-106.2640
1.550000	44.867	-106.3222
1.575000	44.679	-106.2946
1.600000	44.483	-106.1724
1.625000	44.280	-105.9460
1.650000	44.071	-105.6044
1.675000	43.856	-105.1360
1.700000	43.636	-104.5286
1.725000	43.411	-103.7698
1.750000	43.184	-102.8472
1.775000	42.953	-101.7489
1.800000	42.721	-100.4638
1.825000	42.488	-98.9821
1.850000	42.256	-97.2956
1.875000	42.027	-95.3982
1.900000	41.804	-93.2861
1.925000	41.590	-90.9590
1.950000	41.390	-88.4198
1.975000	41.209	-85.6759
2.000000	41.053	-82.7389
2.030000	40.909	-78.9823
2.060000	40.823	-75.0069
2.090000	40.805	-70.8571
2.120000	40.863	-66.5835
2.140000	40.946	-63.6926
2.180000	41.218	-57.8857
2.200000	41.404	-55.0029
2.240000	41.864	-49.3550
2.270000	42.274	-45.2770
2.300000	42.726	-41.3777
2.330000	43.208	-37.6879
2.360000	43.711	-34.2298
2.400000	44.398	-30.0032
2.430000	44.916	-27.1282
2.470000	45.604	-23.6846
2.500000	46.112	-21.3837
2.540000	46.775	-18.6680
2.580000	47.419	-16.3213
2.620000	48.042	-14.3036
2.650000	48.495	-12.9814
2.690000	49.080	-11.4411
2.720000	49.505	-10.4320
2.760000	50.052	-9.2528
2.800000	50.579	-8.2337
2.850000	51.208	-7.1401
2.900000	51.806	-6.1990
2.950000	52.374	-5.3654
3.000000	52.914	-4.6002
3.040000	53.327	-4.0145
3.070000	53.625	-3.5806
3.110000	54.010	-2.9985
3.150000	54.380	-2.4010
3.200000	54.823	-1.6163
3.250000	55.245	-0.7725
3.300000	55.647	0.1459
3.350000	56.030	1.1520
3.400000	56.396	2.2564
3.450000	56.746	3.4670
3.500000	57.079	4.7892
3.550000	57.398	6.2257
3.600000	57.702	7.7766
3.650000	57.993	9.4389
3.700000	58.272	11.2075
3.750000	58.539	13.0742
3.820000	58.894	15.8332
3.870000	59.135	17.8911
3.950000	59.504	21.2966
4.000000	59.724	23.4732
4.060000	59.979	26.1096
4.120000	60.226	28.7503
4.180000	60.466	31.3726
4.250000	60.741	34.3816
4.310000	60.974	36.8976
4.370000	61.206	39.3397
4.440000	61.478	42.0801
4.500000	61.714	44.3258
4.550000	61.915	46.1199
4.620000	62.204	48.5085
4.680000	62.460	50.4389
4.750000	62.770	52.5530
4.820000	63.094	54.5175
4.870000	63.334	55.8292
4.940000	63.683	57.5378
5.000000	63.994	58.8840
5.080000	64.424	60.5095
5.150000	64.814	61.7737
5.220000	65.215	62.8909
5.300000	65.685	63.9887
5.380000	66.163	64.8973
5.450000	66.586	65.5393
5.520000	67.011	66.0410
5.600000	67.496	66.4471
5.700000	68.098	66.7130
5.800000	68.689	66.7247
5.900000	69.265	66.5004
6.000000	69.824	66.0609
6.080000	70.256	65.5695
6.150000	70.622	65.0479
6.220000	70.977	64.4496
6.300000	71.369	63.6828
6.400000	71.836	62.6186
6.500000	72.280	61.4599
6.600000	72.699	60.2313
6.700000	73.096	58.9566
6.800000	73.470	57.6587
6.900000	73.824	56.3596
7.000000	74.160	55.0798
7.100000	74.479	53.8382
7.200000	74.784	52.6522
7.300000	75.077	51.5366
7.400000	75.361	50.5041
7.500000	75.638	49.5646
7.620000	75.966	48.5697
7.750000	76.320	47.6614
7.880000	76.678	46.9290
8.000000	77.014	46.4012
8.120000	77.358	46.0024
8.250000	77.742	45.6956
8.380000	78.138	45.4923
8.500000	78.512	45.3708
8.620000	78.893	45.2883
8.750000	79.311	45.2163
8.850000	79.635	45.1569
9.000000	80.120	45.0368
9.120000	80.505	44.8977
9.250000	80.916	44.6914
9.380000	81.319	44.4202
9.500000	81.681	44.1098
9.620000	82.033	43.7429
9.750000	82.403	43.2859
9.880000	82.760	42.7738
10.000000	83.077	42.2596
10.150000	83.457	41.5728
10.300000	83.821	40.8507
10.440000	84.145	40.1576
10.600000	84.499	39.3567
10.750000	84.816	38.6088
10.900000	85.119	37.8732
11.060000	85.427	37.1101
11.200000	85.685	36.4659
11.380000	86.002	35.6753
11.500000	86.204	35.1742
11.720000	86.555	34.3128
11.800000	86.676	34.0186
12.060000	87.048	33.1334
12.200000	87.234	32.7014
12.410000	87.494	32.1096
12.500000	87.598	31.8754
12.650000	87.762	31.5090
12.800000	87.915	31.1696
13.150000	88.226	30.4614
13.200000	88.265	30.3675
13.400000	88.411	30.0039
13.600000	88.539	29.6530
13.800000	88.650	29.3073
14.000000	88.746	28.9618
14.300000	88.865	28.4394
14.500000	88.929	28.0896
14.750000	88.993	27.6554
15.000000	89.044	27.2319
15.250000	89.083	26.8265
15.500000	89.111	26.4446
15.750000	89.133	26.0893
16.000000	89.148	25.7613
16.250000	89.158	25.4592
16.500000	89.165	25.1813
16.750000	89.169	24.9253
17.000000	89.171	24.6891
17.250000	89.172	24.4702
17.500000	89.173	24.2656
17.750000	89.174	24.0708
18.000000	89.176	23.8802
18.250000	89.180	23.6870
18.500000	89.186	23.4843
18.750000	89.195	23.2655
19.000000	89.205	23.0251
19.250000	89.217	22.7595
19.500000	89.231	22.4670
19.750000	89.245	22.1476
20.000000	89.260	21.8026
20.299999	89.278	21.3580
20.600000	89.296	20.8851
20.900000	89.314	20.3898
21.200001	89.332	19.8792
21.400000	89.343	19.5339
21.799999	89.366	18.8419
22.000000	89.378	18.4998
22.400000	89.402	17.8324
22.700001	89.422	17.3514
23.000000	89.444	16.8892
23.299999	89.468	16.4449
23.600000	89.494	16.0160
24.000000	89.532	15.4635
24.299999	89.561	15.0610
24.700001	89.599	14.5391
25.000000	89.626	14.1602
25.400000	89.660	13.6758
25.799999	89.689	13.2196
26.200001	89.715	12.7943
26.500000	89.732	12.4954
26.900000	89.752	12.1210
27.200001	89.766	11.8555
27.600000	89.781	11.5175
28.000000	89.795	11.1925
28.500000	89.810	10.7971
29.000000	89.823	10.4062
29.500000	89.834	10.0141
30.000000	89.843	9.6174
30.400000	89.850	9.2966
30.700001	89.854	9.0548
31.100000	89.859	8.7326
31.500000	89.863	8.4130
32.000000	89.868	8.0213
32.500000	89.872	7.6419
33.000000	89.877	7.2772
33.500000	89.882	6.9279
34.000000	89.887	6.5935
34.500000	89.892	6.2728
35.000000	89.896	5.9651
35.500000	89.899	5.6693
36.000000	89.900	5.3844
36.500000	89.901	5.1088
37.000000	89.899	4.8407
37.500000	89.896	4.5781
38.200001	89.891	4.2165
38.700001	89.885	3.9608
39.500000	89.876	3.5538
40.000000	89.870	3.2999
40.599998	89.864	2.9954
41.200001	89.859	2.6908
41.799999	89.856	2.3866
42.500000	89.855	2.0319
43.099998	89.856	1.7277
43.700001	89.858	1.4228
44.400002	89.863	1.0653
45.000000	89.868	0.7572
45.500000	89.872	0.4993
46.200001	89.877	0.1371
46.799999	89.881	-0.1739
47.500000	89.885	-0.5369
48.200001	89.887	-0.8997
48.700001	89.889	-1.1586
49.400002	89.890	-1.5205
50.000000	89.890	-1.8298
50.799999	89.889	-2.2403
51.500000	89.887	-2.5969
52.200001	89.885	-2.9507
53.000000	89.882	-3.3505
53.799999	89.879	-3.7448
54.500000	89.875	-4.0843
55.200001	89.871	-4.4178
56.000000	89.865	-4.7907
57.000000	89.858	-5.2429
58.000000	89.850	-5.6782
59.000000	89.842	-6.0958
60.000000	89.833	-6.4953
60.799999	89.826	-6.8020
61.500000	89.820	-7.0616
62.200001	89.814	-7.3137
63.000000	89.806	-7.5938
64.000000	89.796	-7.9350
65.000000	89.786	-8.2699
66.000000	89.774	-8.6028
67.000000	89.761	-8.9372
68.000000	89.748	-9.2754
69.000000	89.733	-9.6182
70.000000	89.719	-9.9651
71.000000	89.703	-10.3146
72.000000	89.688	-10.6646
73.000000	89.673	-11.0128
74.000000	89.658	-11.3569
75.000000	89.644	-11.6950
76.199997	89.627	-12.0911
77.500000	89.609	-12.5076
78.800003	89.592	-12.9115
80.000000	89.576	-13.2743
81.199997	89.561	-13.6287
82.500000	89.545	-14.0040
83.800003	89.528	-14.3705
85.000000	89.513	-14.7006
86.199997	89.498	-15.0221
87.500000	89.483	-15.3595
88.500000	89.471	-15.6108
90.000000	89.455	-15.9743
91.199997	89.444	-16.2544
92.500000	89.432	-16.5498
93.800003	89.421	-16.8406
95.000000	89.410	-17.1083
96.199997	89.398	-17.3786
97.500000	89.382	-17.6769
98.800003	89.364	-17.9836
100.000000	89.344	-18.2757
101.500000	89.316	-18.6548
103.000000	89.285	-19.0499
104.400002	89.255	-19.4324
106.000000	89.220	-19.8833
107.500000	89.188	-20.3165
109.000000	89.157	-20.7558
110.599998	89.125	-21.2268
112.000000	89.099	-21.6370
113.800003	89.067	-22.1569
115.000000	89.048	-22.4960
117.199997	89.014	-23.0984
118.000000	89.002	-23.3107
120.599998	88.966	-23.9765
122.000000	88.948	-24.3208
124.099998	88.919	-24.8203
125.000000	88.907	-25.0284
126.500000	88.886	-25.3673
128.000000	88.865	-25.6964
131.500000	88.812	-26.4286
132.000000	88.804	-26.5297
134.000000	88.771	-26.9270
136.000000	88.736	-27.3161
138.000000	88.701	-27.7003
140.000000	88.665	-28.0829
143.000000	88.611	-28.6596
145.000000	88.575	-29.0486
147.500000	88.530	-29.5412
150.000000	88.487	-30.0396
152.500000	88.444	-30.5408
155.000000	88.400	-31.0411
157.500000	88.355	-31.5365
160.000000	88.309	-32.0237
162.500000	88.261	-32.4999
165.000000	88.211	-32.9622
167.500000	88.159	-33.4083
170.000000	88.107	-33.8367
172.500000	88.053	-34.2469
175.000000	87.998	-34.6390
177.500000	87.943	-35.0142
180.000000	87.887	-35.3736
182.500000	87.830	-35.7183
185.000000	87.774	-36.0482
187.500000	87.717	-36.3628
190.000000	87.662	-36.6611
192.500000	87.608	-36.9424
195.000000	87.555	-37.2069
197.500000	87.504	-37.4550
200.000000	87.454	-37.6880
203.000000	87.397	-37.9495
206.000000	87.341	-38.1936
209.000000	87.286	-38.4231
212.000000	87.233	-38.6403
214.000000	87.198	-38.7793
218.000000	87.128	-39.0437
220.000000	87.093	-39.1685
224.000000	87.025	-39.4005
227.000000	86.975	-39.5568
230.000000	86.925	-39.6966
233.000000	86.877	-39.8202
236.000000	86.831	-39.9291
240.000000	86.771	-40.0567
243.000000	86.728	-40.1440
247.000000	86.672	-40.2562
250.000000	86.631	-40.3403
254.000000	86.575	-40.4540
258.000000	86.518	-40.5678
262.000000	86.460	-40.6769
265.000000	86.416	-40.7518
269.000000	86.356	-40.8371
272.000000	86.311	-40.8871
276.000000	86.252	-40.9315
280.000000	86.194	-40.9484
285.000000	86.124	-40.9301
290.000000	86.059	-40.8706
295.000000	85.999	-40.7747
300.000000	85.944	-40.6487
304.000000	85.903	-40.5310
307.000000	85.873	-40.4351
311.000000	85.836	-40.2992
315.000000	85.800	-40.1557
320.000000	85.758	-39.9668
325.000000	85.717	-39.7666
330.000000	85.677	-39.5534
335.000000	85.639	-39.3250
340.000000	85.601	-39.0791
345.000000	85.564	-38.8139
350.000000	85.527	-38.5284
355.000000	85.491	-38.2222
360.000000	85.455	-37.8960
365.000000	85.419	-37.5511
370.000000	85.383	-37.1889
375.000000	85.347	-36.8114
382.000000	85.297	-36.2610
387.000000	85.261	-35.8552
395.000000	85.201	-35.1889
400.000000	85.163	-34.7639
406.000000	85.114	-34.2465
412.000000	85.063	-33.7217
418.000000	85.009	-33.1906
425.000000	84.944	-32.5661
431.000000	84.887	-32.0307
437.000000	84.831	-31.5003
444.000000	84.768	-30.8945
450.000000	84.718	-30.3907
455.000000	84.678	-29.9829
462.000000	84.627	-29.4284
468.000000	84.587	-28.9640
475.000000	84.546	-28.4277
482.000000	84.510	-27.8905
487.000000	84.487	-27.5030
494.000000	84.458	-26.9532
500.000000	84.435	-26.4745
508.000000	84.406	-25.8271
515.000000	84.382	-25.2543
522.000000	84.358	-24.6787
530.000000	84.330	-24.0208
538.000000	84.301	-23.3660
545.000000	84.276	-22.7979
552.000000	84.251	-22.2359
560.000000	84.224	-21.6040
570.000000	84.191	-20.8349
580.000000	84.160	-20.0959
590.000000	84.129	-19.3915
600.000000	84.099	-18.7222
608.000000	84.074	-18.2090
615.000000	84.052	-17.7725
622.000000	84.028	-17.3438
630.000000	84.000	-16.8586
640.000000	83.963	-16.2509
650.000000	83.924	-15.6328
660.000000	83.883	-14.9967
670.000000	83.840	-14.3364
680.000000	83.797	-13.6479
690.000000	83.754	-12.9289
700.000000	83.711	-12.1787
710.000000	83.669	-11.3976
720.000000	83.630	-10.5871
730.000000	83.594	-9.7493
740.000000	83.562	-8.8871
750.000000	83.535	-8.0035
762.000000	83.508	-6.9197
775.000000	83.488	-5.7234
788.000000	83.478	-4.5113
800.000000	83.477	-3.3847
812.000000	83.485	-2.2561
825.000000	83.502	-1.0362
838.000000	83.528	0.1757
850.000000	83.561	1.2835
862.000000	83.601	2.3777
875.000000	83.653	3.5443
885.000000	83.698	4.4266
900.000000	83.775	5.7224
912.000000	83.844	6.7330
925.000000	83.925	7.7995
938.000000	84.013	8.8349
950.000000	84.099	9.7614
962.000000	84.191	10.6587
975.000000	84.294	11.5965
988.000000	84.402	12.4972
1000.000000	84.505	13.2950
1015.000000	84.638	14.2458
1030.000000	84.775	15.1443
1044.000000	84.906	15.9354
1060.000000	85.058	16.7836
1075.000000	85.202	17.5253
1090.000000	85.348	18.2163
1106.000000	85.505	18.8990
1120.000000	85.643	19.4521
1138.000000	85.820	20.1051
1150.000000	85.938	20.5061
1172.000000	86.153	21.1743
1180.000000	86.231	21.3972
1206.000000	86.483	22.0535
1220.000000	86.617	22.3672
1241.000000	86.816	22.7910
1250.000000	86.901	22.9567
1265.000000	87.041	23.2133
1280.000000	87.180	23.4471
1315.000000	87.499	23.9132
1320.000000	87.544	23.9715
1340.000000	87.723	24.1857
1360.000000	87.901	24.3713
1380.000000	88.076	24.5305
1400.000000	88.251	24.6646
1430.000000	88.510	24.8214
1450.000000	88.682	24.8971
1475.000000	88.896	24.9599
1500.000000	89.109	24.9867
1525.000000	89.321	24.9766
1550.000000	89.533	24.9281
1575.000000	89.743	24.8392
1600.000000	89.953	24.7082
1625.000000	90.162	24.5328
1650.000000	90.370	24.3111
1675.000000	90.576	24.0410
1700.000000	90.780	23.7206
1725.000000	90.981	23.3483
1750.000000	91.180	22.9223
1775.000000	91.375	22.4416
1800.000000	91.566	21.9052
1825.000000	91.753	21.3126
1850.000000	91.933	20.6638
1875.000000	92.108	19.9591
1900.000000	92.277	19.1995
1925.000000	92.438	18.3864
1950.000000	92.592	17.5217
1975.000000	92.738	16.6081
2000.000000	92.875	15.6484
2030.000000	93.027	14.4413
2060.000000	93.166	13.1802
2090.000000	93.290	11.8734
2120.000000	93.399	10.5294
2140.000000	93.464	9.6174
2180.000000	93.573	7.7676
2200.000000	93.618	6.8357
2240.000000	93.687	4.9723
2270.000000	93.722	3.5861
2300.000000	93.743	2.2197
2330.000000	93.751	0.8816
2360.000000	93.746	-0.4206
2400.000000	93.720	-2.0889
2430.000000	93.688	-3.2815
2470.000000	93.630	-4.7839
2500.000000	93.575	-5.8396
2540.000000	93.489	-7.1461
2580.000000	93.390	-8.3322
2620.000000	93.281	-9.3945
2650.000000	93.192	-10.1093
2690.000000	93.068	-10.9537
2720.000000	92.971	-11.5069
2760.000000	92.838	-12.1410
2800.000000	92.703	-12.6620
2850.000000	92.533	-13.1646
2900.000000	92.364	-13.5169
2950.000000	92.198	-13.7365
3000.000000	92.038	-13.8420
3040.000000	91.916	-13.8567
3070.000000	91.827	-13.8331
3110.000000	91.712	-13.7622
3150.000000	91.603	-13.6535
3200.000000	91.473	-13.4749
3250.000000	91.352	-13.2602
3300.000000	91.237	-13.0201
3350.000000	91.130	-12.7636
3400.000000	91.030	-12.4986
3450.000000	90.937	-12.2319
3500.000000	90.850	-11.9696
3550.000000	90.769	-11.7172
3600.000000	90.694	-11.4800
3650.000000	90.624	-11.2630
3700.000000	90.559	-11.0712
3750.000000	90.498	-10.9097
3820.000000	90.419	-10.7432
3870.000000	90.366	-10.6725
3950.000000	90.286	-10.6515
4000.000000	90.237	-10.6989
4060.000000	90.178	-10.8178
4120.000000	90.118	-11.0029
4180.000000	90.054	-11.2509
4250.000000	89.974	-11.6127
4310.000000	89.899	-11.9775
4370.000000	89.817	-12.3846
4440.000000	89.710	-12.9009
4500.000000	89.609	-13.3678
4550.000000	89.517	-13.7661
4620.000000	89.377	-14.3256
4680.000000	89.246	-14.7954
4750.000000	89.080	-15.3181
4820.000000	88.901	-15.7985
4870.000000	88.765	-16.1076
4940.000000	88.565	-16.4827
5000.000000	88.385	-16.7427
5080.000000	88.136	-16.9899
5150.000000	87.911	-17.1053
5220.000000	87.682	-17.1212
5300.000000	87.419	-17.0146
5380.000000	87.158	-16.7744
5450.000000	86.935	-16.4563
5520.000000	86.719	-16.0405
5600.000000	86.484	-15.4505
5700.000000	86.213	-14.5517
5800.000000	85.969	-13.4896
5900.000000	85.756	-12.2842
6000.000000	85.574	-10.9593
6080.000000	85.449	-9.8315
6150.000000	85.354	-8.8083
6220.000000	85.272	-7.7628
6300.000000	85.189	-6.5565
6400.000000	85.103	-5.0604
6500.000000	85.031	-3.6164
6600.000000	84.972	-2.2699
6700.000000	84.924	-1.0697
6800.000000	84.887	-0.0677
6900.000000	84.860	0.6832
7000.000000	84.846	1.1313
7100.000000	84.843	1.2301
7200.000000	84.850	0.9427
7300.000000	84.867	0.2477
7400.000000	84.890	-0.8573
7500.000000	84.917	-2.3509
7620.000000	84.948	-4.5888
7750.000000	84.971	-7.4201
7880.000000	84.976	-10.4659
8000.000000	84.955	-13.2541
8120.000000	84.905	-15.8203
8250.000000	84.812	-18.1503
8380.000000	84.679	-19.8489
8500.000000	84.520	-20.7638
8620.000000	84.331	-21.0133
8750.000000	84.097	-20.5371
8850.000000	83.899	-19.6680
9000.000000	83.581	-17.6205
9120.000000	83.316	-15.4175
9250.000000	83.024	-12.5574
9380.000000	82.735	-9.2979
9500.000000	82.475	-6.0159
9620.000000	82.228	-2.5440
9750.000000	81.977	1.3551
9880.000000	81.750	5.3211
10000.000000	81.563	8.9780
10150.000000	81.362	13.4617
10300.000000	81.199	17.7606
10440.000000	81.081	21.5309
10600.000000	80.983	25.4737
10750.000000	80.923	28.7475
10900.000000	80.889	31.5572
11060.000000	80.875	33.9955
11200.000000	80.876	35.6287
11380.000000	80.889	37.0231
11500.000000	80.901	37.5117
11720.000000	80.925	37.5201
11800.000000	80.933	37.2521
12060.000000	80.953	35.4775
12200.000000	80.960	34.0134
12410.000000	80.966	31.2714
12500.000000	80.968	29.9322
12650.000000	80.969	27.5347
12800.000000	80.970	24.9895
13150.000000	80.964	18.8779
13200.000000	80.963	18.0224
13400.000000	80.955	14.7362
13600.000000	80.942	11.7648
13800.000000	80.922	9.2177
14000.000000	80.893	7.1833
14300.000000	80.825	5.2493
14500.000000	80.759	4.7943
14750.000000	80.650	5.2631
15000.000000	80.512	6.9825
15250.000000	80.345	10.0531
15500.000000	80.156	14.5631
15750.000000	79.951	20.5764
16000.000000	79.737	28.1091
16250.000000	79.520	37.1014
16500.000000	79.305	47.4026
16750.000000	79.087	58.7777
17000.000000	78.861	70.9335
17250.000000	78.615	83.5494
17500.000000	78.341	96.3066
17750.000000	78.033	108.9055
18000.000000	77.689	121.0729
18250.000000	77.313	132.5612
18500.000000	76.913	143.1455
18750.000000	76.503	152.6207
19000.000000	76.105	160.8020
19250.000000	75.742	167.5282
19500.000000	75.440	172.6684
19750.000000	75.224	176.1295
20000.000000	75.111	177.8651
