* Measurement data measured by REW V5.30.9
* Source: EQ OB ODIO 2024 v3 Target Filtered
* Format: 
* Dated: 07 18, 24 9:57:24 AM
* REW Settings:
*  C-weighting compensation: Off
*  Target level: 75.0 dB
* Note: Measurement imported from C:\Users\Obed\Documents\IMM6 + Vinyl Tube Measurements\711\CONFIG\TARGET\OB ODIO 2024 v3 Target.txt Format: Comma/Tab/Space delimited data 686 values loaded, 1 Hz to 20,054 Hz log spaced  LS       Fc   200.0 Hz  Gain   4.10 dB LS       Fc   40.00 Hz  Gain   2.00 dB
* Measurement: EQ OB ODIO 2024 v3 Target
* Smoothing: 1/48 octave
* Frequency Step: 1/48 octave
* Start Frequency: 1.000 Hz
*
* Freq(Hz)	SPL(dB)	Phase(degrees)
1.000000	51.892	-94.8747
1.015000	51.886	-95.0814
1.030000	51.877	-95.3766
1.044000	51.867	-95.7067
1.060000	51.852	-96.1325
1.075000	51.836	-96.5659
1.090000	51.818	-97.0220
1.106000	51.795	-97.5229
1.120000	51.774	-97.9672
1.138000	51.744	-98.5392
1.150000	51.722	-98.9181
1.172000	51.678	-99.6017
1.180000	51.660	-99.8453
1.206000	51.601	-100.6208
1.220000	51.566	-101.0248
1.241000	51.509	-101.6114
1.250000	51.483	-101.8554
1.265000	51.438	-102.2533
1.280000	51.390	-102.6374
1.315000	51.267	-103.4821
1.320000	51.248	-103.5969
1.340000	51.169	-104.0383
1.360000	51.084	-104.4518
1.380000	50.993	-104.8362
1.400000	50.895	-105.1884
1.430000	50.738	-105.6552
1.450000	50.625	-105.9217
1.475000	50.475	-106.1990
1.500000	50.315	-106.4110
1.525000	50.146	-106.5515
1.550000	49.967	-106.6139
1.575000	49.779	-106.5903
1.600000	49.583	-106.4721
1.625000	49.380	-106.2495
1.650000	49.171	-105.9116
1.675000	48.956	-105.4469
1.700000	48.736	-104.8431
1.725000	48.512	-104.0877
1.750000	48.284	-103.1686
1.775000	48.054	-102.0737
1.800000	47.822	-100.7921
1.825000	47.589	-99.3140
1.850000	47.357	-97.6311
1.875000	47.128	-95.7375
1.900000	46.905	-93.6296
1.925000	46.692	-91.3068
1.950000	46.492	-88.7724
1.975000	46.312	-86.0344
2.000000	46.156	-83.1021
2.030000	46.013	-79.3525
2.060000	45.928	-75.3861
2.090000	45.911	-71.2447
2.120000	45.969	-66.9808
2.140000	46.054	-64.0962
2.180000	46.326	-58.3021
2.200000	46.511	-55.4276
2.240000	46.973	-49.7927
2.270000	47.381	-45.7232
2.300000	47.833	-41.8334
2.330000	48.315	-38.1511
2.360000	48.818	-34.7032
2.400000	49.505	-30.4858
2.430000	50.023	-27.6166
2.470000	50.710	-24.1814
2.500000	51.217	-21.8842
2.540000	51.880	-19.1761
2.580000	52.524	-16.8353
2.620000	53.146	-14.8222
2.650000	53.599	-13.5051
2.690000	54.184	-11.9709
2.720000	54.609	-10.9653
2.760000	55.156	-9.7926
2.800000	55.682	-8.7795
2.850000	56.311	-7.6935
2.900000	56.909	-6.7597
2.950000	57.476	-5.9341
3.000000	58.016	-5.1769
3.040000	58.429	-4.5977
3.070000	58.727	-4.1688
3.110000	59.112	-3.5933
3.150000	59.482	-3.0025
3.200000	59.924	-2.2261
3.250000	60.346	-1.3909
3.300000	60.748	-0.4812
3.350000	61.132	0.5161
3.400000	61.498	1.6116
3.450000	61.847	2.8132
3.500000	62.180	4.1262
3.550000	62.499	5.5533
3.600000	62.803	7.0945
3.650000	63.094	8.7471
3.700000	63.373	10.5050
3.750000	63.639	12.3628
3.820000	63.994	15.1066
3.870000	64.235	17.1541
3.950000	64.604	20.5432
4.000000	64.824	22.7069
4.060000	65.079	25.3305
4.120000	65.326	27.9578
4.180000	65.567	30.5668
4.250000	65.842	33.5606
4.310000	66.075	36.0639
4.370000	66.307	38.4928
4.440000	66.579	41.2180
4.500000	66.815	43.4522
4.550000	67.017	45.2352
4.620000	67.306	47.6098
4.680000	67.562	49.5283
4.750000	67.872	51.6274
4.820000	68.196	53.5791
4.870000	68.437	54.8805
4.940000	68.786	56.5744
5.000000	69.097	57.9085
5.080000	69.527	59.5177
5.150000	69.917	60.7688
5.220000	70.319	61.8713
5.300000	70.788	62.9527
5.380000	71.267	63.8456
5.450000	71.690	64.4743
5.520000	72.115	64.9622
5.600000	72.600	65.3511
5.700000	73.201	65.5975
5.800000	73.792	65.5903
5.900000	74.368	65.3462
6.000000	74.926	64.8877
6.080000	75.358	64.3819
6.150000	75.724	63.8473
6.220000	76.079	63.2356
6.300000	76.470	62.4531
6.400000	76.937	61.3701
6.500000	77.380	60.1932
6.600000	77.799	58.9459
6.700000	78.195	57.6525
6.800000	78.569	56.3359
6.900000	78.923	55.0181
7.000000	79.259	53.7196
7.100000	79.578	52.4594
7.200000	79.883	51.2544
7.300000	80.176	50.1198
7.400000	80.460	49.0678
7.500000	80.737	48.1089
7.620000	81.066	47.0908
7.750000	81.420	46.1565
7.880000	81.777	45.3969
8.000000	82.113	44.8439
8.120000	82.458	44.4200
8.250000	82.842	44.0853
8.380000	83.237	43.8535
8.500000	83.611	43.7056
8.620000	83.992	43.5967
8.750000	84.409	43.4963
8.850000	84.733	43.4148
9.000000	85.218	43.2618
9.120000	85.602	43.0973
9.250000	86.013	42.8630
9.380000	86.415	42.5645
9.500000	86.777	42.2291
9.620000	87.129	41.8371
9.750000	87.498	41.3531
9.880000	87.854	40.8146
10.000000	88.170	40.2756
10.150000	88.551	39.5579
10.300000	88.913	38.8052
10.440000	89.237	38.0832
10.600000	89.591	37.2491
10.750000	89.906	36.4699
10.900000	90.209	35.7028
11.060000	90.517	34.9059
11.200000	90.774	34.2323
11.380000	91.090	33.4030
11.500000	91.290	32.8767
11.720000	91.640	31.9681
11.800000	91.761	31.6575
12.060000	92.132	30.7151
12.200000	92.317	30.2520
12.410000	92.575	29.6141
12.500000	92.679	29.3599
12.650000	92.843	28.9599
12.800000	92.994	28.5881
13.150000	93.302	27.8017
13.200000	93.341	27.6958
13.400000	93.486	27.2871
13.600000	93.612	26.8909
13.800000	93.722	26.5001
14.000000	93.816	26.1093
14.300000	93.932	25.5196
14.500000	93.994	25.1249
14.750000	94.057	24.6344
15.000000	94.105	24.1546
15.250000	94.141	23.6924
15.500000	94.167	23.2535
15.750000	94.186	22.8410
16.000000	94.198	22.4554
16.250000	94.205	22.0955
16.500000	94.209	21.7596
16.750000	94.210	21.4455
17.000000	94.209	21.1510
17.250000	94.206	20.8737
17.500000	94.202	20.6104
17.750000	94.200	20.3567
18.000000	94.197	20.1070
18.250000	94.197	19.8546
18.500000	94.199	19.5927
18.750000	94.203	19.3145
19.000000	94.209	19.0149
19.250000	94.216	18.6903
19.500000	94.224	18.3388
19.750000	94.234	17.9606
20.000000	94.243	17.5567
20.299999	94.254	17.0417
20.600000	94.265	16.4985
20.900000	94.276	15.9331
21.200001	94.285	15.3526
21.400000	94.292	14.9607
21.799999	94.304	14.1758
22.000000	94.311	13.7875
22.400000	94.324	13.0276
22.700001	94.334	12.4770
23.000000	94.347	11.9455
23.299999	94.362	11.4319
23.600000	94.379	10.9343
24.000000	94.402	10.2905
24.299999	94.421	9.8201
24.700001	94.445	9.2086
25.000000	94.461	8.7632
25.400000	94.479	8.1909
25.799999	94.494	7.6476
26.200001	94.504	7.1359
26.500000	94.509	6.7729
26.900000	94.512	6.3138
27.200001	94.513	5.9854
27.600000	94.512	5.5648
28.000000	94.508	5.1585
28.500000	94.501	4.6634
29.000000	94.490	4.1750
29.500000	94.478	3.6878
30.000000	94.462	3.1987
30.400000	94.450	2.8058
30.700001	94.439	2.5112
31.100000	94.424	2.1198
31.500000	94.407	1.7328
32.000000	94.387	1.2591
32.500000	94.365	0.8003
33.000000	94.343	0.3589
33.500000	94.323	-0.0645
34.000000	94.301	-0.4705
34.500000	94.279	-0.8598
35.000000	94.257	-1.2336
35.500000	94.233	-1.5926
36.000000	94.208	-1.9381
36.500000	94.182	-2.2718
37.000000	94.154	-2.5954
37.500000	94.125	-2.9109
38.200001	94.083	-3.3425
38.700001	94.052	-3.6452
39.500000	94.002	-4.1227
40.000000	93.970	-4.4176
40.599998	93.934	-4.7688
41.200001	93.901	-5.1169
41.799999	93.869	-5.4620
42.500000	93.834	-5.8612
43.099998	93.808	-6.2009
43.700001	93.783	-6.5390
44.400002	93.756	-6.9327
45.000000	93.735	-7.2695
45.500000	93.718	-7.5500
46.200001	93.695	-7.9419
46.799999	93.675	-8.2768
47.500000	93.652	-8.6659
48.200001	93.628	-9.0531
48.700001	93.611	-9.3286
49.400002	93.587	-9.7126
50.000000	93.567	-10.0399
50.799999	93.539	-10.4732
51.500000	93.516	-10.8489
52.200001	93.492	-11.2211
53.000000	93.466	-11.6415
53.799999	93.440	-12.0557
54.500000	93.416	-12.4123
55.200001	93.394	-12.7629
56.000000	93.369	-13.1551
57.000000	93.337	-13.6318
58.000000	93.306	-14.0919
59.000000	93.277	-14.5348
60.000000	93.247	-14.9605
60.799999	93.224	-15.2889
61.500000	93.205	-15.5679
62.200001	93.186	-15.8400
63.000000	93.165	-16.1437
64.000000	93.137	-16.5153
65.000000	93.110	-16.8821
66.000000	93.083	-17.2482
67.000000	93.056	-17.6170
68.000000	93.029	-17.9908
69.000000	93.001	-18.3707
70.000000	92.973	-18.7560
71.000000	92.946	-19.1453
72.000000	92.918	-19.5366
73.000000	92.891	-19.9274
74.000000	92.865	-20.3157
75.000000	92.840	-20.6994
76.199997	92.810	-21.1521
77.500000	92.779	-21.6323
78.800003	92.749	-22.1023
80.000000	92.722	-22.5281
81.199997	92.695	-22.9475
82.500000	92.666	-23.3951
83.800003	92.637	-23.8361
85.000000	92.611	-24.2367
86.199997	92.585	-24.6303
87.500000	92.558	-25.0479
88.500000	92.537	-25.3621
90.000000	92.507	-25.8221
91.199997	92.485	-26.1814
92.500000	92.461	-26.5642
93.800003	92.438	-26.9441
95.000000	92.416	-27.2955
96.199997	92.392	-27.6507
97.500000	92.364	-28.0426
98.800003	92.333	-28.4441
100.000000	92.301	-28.8251
101.500000	92.258	-29.3166
103.000000	92.212	-29.8257
104.400002	92.168	-30.3160
106.000000	92.116	-30.8918
107.500000	92.068	-31.4432
109.000000	92.020	-32.0024
110.599998	91.971	-32.6025
112.000000	91.929	-33.1268
113.800003	91.876	-33.7950
115.000000	91.842	-34.2337
117.199997	91.781	-35.0207
118.000000	91.760	-35.3003
120.599998	91.690	-36.1878
122.000000	91.653	-36.6525
124.099998	91.597	-37.3331
125.000000	91.572	-37.6192
126.500000	91.530	-38.0885
128.000000	91.488	-38.5479
131.500000	91.384	-39.5862
132.000000	91.368	-39.7314
134.000000	91.305	-40.3043
136.000000	91.240	-40.8689
138.000000	91.173	-41.4285
140.000000	91.105	-41.9863
143.000000	91.002	-42.8243
145.000000	90.933	-43.3864
147.500000	90.847	-44.0941
150.000000	90.761	-44.8055
152.500000	90.674	-45.5176
155.000000	90.586	-46.2262
157.500000	90.497	-46.9272
160.000000	90.406	-47.6169
162.500000	90.313	-48.2921
165.000000	90.218	-48.9497
167.500000	90.121	-49.5872
170.000000	90.024	-50.2028
172.500000	89.925	-50.7956
175.000000	89.826	-51.3656
177.500000	89.726	-51.9136
180.000000	89.625	-52.4407
182.500000	89.525	-52.9474
185.000000	89.425	-53.4337
187.500000	89.326	-53.8988
190.000000	89.228	-54.3416
192.500000	89.133	-54.7614
195.000000	89.039	-55.1581
197.500000	88.947	-55.5322
200.000000	88.859	-55.8847
203.000000	88.754	-56.2809
206.000000	88.653	-56.6504
209.000000	88.555	-56.9955
212.000000	88.459	-57.3188
214.000000	88.396	-57.5230
218.000000	88.273	-57.9050
220.000000	88.213	-58.0822
224.000000	88.095	-58.4064
227.000000	88.009	-58.6213
230.000000	87.926	-58.8104
233.000000	87.845	-58.9744
236.000000	87.768	-59.1149
240.000000	87.669	-59.2716
243.000000	87.598	-59.3712
247.000000	87.508	-59.4867
250.000000	87.441	-59.5641
254.000000	87.355	-59.6571
258.000000	87.270	-59.7373
262.000000	87.186	-59.8007
265.000000	87.123	-59.8338
269.000000	87.041	-59.8543
272.000000	86.981	-59.8489
276.000000	86.904	-59.8111
280.000000	86.829	-59.7370
285.000000	86.742	-59.5937
290.000000	86.663	-59.3978
295.000000	86.590	-59.1549
300.000000	86.525	-58.8729
304.000000	86.478	-58.6245
307.000000	86.445	-58.4274
311.000000	86.404	-58.1526
315.000000	86.366	-57.8664
320.000000	86.322	-57.4945
325.000000	86.281	-57.1068
330.000000	86.244	-56.7025
335.000000	86.209	-56.2802
340.000000	86.176	-55.8383
345.000000	86.145	-55.3756
350.000000	86.117	-54.8916
355.000000	86.090	-54.3867
360.000000	86.064	-53.8617
365.000000	86.039	-53.3183
370.000000	86.015	-52.7585
375.000000	85.993	-52.1842
382.000000	85.962	-51.3612
387.000000	85.941	-50.7624
395.000000	85.908	-49.7913
400.000000	85.886	-49.1790
406.000000	85.858	-48.4393
412.000000	85.828	-47.6959
418.000000	85.798	-46.9499
425.000000	85.761	-46.0796
431.000000	85.729	-45.3379
437.000000	85.699	-44.6053
444.000000	85.668	-43.7686
450.000000	85.645	-43.0709
455.000000	85.629	-42.5045
462.000000	85.611	-41.7324
468.000000	85.602	-41.0856
475.000000	85.596	-40.3417
482.000000	85.595	-39.6022
487.000000	85.598	-39.0735
494.000000	85.604	-38.3306
500.000000	85.612	-37.6905
508.000000	85.625	-36.8337
515.000000	85.636	-36.0829
522.000000	85.648	-35.3338
530.000000	85.662	-34.4832
538.000000	85.675	-33.6415
545.000000	85.687	-32.9144
552.000000	85.698	-32.1976
560.000000	85.712	-31.3937
570.000000	85.730	-30.4168
580.000000	85.750	-29.4772
590.000000	85.769	-28.5794
600.000000	85.788	-27.7231
608.000000	85.801	-27.0649
615.000000	85.811	-26.5048
622.000000	85.819	-25.9555
630.000000	85.825	-25.3359
640.000000	85.831	-24.5653
650.000000	85.832	-23.7899
660.000000	85.830	-23.0017
670.000000	85.825	-22.1945
680.000000	85.816	-21.3638
690.000000	85.806	-20.5073
700.000000	85.793	-19.6238
710.000000	85.780	-18.7136
720.000000	85.766	-17.7780
730.000000	85.754	-16.8190
740.000000	85.743	-15.8391
750.000000	85.733	-14.8411
762.000000	85.724	-13.6245
775.000000	85.720	-12.2893
788.000000	85.721	-10.9435
800.000000	85.726	-9.6975
812.000000	85.736	-8.4530
825.000000	85.752	-7.1119
838.000000	85.773	-5.7826
850.000000	85.798	-4.5698
862.000000	85.828	-3.3737
875.000000	85.864	-2.0998
885.000000	85.896	-1.1373
900.000000	85.950	0.2754
912.000000	85.997	1.3768
925.000000	86.054	2.5389
938.000000	86.115	3.6673
950.000000	86.176	4.6775
962.000000	86.239	5.6562
975.000000	86.312	6.6800
988.000000	86.388	7.6649
1000.000000	86.461	8.5382
1015.000000	86.556	9.5811
1030.000000	86.653	10.5695
1044.000000	86.747	11.4421
1060.000000	86.856	12.3812
1075.000000	86.960	13.2062
1090.000000	87.066	13.9780
1106.000000	87.180	14.7455
1120.000000	87.281	15.3705
1138.000000	87.410	16.1147
1150.000000	87.496	16.5744
1172.000000	87.654	17.3489
1180.000000	87.712	17.6088
1206.000000	87.896	18.3866
1220.000000	87.995	18.7647
1241.000000	88.142	19.2817
1250.000000	88.204	19.4872
1265.000000	88.307	19.8091
1280.000000	88.408	20.1058
1315.000000	88.643	20.7181
1320.000000	88.676	20.7983
1340.000000	88.807	21.0947
1360.000000	88.937	21.3619
1380.000000	89.067	21.6016
1400.000000	89.195	21.8152
1430.000000	89.387	22.0910
1450.000000	89.514	22.2464
1475.000000	89.672	22.4081
1500.000000	89.830	22.5346
1525.000000	89.989	22.6248
1550.000000	90.148	22.6778
1575.000000	90.307	22.6920
1600.000000	90.467	22.6658
1625.000000	90.628	22.5971
1650.000000	90.788	22.4842
1675.000000	90.948	22.3250
1700.000000	91.109	22.1172
1725.000000	91.268	21.8588
1750.000000	91.426	21.5473
1775.000000	91.583	21.1802
1800.000000	91.737	20.7550
1825.000000	91.889	20.2689
1850.000000	92.037	19.7191
1875.000000	92.181	19.1026
1900.000000	92.322	18.4163
1925.000000	92.457	17.6571
1950.000000	92.586	16.8224
1975.000000	92.710	15.9103
2000.000000	92.827	14.9185
2030.000000	92.957	13.6247
2060.000000	93.077	12.2216
2090.000000	93.184	10.7166
2120.000000	93.280	9.1260
2140.000000	93.337	8.0251
2180.000000	93.434	5.7629
2200.000000	93.474	4.6183
2240.000000	93.537	2.3375
2270.000000	93.570	0.6655
2300.000000	93.591	-0.9506
2330.000000	93.599	-2.4954
2360.000000	93.597	-3.9566
2400.000000	93.578	-5.7698
2430.000000	93.552	-7.0230
2470.000000	93.504	-8.5541
2500.000000	93.459	-9.5993
2540.000000	93.387	-10.8585
2580.000000	93.304	-11.9720
2620.000000	93.212	-12.9453
2650.000000	93.137	-13.5866
2690.000000	93.032	-14.3298
2720.000000	92.951	-14.8066
2760.000000	92.839	-15.3389
2800.000000	92.726	-15.7622
2850.000000	92.584	-16.1484
2900.000000	92.444	-16.3931
2950.000000	92.308	-16.5125
3000.000000	92.178	-16.5260
3040.000000	92.079	-16.4729
3070.000000	92.007	-16.4005
3110.000000	91.916	-16.2683
3150.000000	91.829	-16.1020
3200.000000	91.728	-15.8562
3250.000000	91.633	-15.5792
3300.000000	91.545	-15.2807
3350.000000	91.463	-14.9697
3400.000000	91.388	-14.6535
3450.000000	91.319	-14.3386
3500.000000	91.255	-14.0307
3550.000000	91.196	-13.7352
3600.000000	91.143	-13.4572
3650.000000	91.093	-13.2013
3700.000000	91.048	-12.9725
3750.000000	91.006	-12.7764
3820.000000	90.953	-12.5627
3870.000000	90.918	-12.4604
3950.000000	90.865	-12.3913
4000.000000	90.833	-12.4088
4060.000000	90.793	-12.4948
4120.000000	90.751	-12.6476
4180.000000	90.706	-12.8650
4250.000000	90.646	-13.1922
4310.000000	90.588	-13.5280
4370.000000	90.522	-13.9077
4440.000000	90.435	-14.3929
4500.000000	90.350	-14.8339
4550.000000	90.272	-15.2115
4620.000000	90.150	-15.7428
4680.000000	90.035	-16.1892
4750.000000	89.888	-16.6851
4820.000000	89.728	-17.1406
4870.000000	89.605	-17.4320
4940.000000	89.425	-17.7835
5000.000000	89.262	-18.0234
5080.000000	89.037	-18.2454
5150.000000	88.833	-18.3404
5220.000000	88.626	-18.3355
5300.000000	88.390	-18.2062
5380.000000	88.157	-17.9455
5450.000000	87.959	-17.6100
5520.000000	87.770	-17.1769
5600.000000	87.566	-16.5671
5700.000000	87.335	-15.6452
5800.000000	87.135	-14.5620
5900.000000	86.967	-13.3357
6000.000000	86.831	-11.9916
6080.000000	86.745	-10.8493
6150.000000	86.683	-9.8134
6220.000000	86.633	-8.7555
6300.000000	86.590	-7.5358
6400.000000	86.553	-6.0240
6500.000000	86.531	-4.5653
6600.000000	86.521	-3.2049
6700.000000	86.523	-1.9916
6800.000000	86.537	-0.9772
6900.000000	86.562	-0.2143
7000.000000	86.599	0.2456
7100.000000	86.647	0.3563
7200.000000	86.705	0.0817
7300.000000	86.771	-0.5996
7400.000000	86.843	-1.6886
7500.000000	86.917	-3.1666
7620.000000	87.002	-5.3820
7750.000000	87.082	-8.1857
7880.000000	87.139	-11.2018
8000.000000	87.165	-13.9639
8120.000000	87.160	-16.5044
8250.000000	87.114	-18.8094
8380.000000	87.026	-20.4879
8500.000000	86.910	-21.3899
8620.000000	86.764	-21.6251
8750.000000	86.575	-21.1405
8850.000000	86.414	-20.2618
9000.000000	86.152	-18.2080
9120.000000	85.932	-16.0056
9250.000000	85.691	-13.1390
9380.000000	85.453	-9.8767
9500.000000	85.243	-6.5921
9620.000000	85.046	-3.1161
9750.000000	84.851	0.7871
9880.000000	84.678	4.7570
10000.000000	84.542	8.4176
10150.000000	84.405	12.9057
10300.000000	84.304	17.2103
10440.000000	84.241	20.9844
10600.000000	84.204	24.9330
10750.000000	84.197	28.2143
10900.000000	84.212	31.0280
11060.000000	84.247	33.4776
11200.000000	84.287	35.1136
11380.000000	84.347	36.5226
11500.000000	84.388	37.0096
11720.000000	84.460	37.0321
11800.000000	84.484	36.7613
12060.000000	84.553	35.0144
12200.000000	84.586	33.5793
12410.000000	84.626	30.8504
12500.000000	84.642	29.5278
12650.000000	84.666	27.1435
12800.000000	84.686	24.6116
13150.000000	84.725	18.5375
13200.000000	84.730	17.6870
13400.000000	84.743	14.4200
13600.000000	84.749	11.4638
13800.000000	84.748	8.9272
14000.000000	84.735	6.9172
14300.000000	84.688	5.0040
14500.000000	84.635	4.5494
14750.000000	84.541	5.0416
15000.000000	84.415	6.7713
15250.000000	84.260	9.8565
15500.000000	84.082	14.3796
15750.000000	83.887	20.4027
16000.000000	83.682	27.9403
16250.000000	83.473	36.9310
16500.000000	83.264	47.2248
16750.000000	83.053	58.5884
17000.000000	82.831	70.7300
17250.000000	82.589	83.3311
17500.000000	82.318	96.0745
17750.000000	82.014	108.6615
18000.000000	81.674	120.8181
18250.000000	81.302	132.2971
18500.000000	80.904	142.8726
18750.000000	80.498	152.3399
19000.000000	80.103	160.5144
19250.000000	79.743	167.2349
19500.000000	79.445	172.3523
19750.000000	79.232	175.7902
20000.000000	79.125	177.4545
