* Measurement data measured by REW V5.30.9
* Source: Microphone (Realtek USB2.0 Audio), no input selected, L, volume: no control
* Format: 512k Log Swept Sine, 1 sweep at -12.0 dBFS with no timing reference
* Dated: 03 13, 24 5:39:17 AM
* REW Settings:
*  C-weighting compensation: Off
*  Target level: 75.0 dB
* Note: ; 
* Measurement: one R
* Smoothing: None
* Frequency Step: 1/48 octave
* Start Frequency: 1.000 Hz
*
* Freq(Hz)	SPL(dB)	Phase(degrees)
1.000000	46.426	-59.5888
1.015000	46.161	-60.1858
1.030000	45.881	-60.9774
1.044000	45.606	-61.9087
1.060000	45.278	-63.1610
1.075000	44.957	-64.4787
1.090000	44.624	-65.8973
1.106000	44.258	-67.4799
1.120000	43.928	-68.8887
1.138000	43.494	-70.6821
1.150000	43.199	-71.8375
1.172000	42.648	-73.8005
1.180000	42.444	-74.4460
1.206000	41.776	-76.2014
1.220000	41.413	-76.8802
1.241000	40.866	-77.4665
1.250000	40.631	-77.5373
1.265000	40.241	-77.3847
1.280000	39.852	-76.8618
1.315000	38.957	-73.9926
1.320000	38.831	-73.3741
1.340000	38.334	-70.3229
1.360000	37.829	-66.1725
1.380000	37.267	-60.6539
1.400000	36.656	-53.9224
1.430000	35.676	-41.9396
1.450000	34.997	-32.9530
1.475000	34.142	-20.9096
1.500000	33.302	-8.2895
1.525000	32.500	4.5600
1.550000	31.761	17.2921
1.575000	31.107	29.5598
1.600000	30.564	41.0159
1.625000	30.154	51.3136
1.650000	29.902	60.1057
1.675000	29.832	67.0454
1.700000	29.973	68.6941
1.725000	30.344	68.8096
1.750000	30.913	69.0038
1.775000	31.646	69.2612
1.800000	32.511	69.5659
1.825000	33.473	69.9023
1.850000	34.500	70.2547
1.875000	35.558	70.6074
1.900000	36.614	70.9448
1.925000	37.635	71.2511
1.950000	38.587	71.5106
1.975000	39.437	71.7078
2.000000	40.152	71.8268
2.030000	40.796	71.7387
2.060000	41.306	71.2992
2.090000	41.723	70.6942
2.120000	42.060	69.9518
2.140000	42.246	69.3943
2.180000	42.542	68.1664
2.200000	42.659	67.5126
2.240000	42.849	66.1667
2.270000	42.968	65.1562
2.300000	43.081	64.1760
2.330000	43.198	63.2540
2.360000	43.333	62.4166
2.400000	43.495	61.3457
2.430000	43.588	60.5423
2.470000	43.679	59.4751
2.500000	43.726	58.6807
2.540000	43.767	57.6335
2.580000	43.788	56.6051
2.620000	43.796	55.6008
2.650000	43.798	54.8665
2.690000	43.800	53.9169
2.720000	43.796	53.2231
2.760000	43.769	52.3114
2.800000	43.723	51.4191
2.850000	43.647	50.3374
2.900000	43.560	49.3008
2.950000	43.475	48.3176
3.000000	43.402	47.3961
3.040000	43.359	46.7064
3.070000	43.325	46.1958
3.110000	43.273	45.5220
3.150000	43.221	44.8715
3.200000	43.162	44.1166
3.250000	43.120	43.4565
3.300000	43.107	42.9238
3.350000	43.132	42.5509
3.400000	43.200	42.3352
3.450000	43.295	42.2086
3.500000	43.418	42.1951
3.550000	43.570	42.3244
3.600000	43.754	42.6262
3.650000	43.971	43.1305
3.700000	44.222	43.8669
3.750000	44.515	44.8854
3.820000	44.995	46.7575
3.870000	45.377	48.3294
3.950000	46.033	51.0797
4.000000	46.460	52.8492
4.060000	46.979	54.9505
4.120000	47.528	57.2317
4.180000	48.105	59.6551
4.250000	48.796	62.4999
4.310000	49.390	64.8142
4.370000	49.975	66.8855
4.440000	50.648	69.0056
4.500000	51.228	70.6729
4.550000	51.711	71.9502
4.620000	52.379	73.5571
4.680000	52.939	74.7566
4.750000	53.574	75.9269
4.820000	54.196	76.8243
4.870000	54.632	77.3261
4.940000	55.230	77.8790
5.000000	55.730	78.2539
5.080000	56.377	78.6608
5.150000	56.925	78.8610
5.220000	57.457	78.9300
5.300000	58.047	78.9005
5.380000	58.618	78.8135
5.450000	59.102	78.6840
5.520000	59.571	78.4734
5.600000	60.089	78.1737
5.700000	60.714	77.7790
5.800000	61.314	77.3944
5.900000	61.889	76.9773
6.000000	62.441	76.5691
6.080000	62.870	76.2775
6.150000	63.234	76.0441
6.220000	63.588	75.8250
6.300000	63.983	75.5905
6.400000	64.464	75.3181
6.500000	64.930	75.0794
6.600000	65.382	74.8659
6.700000	65.824	74.6526
6.800000	66.257	74.4250
6.900000	66.679	74.1954
7.000000	67.093	73.9565
7.100000	67.502	73.7003
7.200000	67.904	73.4318
7.300000	68.299	73.1475
7.400000	68.690	72.8403
7.500000	69.076	72.5019
7.620000	69.532	72.0650
7.750000	70.018	71.5831
7.880000	70.496	71.0951
8.000000	70.931	70.6413
8.120000	71.359	70.2002
8.250000	71.815	69.7332
8.380000	72.265	69.2800
8.500000	72.674	68.8792
8.620000	73.079	68.4935
8.750000	73.512	68.0853
8.850000	73.842	67.7818
9.000000	74.333	67.3350
9.120000	74.722	66.9577
9.250000	75.141	66.5310
9.380000	75.555	66.0809
9.500000	75.934	65.6368
9.620000	76.309	65.1683
9.750000	76.709	64.6279
9.880000	77.101	64.0469
10.000000	77.457	63.4798
10.150000	77.890	62.7418
10.300000	78.309	61.9641
10.440000	78.688	61.2373
10.600000	79.106	60.4157
10.750000	79.483	59.6650
10.900000	79.846	58.9513
11.060000	80.221	58.2287
11.200000	80.540	57.6413
11.380000	80.938	56.9435
11.500000	81.199	56.5130
11.720000	81.667	55.7954
11.800000	81.835	55.5462
12.060000	82.371	54.7804
12.200000	82.652	54.3749
12.410000	83.065	53.7770
12.500000	83.238	53.5309
12.650000	83.519	53.1327
12.800000	83.793	52.7532
13.150000	84.387	51.9476
13.200000	84.438	51.8427
13.400000	84.570	51.4538
13.600000	84.656	51.1509
13.800000	84.716	50.9005
14.000000	84.797	50.6586
14.300000	84.947	50.1810
14.500000	85.059	49.7525
14.750000	85.193	49.0826
15.000000	85.316	48.2108
15.250000	85.421	47.1714
15.500000	85.499	46.0344
15.750000	85.532	44.9439
16.000000	85.538	43.9699
16.250000	85.538	43.1617
16.500000	85.535	42.5586
16.750000	85.540	42.2007
17.000000	85.564	41.9807
17.250000	85.626	41.8079
17.500000	85.722	41.5991
17.750000	85.833	41.2889
18.000000	85.955	40.8066
18.250000	86.078	40.1508
18.500000	86.189	39.3455
18.750000	86.270	38.4789
19.000000	86.326	37.6120
19.250000	86.360	36.8079
19.500000	86.376	36.1301
19.750000	86.378	35.6459
20.000000	86.385	35.3228
20.299999	86.415	35.0874
20.600000	86.474	34.9119
20.900000	86.554	34.6674
21.200001	86.648	34.2240
21.400000	86.706	33.8068
21.799999	86.781	32.8127
22.000000	86.796	32.2945
22.400000	86.786	31.3734
22.700001	86.759	30.9132
23.000000	86.738	30.6413
23.299999	86.740	30.4638
23.600000	86.767	30.2889
24.000000	86.824	29.9223
24.299999	86.874	29.5020
24.700001	86.929	28.8574
25.000000	86.964	28.3821
25.400000	87.021	27.7602
25.799999	87.093	27.1050
26.200001	87.176	26.2669
26.500000	87.228	25.5069
26.900000	87.260	24.4548
27.200001	87.259	23.7313
27.600000	87.239	23.0253
28.000000	87.228	22.6372
28.500000	87.272	22.2929
29.000000	87.348	21.7166
29.500000	87.398	20.7889
30.000000	87.369	19.9134
30.400000	87.314	19.5084
30.700001	87.276	19.4462
31.100000	87.263	19.5679
31.500000	87.308	19.6411
32.000000	87.408	19.3175
32.500000	87.491	18.4205
33.000000	87.504	17.3463
33.500000	87.470	16.4842
34.000000	87.447	16.0065
34.500000	87.491	15.6047
35.000000	87.579	14.9054
35.500000	87.657	13.7605
36.000000	87.668	12.4888
36.500000	87.621	11.4559
37.000000	87.556	10.9133
37.500000	87.526	10.7311
38.200001	87.547	10.6004
38.700001	87.576	10.4024
39.500000	87.599	10.0582
40.000000	87.606	9.8944
40.599998	87.615	9.6557
41.200001	87.613	9.3507
41.799999	87.599	9.0146
42.500000	87.586	8.5317
43.099998	87.561	7.9336
43.700001	87.501	7.2883
44.400002	87.413	6.9287
45.000000	87.396	6.9088
45.500000	87.436	6.7238
46.200001	87.493	6.0030
46.799999	87.494	5.3522
47.500000	87.496	5.0186
48.200001	87.567	4.7040
48.700001	87.621	4.1918
49.400002	87.631	3.3939
50.000000	87.611	3.0209
50.799999	87.631	2.6945
51.500000	87.653	2.0934
52.200001	87.622	1.4299
53.000000	87.569	0.9758
53.799999	87.554	0.5346
54.500000	87.535	0.0091
55.200001	87.509	-0.4218
56.000000	87.517	-0.9217
57.000000	87.506	-1.8959
58.000000	87.466	-2.4031
59.000000	87.482	-3.0381
60.000000	87.433	-3.2970
60.799999	87.532	-3.2748
61.500000	87.616	-4.3771
62.200001	87.498	-5.5506
63.000000	87.325	-5.3079
64.000000	87.378	-5.0168
65.000000	87.334	-5.7661
66.000000	87.292	-5.9048
67.000000	87.266	-6.5977
68.000000	87.194	-6.9997
69.000000	87.183	-7.4802
70.000000	87.141	-8.0810
71.000000	87.112	-8.5399
72.000000	87.088	-8.9415
73.000000	87.075	-9.3220
74.000000	87.051	-9.7250
75.000000	87.026	-10.0509
76.199997	86.994	-10.5190
77.500000	86.941	-10.9825
78.800003	86.896	-11.4428
80.000000	86.850	-11.8950
81.199997	86.808	-12.2960
82.500000	86.767	-12.7201
83.800003	86.725	-13.1476
85.000000	86.686	-13.5173
86.199997	86.641	-13.9036
87.500000	86.595	-14.2512
88.500000	86.560	-14.5464
90.000000	86.512	-14.9545
91.199997	86.473	-15.3311
92.500000	86.424	-15.6862
93.800003	86.382	-16.0587
95.000000	86.334	-16.4246
96.199997	86.279	-16.7000
97.500000	86.239	-16.9563
98.800003	86.199	-17.3499
100.000000	86.151	-17.6328
101.500000	86.107	-17.9946
103.000000	86.052	-18.2613
104.400002	86.010	-18.5445
106.000000	85.935	-18.7859
107.500000	85.880	-19.0946
109.000000	85.823	-19.3470
110.599998	85.766	-19.8053
112.000000	85.736	-20.0078
113.800003	85.677	-20.2822
115.000000	85.629	-20.3459
117.199997	85.527	-20.5856
118.000000	85.493	-20.9008
120.599998	85.437	-21.7787
122.000000	85.422	-20.9694
124.099998	85.185	-23.9606
125.000000	85.143	-21.6505
126.500000	85.253	-22.0104
128.000000	85.220	-21.7424
131.500000	85.083	-22.5274
132.000000	85.071	-22.4995
134.000000	85.060	-22.7540
136.000000	85.031	-22.9778
138.000000	84.962	-23.1890
140.000000	84.908	-23.4091
143.000000	84.824	-23.8908
145.000000	84.775	-24.0376
147.500000	84.687	-24.2824
150.000000	84.614	-24.5383
152.500000	84.560	-24.7987
155.000000	84.492	-24.9342
157.500000	84.414	-25.0587
160.000000	84.344	-25.2873
162.500000	84.257	-25.4281
165.000000	84.187	-25.5250
167.500000	84.092	-25.5983
170.000000	84.000	-25.7897
172.500000	83.921	-25.9482
175.000000	83.848	-26.0593
177.500000	83.770	-26.0754
180.000000	83.676	-26.1621
182.500000	83.621	-26.3689
185.000000	83.546	-26.4415
187.500000	83.470	-26.4703
190.000000	83.401	-26.5397
192.500000	83.321	-26.6018
195.000000	83.240	-26.6367
197.500000	83.164	-26.7329
200.000000	83.095	-26.7567
203.000000	83.010	-26.7930
206.000000	82.932	-26.8751
209.000000	82.866	-26.8892
212.000000	82.802	-26.8561
214.000000	82.749	-26.8323
218.000000	82.645	-26.8739
220.000000	82.597	-26.8684
224.000000	82.503	-26.7798
227.000000	82.425	-26.7148
230.000000	82.361	-26.6420
233.000000	82.292	-26.6149
236.000000	82.226	-26.5836
240.000000	82.129	-26.5353
243.000000	82.062	-26.4879
247.000000	81.982	-26.3656
250.000000	81.899	-26.2835
254.000000	81.788	-26.1184
258.000000	81.659	-25.8122
262.000000	81.538	-25.5263
265.000000	81.475	-25.1575
269.000000	81.387	-24.6395
272.000000	81.325	-24.2000
276.000000	81.260	-23.7087
280.000000	81.205	-23.1139
285.000000	81.147	-22.3985
290.000000	81.138	-21.5849
295.000000	81.168	-20.8228
300.000000	81.269	-20.6713
304.000000	81.330	-20.9045
307.000000	81.351	-21.1770
311.000000	81.287	-21.5105
315.000000	81.241	-21.7119
320.000000	81.167	-22.0203
325.000000	81.082	-22.0711
330.000000	80.997	-22.0589
335.000000	80.912	-21.9960
340.000000	80.833	-21.9085
345.000000	80.758	-21.7503
350.000000	80.677	-21.5657
355.000000	80.607	-21.3642
360.000000	80.537	-21.1812
365.000000	80.468	-20.9912
370.000000	80.414	-20.6436
375.000000	80.346	-20.4898
382.000000	80.250	-20.1214
387.000000	80.188	-19.8687
395.000000	80.106	-19.4600
400.000000	80.046	-19.1649
406.000000	79.978	-18.7991
412.000000	79.920	-18.4293
418.000000	79.866	-18.0870
425.000000	79.780	-17.7044
431.000000	79.721	-17.4668
437.000000	79.691	-17.0184
444.000000	79.608	-16.5259
450.000000	79.569	-16.2330
455.000000	79.534	-15.9104
462.000000	79.473	-15.5164
468.000000	79.426	-15.1463
475.000000	79.377	-14.7650
482.000000	79.326	-14.3380
487.000000	79.284	-14.0486
494.000000	79.239	-13.7060
500.000000	79.190	-13.2651
508.000000	79.140	-12.7523
515.000000	79.100	-12.3664
522.000000	79.050	-11.9274
530.000000	79.000	-11.3557
538.000000	78.950	-10.8972
545.000000	78.916	-10.4481
552.000000	78.875	-10.0262
560.000000	78.833	-9.4922
570.000000	78.791	-8.8647
580.000000	78.753	-8.2288
590.000000	78.707	-7.6514
600.000000	78.669	-6.9748
608.000000	78.629	-6.4002
615.000000	78.594	-5.9431
622.000000	78.575	-5.5356
630.000000	78.543	-4.9682
640.000000	78.513	-4.3050
650.000000	78.481	-3.6844
660.000000	78.468	-3.0046
670.000000	78.433	-2.3162
680.000000	78.412	-1.5700
690.000000	78.387	-0.9549
700.000000	78.366	-0.2636
710.000000	78.343	0.4537
720.000000	78.338	1.0719
730.000000	78.326	1.8171
740.000000	78.319	2.4322
750.000000	78.316	3.2353
762.000000	78.314	4.0686
775.000000	78.315	5.0102
788.000000	78.316	5.8702
800.000000	78.330	6.7871
812.000000	78.339	7.6544
825.000000	78.355	8.5205
838.000000	78.375	9.4488
850.000000	78.405	10.2746
862.000000	78.435	11.1468
875.000000	78.473	11.9727
885.000000	78.510	12.7181
900.000000	78.566	13.7105
912.000000	78.623	14.5219
925.000000	78.678	15.3553
938.000000	78.739	16.1941
950.000000	78.813	16.9038
962.000000	78.880	17.5937
975.000000	78.963	18.3406
988.000000	79.037	19.0056
1000.000000	79.114	19.6841
1015.000000	79.214	20.4315
1030.000000	79.314	21.1497
1044.000000	79.423	21.7597
1060.000000	79.542	22.3855
1075.000000	79.652	22.9544
1090.000000	79.768	23.4648
1106.000000	79.886	23.9568
1120.000000	79.988	24.4037
1138.000000	80.124	24.8435
1150.000000	80.200	25.0990
1172.000000	80.353	25.5260
1180.000000	80.409	25.7166
1206.000000	80.594	26.1547
1220.000000	80.677	26.3366
1241.000000	80.810	26.5933
1250.000000	80.861	26.7314
1265.000000	80.958	26.9672
1280.000000	81.042	27.1507
1315.000000	81.252	27.6420
1320.000000	81.282	27.7064
1340.000000	81.399	27.9503
1360.000000	81.524	28.1596
1380.000000	81.650	28.2461
1400.000000	81.771	28.3260
1430.000000	81.925	28.5066
1450.000000	82.013	28.5982
1475.000000	82.132	28.7234
1500.000000	82.247	28.8808
1525.000000	82.347	29.0874
1550.000000	82.456	29.2465
1575.000000	82.567	29.4503
1600.000000	82.676	29.6304
1625.000000	82.783	29.8541
1650.000000	82.894	30.0583
1675.000000	83.009	30.2767
1700.000000	83.122	30.4930
1725.000000	83.235	30.6512
1750.000000	83.346	30.8483
1775.000000	83.461	31.0394
1800.000000	83.579	31.2344
1825.000000	83.697	31.4008
1850.000000	83.819	31.5934
1875.000000	83.941	31.7043
1900.000000	84.064	31.8608
1925.000000	84.188	31.9310
1950.000000	84.308	32.0583
1975.000000	84.434	32.1505
2000.000000	84.562	32.2344
2030.000000	84.720	32.2723
2060.000000	84.882	32.2907
2090.000000	85.044	32.2591
2120.000000	85.210	32.2391
2140.000000	85.315	32.1919
2180.000000	85.534	32.0498
2200.000000	85.634	31.9387
2240.000000	85.843	31.7152
2270.000000	86.004	31.4746
2300.000000	86.157	31.2654
2330.000000	86.306	30.9405
2360.000000	86.460	30.5908
2400.000000	86.654	30.1325
2430.000000	86.793	29.6918
2470.000000	86.966	29.0982
2500.000000	87.097	28.5988
2540.000000	87.281	27.9534
2580.000000	87.457	27.1951
2620.000000	87.638	26.4620
2650.000000	87.749	25.8263
2690.000000	87.886	25.1454
2720.000000	88.006	24.3639
2760.000000	88.135	23.6894
2800.000000	88.263	22.6064
2850.000000	88.375	21.5606
2900.000000	88.471	20.1668
2950.000000	88.582	19.1931
3000.000000	88.622	17.9109
3040.000000	88.645	17.2736
3070.000000	88.714	16.5208
3110.000000	88.721	15.8745
3150.000000	88.736	14.6788
3200.000000	88.657	13.9692
3250.000000	88.677	13.1051
3300.000000	88.693	12.9869
3350.000000	88.617	12.2027
3400.000000	88.608	11.0658
3450.000000	88.592	10.3324
3500.000000	88.601	10.6381
3550.000000	88.602	9.6030
3600.000000	88.558	10.0329
3650.000000	88.486	8.8680
3700.000000	88.524	8.1309
3750.000000	88.426	8.6429
3820.000000	88.422	7.7288
3870.000000	88.417	8.0787
3950.000000	88.421	7.5639
4000.000000	88.201	6.9998
4060.000000	88.090	7.1809
4120.000000	88.248	6.3756
4180.000000	88.211	6.8688
4250.000000	88.182	6.9375
4310.000000	88.188	7.5011
4370.000000	88.095	6.0692
4440.000000	88.057	6.2881
4500.000000	88.038	6.3453
4550.000000	88.058	6.0292
4620.000000	88.154	6.5279
4680.000000	88.056	5.9951
4750.000000	88.128	6.4642
4820.000000	88.059	5.2031
4870.000000	88.138	5.1740
4940.000000	88.184	5.2193
5000.000000	88.280	4.4903
5080.000000	88.150	4.3490
5150.000000	88.110	4.0691
5220.000000	88.092	3.0597
5300.000000	87.951	2.5528
5380.000000	87.775	1.8530
5450.000000	87.883	1.8095
5520.000000	87.742	1.7639
5600.000000	87.776	1.5061
5700.000000	87.697	0.7124
5800.000000	87.720	-0.2201
5900.000000	87.742	-1.9929
6000.000000	87.639	-4.2176
6080.000000	87.372	-5.6944
6150.000000	87.092	-6.1464
6220.000000	86.921	-7.4690
6300.000000	86.836	-7.8483
6400.000000	86.724	-9.2923
6500.000000	86.367	-10.8457
6600.000000	86.211	-10.0060
6700.000000	86.092	-11.4425
6800.000000	85.972	-11.7949
6900.000000	85.731	-11.4416
7000.000000	85.448	-12.4001
7100.000000	85.434	-13.0743
7200.000000	85.428	-13.2926
7300.000000	85.384	-14.4724
7400.000000	85.207	-14.0442
7500.000000	85.253	-16.3261
7620.000000	85.255	-16.2857
7750.000000	85.071	-18.7599
7880.000000	85.031	-22.0251
8000.000000	85.124	-23.8323
8120.000000	84.475	-26.9478
8250.000000	83.685	-29.4838
8380.000000	82.756	-31.0841
8500.000000	81.935	-31.1291
8620.000000	80.809	-28.1981
8750.000000	80.167	-23.0491
8850.000000	79.696	-18.1480
9000.000000	79.523	-10.5368
9120.000000	79.825	-3.3459
9250.000000	80.370	1.5606
9380.000000	81.096	5.2630
9500.000000	81.963	5.6038
9620.000000	82.580	5.7510
9750.000000	83.362	2.9961
9880.000000	83.911	-1.3813
10000.000000	84.266	-5.1281
10150.000000	84.223	-10.5146
10300.000000	83.709	-16.2091
10440.000000	83.260	-18.4760
10600.000000	82.393	-20.0597
10750.000000	81.622	-21.2369
10900.000000	80.992	-19.2303
11060.000000	80.153	-17.5304
11200.000000	79.817	-14.7074
11380.000000	79.097	-10.1907
11500.000000	78.699	-8.3973
11720.000000	78.307	-2.1786
11800.000000	78.157	-0.1531
12060.000000	77.690	6.4984
12200.000000	77.366	10.7020
12410.000000	77.181	17.1919
12500.000000	77.166	20.4228
12650.000000	77.141	24.5195
12800.000000	77.188	28.3184
13150.000000	77.496	37.8555
13200.000000	77.606	39.8654
13400.000000	77.933	44.5728
13600.000000	78.451	49.2517
13800.000000	79.326	53.2487
14000.000000	80.071	56.7250
14300.000000	82.161	58.9870
14500.000000	83.879	59.1678
14750.000000	87.208	51.2107
15000.000000	90.719	24.3456
15250.000000	89.767	-18.8475
15500.000000	85.859	-40.1782
15750.000000	82.548	-46.9445
16000.000000	80.005	-48.3422
16250.000000	78.649	-45.8381
16500.000000	77.392	-43.4257
16750.000000	76.638	-38.5452
17000.000000	76.063	-34.1256
17250.000000	75.681	-28.4341
17500.000000	75.364	-22.4804
17750.000000	75.352	-17.4218
18000.000000	75.430	-10.4580
18250.000000	75.731	-5.4552
18500.000000	75.946	0.4239
18750.000000	76.590	4.9437
19000.000000	77.027	6.5435
19250.000000	77.398	7.7023
19500.000000	77.709	4.9745
19750.000000	77.020	0.7144
