* Measurement data measured by REW V5.30.9
* Source: Microphone (Realtek USB2.0 Audio), no input selected, L, volume: no control
* Format: 512k Log Swept Sine, 1 sweep at -12.0 dBFS with no timing reference
* Dated: 03 13, 24 5:36:44 AM
* REW Settings:
*  C-weighting compensation: Off
*  Target level: 75.0 dB
* Note: ; 
* Measurement: one L
* Smoothing: None
* Frequency Step: 1/48 octave
* Start Frequency: 1.000 Hz
*
* Freq(Hz)	SPL(dB)	Phase(degrees)
1.000000	46.722	-72.0631
1.015000	46.542	-72.9101
1.030000	46.365	-73.7609
1.044000	46.206	-74.5582
1.060000	46.029	-75.4709
1.075000	45.865	-76.3261
1.090000	45.701	-77.1787
1.106000	45.526	-78.0831
1.120000	45.370	-78.8683
1.138000	45.163	-79.8666
1.150000	45.020	-80.5236
1.172000	44.745	-81.7065
1.180000	44.639	-82.1287
1.206000	44.272	-83.4668
1.220000	44.057	-84.1631
1.241000	43.709	-85.1712
1.250000	43.549	-85.5888
1.265000	43.266	-86.2638
1.280000	42.963	-86.9109
1.315000	42.162	-88.3011
1.320000	42.037	-88.4849
1.340000	41.503	-89.1804
1.360000	40.896	-89.9297
1.380000	40.167	-91.0303
1.400000	39.331	-92.4190
1.430000	37.919	-94.8570
1.450000	36.901	-96.5954
1.475000	35.576	-98.7467
1.500000	34.229	-100.7195
1.525000	32.896	-102.3483
1.550000	31.617	-103.4676
1.575000	30.428	-103.9120
1.600000	29.368	-103.5161
1.625000	28.475	-102.1143
1.650000	27.787	-99.5412
1.675000	27.341	-95.6313
1.700000	27.161	-90.0221
1.725000	27.216	-82.2536
1.750000	27.473	-72.6534
1.775000	27.904	-61.5901
1.800000	28.479	-49.4322
1.825000	29.169	-36.5481
1.850000	29.944	-23.3066
1.875000	30.776	-10.0760
1.900000	31.635	2.7752
1.925000	32.491	14.8783
1.950000	33.315	25.8650
1.975000	34.079	35.3666
2.000000	34.752	43.0146
2.030000	35.415	49.3166
2.060000	36.037	53.1132
2.090000	36.653	54.9183
2.120000	37.260	55.0597
2.140000	37.657	54.3915
2.180000	38.430	51.6626
2.200000	38.804	49.7960
2.240000	39.519	45.5442
2.270000	40.023	42.2840
2.300000	40.495	39.3268
2.330000	40.933	37.0004
2.360000	41.331	35.6163
2.400000	41.794	34.2874
2.430000	42.093	33.2773
2.470000	42.439	31.9289
2.500000	42.665	30.9273
2.540000	42.933	29.6208
2.580000	43.173	28.3657
2.620000	43.398	27.1822
2.650000	43.565	26.3535
2.690000	43.794	25.3434
2.720000	43.965	24.6440
2.760000	44.171	23.7506
2.800000	44.356	22.9140
2.850000	44.566	21.9683
2.900000	44.761	21.1578
2.950000	44.952	20.5084
3.000000	45.147	20.0460
3.040000	45.311	19.8254
3.070000	45.433	19.7287
3.110000	45.591	19.6833
3.150000	45.745	19.7405
3.200000	45.937	19.9679
3.250000	46.134	20.3826
3.300000	46.341	20.9997
3.350000	46.563	21.8341
3.400000	46.803	22.9028
3.450000	47.053	24.2080
3.500000	47.314	25.7282
3.550000	47.585	27.4411
3.600000	47.867	29.3242
3.650000	48.161	31.3553
3.700000	48.467	33.5118
3.750000	48.787	35.8778
3.820000	49.260	39.6095
3.870000	49.612	42.4581
3.950000	50.191	47.0960
4.000000	50.557	49.9111
4.060000	50.998	53.0944
4.120000	51.449	56.2824
4.180000	51.909	59.4635
4.250000	52.451	63.0325
4.310000	52.914	65.8553
4.370000	53.370	68.3541
4.440000	53.896	70.8430
4.500000	54.346	72.6933
4.550000	54.719	74.0522
4.620000	55.234	75.6997
4.680000	55.667	76.8983
4.750000	56.161	78.0473
4.820000	56.645	78.8454
4.870000	56.984	79.2385
4.940000	57.452	79.6106
5.000000	57.844	79.8253
5.080000	58.354	80.0379
5.150000	58.789	80.0562
5.220000	59.213	79.9340
5.300000	59.686	79.6918
5.380000	60.150	79.4178
5.450000	60.547	79.1495
5.520000	60.934	78.8135
5.600000	61.368	78.3882
5.700000	61.900	77.8653
5.800000	62.422	77.3913
5.900000	62.933	76.9228
6.000000	63.435	76.4811
6.080000	63.834	76.1630
6.150000	64.179	75.9155
6.220000	64.521	75.6886
6.300000	64.908	75.4427
6.400000	65.388	75.1355
6.500000	65.863	74.8412
6.600000	66.334	74.5556
6.700000	66.798	74.2430
6.800000	67.256	73.8803
6.900000	67.708	73.4835
7.000000	68.152	73.0530
7.100000	68.589	72.5871
7.200000	69.017	72.0820
7.300000	69.437	71.5447
7.400000	69.848	70.9849
7.500000	70.249	70.3942
7.620000	70.719	69.6516
7.750000	71.214	68.8611
7.880000	71.694	68.0936
8.000000	72.126	67.4051
8.120000	72.548	66.7588
8.250000	72.994	66.1042
8.380000	73.430	65.4908
8.500000	73.827	64.9627
8.620000	74.216	64.4716
8.750000	74.631	63.9610
8.850000	74.947	63.5839
9.000000	75.413	63.0385
9.120000	75.779	62.5884
9.250000	76.170	62.0861
9.380000	76.553	61.5713
9.500000	76.898	61.0817
9.620000	77.236	60.5785
9.750000	77.594	60.0254
9.880000	77.940	59.4625
10.000000	78.252	58.9379
10.150000	78.630	58.2988
10.300000	78.994	57.6719
10.440000	79.326	57.1245
10.600000	79.695	56.5585
10.750000	80.035	56.0773
10.900000	80.372	55.6498
11.060000	80.728	55.2404
11.200000	81.042	54.9028
11.380000	81.447	54.4960
11.500000	81.719	54.2134
11.720000	82.220	53.6762
11.800000	82.401	53.4571
12.060000	82.986	52.6561
12.200000	83.292	52.1593
12.410000	83.738	51.3356
12.500000	83.921	50.9743
12.650000	84.217	50.3532
12.800000	84.500	49.7375
13.150000	85.094	48.3683
13.200000	85.142	48.1874
13.400000	85.259	47.5107
13.600000	85.324	46.9670
13.800000	85.357	46.5269
14.000000	85.409	46.1567
14.300000	85.512	45.6054
14.500000	85.592	45.2072
14.750000	85.690	44.6628
15.000000	85.783	44.0073
15.250000	85.866	43.2648
15.500000	85.933	42.4903
15.750000	85.971	41.8052
16.000000	86.001	41.2288
16.250000	86.036	40.7542
16.500000	86.084	40.3661
16.750000	86.140	40.0426
17.000000	86.212	39.6618
17.250000	86.295	39.1742
17.500000	86.377	38.5596
17.750000	86.436	37.8677
18.000000	86.476	37.1499
18.250000	86.498	36.4692
18.500000	86.509	35.8894
18.750000	86.510	35.4783
19.000000	86.525	35.1817
19.250000	86.561	34.9391
19.500000	86.619	34.6826
19.750000	86.687	34.3417
20.000000	86.760	33.8676
20.299999	86.842	33.1357
20.600000	86.901	32.3144
20.900000	86.931	31.5309
21.200001	86.948	30.8534
21.400000	86.959	30.4849
21.799999	86.989	29.9116
22.000000	87.016	29.6458
22.400000	87.087	29.0539
22.700001	87.141	28.5369
23.000000	87.188	27.9674
23.299999	87.226	27.3708
23.600000	87.253	26.8077
24.000000	87.279	26.1539
24.299999	87.298	25.7000
24.700001	87.320	25.1520
25.000000	87.333	24.7855
25.400000	87.354	24.3427
25.799999	87.382	23.9662
26.200001	87.426	23.5253
26.500000	87.460	23.0870
26.900000	87.479	22.3907
27.200001	87.468	21.8485
27.600000	87.420	21.3388
28.000000	87.370	21.2338
28.500000	87.392	21.4600
29.000000	87.522	21.3911
29.500000	87.678	20.4886
30.000000	87.742	19.0888
30.400000	87.721	18.0557
30.700001	87.684	17.5238
31.100000	87.649	17.1178
31.500000	87.658	16.8152
32.000000	87.702	16.2593
32.500000	87.732	15.4382
33.000000	87.719	14.7071
33.500000	87.702	14.2184
34.000000	87.708	13.8802
34.500000	87.737	13.4510
35.000000	87.755	12.9433
35.500000	87.763	12.4350
36.000000	87.765	12.0085
36.500000	87.775	11.5611
37.000000	87.782	11.0860
37.500000	87.786	10.5842
38.200001	87.786	9.9069
38.700001	87.788	9.3927
39.500000	87.777	8.5196
40.000000	87.760	8.0383
40.599998	87.750	7.5376
41.200001	87.749	7.0388
41.799999	87.746	6.5030
42.500000	87.733	5.9736
43.099998	87.734	5.6216
43.700001	87.749	5.1757
44.400002	87.744	4.5296
45.000000	87.713	4.0988
45.500000	87.694	3.8610
46.200001	87.692	3.4708
46.799999	87.678	2.9671
47.500000	87.628	2.5311
48.200001	87.611	2.3509
48.700001	87.634	2.0639
49.400002	87.638	1.3117
50.000000	87.590	0.7854
50.799999	87.554	0.6008
51.500000	87.595	0.3368
52.200001	87.623	-0.2994
53.000000	87.597	-0.9345
53.799999	87.579	-1.2125
54.500000	87.597	-1.4767
55.200001	87.608	-1.9729
56.000000	87.564	-2.5444
57.000000	87.512	-2.7388
58.000000	87.515	-3.3067
59.000000	87.435	-3.8825
60.000000	87.436	-4.3719
60.799999	87.360	-5.3942
61.500000	87.211	-5.4637
62.200001	87.209	-4.8459
63.000000	87.347	-5.2355
64.000000	87.324	-6.5678
65.000000	87.276	-6.8749
66.000000	87.280	-7.4724
67.000000	87.239	-7.8401
68.000000	87.235	-8.2165
69.000000	87.208	-8.6554
70.000000	87.182	-9.0914
71.000000	87.135	-9.5783
72.000000	87.089	-9.9122
73.000000	87.053	-10.2396
74.000000	87.026	-10.6061
75.000000	86.988	-10.9928
76.199997	86.952	-11.3712
77.500000	86.903	-11.8399
78.800003	86.862	-12.2349
80.000000	86.816	-12.6509
81.199997	86.780	-13.0277
82.500000	86.736	-13.4531
83.800003	86.701	-13.8366
85.000000	86.661	-14.2292
86.199997	86.611	-14.5635
87.500000	86.567	-14.8896
88.500000	86.524	-15.2019
90.000000	86.471	-15.5452
91.199997	86.429	-15.9253
92.500000	86.386	-16.2361
93.800003	86.338	-16.5763
95.000000	86.294	-16.7972
96.199997	86.251	-17.0542
97.500000	86.196	-17.3416
98.800003	86.148	-17.6124
100.000000	86.104	-17.8910
101.500000	86.059	-18.2358
103.000000	86.007	-18.5494
104.400002	85.953	-18.8313
106.000000	85.893	-19.1160
107.500000	85.833	-19.4546
109.000000	85.784	-19.7633
110.599998	85.738	-20.1052
112.000000	85.688	-20.2836
113.800003	85.623	-20.4835
115.000000	85.563	-20.6719
117.199997	85.457	-21.0833
118.000000	85.427	-21.1859
120.599998	85.373	-20.9681
122.000000	85.329	-21.5529
124.099998	85.754	-21.2047
125.000000	85.403	-23.2562
126.500000	85.237	-21.3544
128.000000	85.057	-21.8850
131.500000	85.027	-22.1385
132.000000	85.019	-22.2348
134.000000	84.996	-22.2682
136.000000	84.962	-22.2132
138.000000	84.893	-22.5493
140.000000	84.856	-22.6947
143.000000	84.799	-23.2038
145.000000	84.752	-23.3940
147.500000	84.686	-23.7280
150.000000	84.619	-23.8852
152.500000	84.541	-24.0740
155.000000	84.462	-24.2647
157.500000	84.386	-24.4471
160.000000	84.337	-24.6291
162.500000	84.247	-24.7478
165.000000	84.160	-24.8198
167.500000	84.078	-24.9785
170.000000	83.998	-25.0776
172.500000	83.909	-25.1593
175.000000	83.829	-25.2252
177.500000	83.743	-25.2937
180.000000	83.664	-25.4561
182.500000	83.587	-25.4388
185.000000	83.494	-25.3600
187.500000	83.441	-25.4589
190.000000	83.351	-25.4687
192.500000	83.273	-25.5520
195.000000	83.202	-25.5196
197.500000	83.124	-25.5640
200.000000	83.054	-25.5785
203.000000	82.975	-25.5080
206.000000	82.906	-25.5564
209.000000	82.837	-25.4341
212.000000	82.773	-25.4451
214.000000	82.718	-25.4504
218.000000	82.634	-25.4024
220.000000	82.585	-25.3824
224.000000	82.494	-25.2294
227.000000	82.421	-25.1214
230.000000	82.360	-25.0309
233.000000	82.291	-24.9298
236.000000	82.214	-24.8542
240.000000	82.137	-24.6063
243.000000	82.060	-24.4287
247.000000	81.950	-24.3424
250.000000	81.902	-24.0125
254.000000	81.821	-23.6135
258.000000	81.740	-23.2152
262.000000	81.685	-22.5097
265.000000	81.637	-22.1578
269.000000	81.616	-21.6255
272.000000	81.615	-21.3260
276.000000	81.612	-21.0176
280.000000	81.624	-20.9601
285.000000	81.611	-20.9793
290.000000	81.573	-21.0811
295.000000	81.522	-21.1385
300.000000	81.463	-21.2450
304.000000	81.405	-21.2810
307.000000	81.372	-21.2014
311.000000	81.338	-21.0442
315.000000	81.240	-21.0311
320.000000	81.158	-20.9212
325.000000	81.069	-20.8265
330.000000	81.005	-20.5751
335.000000	80.932	-20.3019
340.000000	80.853	-20.0554
345.000000	80.780	-19.8563
350.000000	80.707	-19.4964
355.000000	80.654	-19.2155
360.000000	80.604	-18.7822
365.000000	80.545	-18.6525
370.000000	80.520	-18.2445
375.000000	80.439	-18.0106
382.000000	80.400	-17.6463
387.000000	80.358	-17.2750
395.000000	80.287	-16.8553
400.000000	80.249	-16.6560
406.000000	80.197	-16.3342
412.000000	80.137	-16.0469
418.000000	80.095	-15.7516
425.000000	80.024	-15.4153
431.000000	79.997	-14.7894
437.000000	79.930	-14.7874
444.000000	79.873	-14.3276
450.000000	79.829	-14.0862
455.000000	79.792	-13.7119
462.000000	79.737	-13.3341
468.000000	79.691	-12.9682
475.000000	79.645	-12.5528
482.000000	79.589	-12.1125
487.000000	79.559	-11.7889
494.000000	79.503	-11.3489
500.000000	79.480	-11.0397
508.000000	79.438	-10.5119
515.000000	79.398	-10.0912
522.000000	79.361	-9.6844
530.000000	79.322	-9.1632
538.000000	79.276	-8.6395
545.000000	79.241	-8.2739
552.000000	79.208	-7.7933
560.000000	79.175	-7.3491
570.000000	79.129	-6.6600
580.000000	79.088	-6.0999
590.000000	79.052	-5.4189
600.000000	79.017	-4.7947
608.000000	78.991	-4.2541
615.000000	78.970	-3.7663
622.000000	78.947	-3.4156
630.000000	78.932	-2.8202
640.000000	78.912	-2.2142
650.000000	78.892	-1.5395
660.000000	78.868	-0.8769
670.000000	78.848	-0.2539
680.000000	78.835	0.4549
690.000000	78.812	1.0955
700.000000	78.808	1.7159
710.000000	78.797	2.4065
720.000000	78.787	3.0966
730.000000	78.782	3.8152
740.000000	78.777	4.4096
750.000000	78.790	5.1361
762.000000	78.787	5.9564
775.000000	78.796	6.8378
788.000000	78.810	7.7407
800.000000	78.819	8.5566
812.000000	78.843	9.3562
825.000000	78.869	10.2541
838.000000	78.896	11.1545
850.000000	78.921	11.9775
862.000000	78.964	12.7508
875.000000	79.007	13.6605
885.000000	79.040	14.2853
900.000000	79.099	15.2805
912.000000	79.161	16.0085
925.000000	79.224	16.7843
938.000000	79.282	17.5993
950.000000	79.353	18.3296
962.000000	79.429	18.9509
975.000000	79.513	19.6958
988.000000	79.590	20.3882
1000.000000	79.674	20.9853
1015.000000	79.775	21.6728
1030.000000	79.878	22.3268
1044.000000	79.984	22.9153
1060.000000	80.101	23.4942
1075.000000	80.219	23.9892
1090.000000	80.330	24.4925
1106.000000	80.460	24.9414
1120.000000	80.569	25.3139
1138.000000	80.697	25.7710
1150.000000	80.783	25.9968
1172.000000	80.935	26.4206
1180.000000	80.992	26.5403
1206.000000	81.162	26.9410
1220.000000	81.244	27.1155
1241.000000	81.374	27.4245
1250.000000	81.424	27.4926
1265.000000	81.512	27.7593
1280.000000	81.600	27.9251
1315.000000	81.818	28.4649
1320.000000	81.839	28.5423
1340.000000	81.956	28.8240
1360.000000	82.083	29.2112
1380.000000	82.241	29.5453
1400.000000	82.416	29.7235
1430.000000	82.644	29.7977
1450.000000	82.769	29.7768
1475.000000	82.906	29.7690
1500.000000	83.027	29.8154
1525.000000	83.146	29.8780
1550.000000	83.268	29.9378
1575.000000	83.388	29.9537
1600.000000	83.497	30.0511
1625.000000	83.599	30.1170
1650.000000	83.705	30.2395
1675.000000	83.818	30.2778
1700.000000	83.919	30.4056
1725.000000	84.023	30.4891
1750.000000	84.141	30.5832
1775.000000	84.261	30.6398
1800.000000	84.379	30.7457
1825.000000	84.495	30.7899
1850.000000	84.611	30.8891
1875.000000	84.732	30.9272
1900.000000	84.857	30.9611
1925.000000	84.973	30.9499
1950.000000	85.092	31.0099
1975.000000	85.214	30.9520
2000.000000	85.335	30.9354
2030.000000	85.491	30.8763
2060.000000	85.641	30.7819
2090.000000	85.797	30.6513
2120.000000	85.951	30.5225
2140.000000	86.050	30.4043
2180.000000	86.255	30.1611
2200.000000	86.357	29.9755
2240.000000	86.557	29.6230
2270.000000	86.705	29.3283
2300.000000	86.852	28.9813
2330.000000	86.996	28.6141
2360.000000	87.134	28.1898
2400.000000	87.321	27.6174
2430.000000	87.451	27.1434
2470.000000	87.623	26.4836
2500.000000	87.744	25.9345
2540.000000	87.910	25.1643
2580.000000	88.056	24.3325
2620.000000	88.207	23.4935
2650.000000	88.298	22.8433
2690.000000	88.417	22.0625
2720.000000	88.525	21.3442
2760.000000	88.642	20.6958
2800.000000	88.770	19.5964
2850.000000	88.882	18.5607
2900.000000	88.973	17.0099
2950.000000	89.077	15.9617
3000.000000	89.097	14.5707
3040.000000	89.105	13.8620
3070.000000	89.169	13.0729
3110.000000	89.163	12.4346
3150.000000	89.166	11.2067
3200.000000	89.070	10.4964
3250.000000	89.081	9.5977
3300.000000	89.086	9.4233
3350.000000	88.992	8.6198
3400.000000	88.968	7.4250
3450.000000	88.924	6.6497
3500.000000	88.916	6.8421
3550.000000	88.889	5.8102
3600.000000	88.819	6.2827
3650.000000	88.721	5.2120
3700.000000	88.740	4.4984
3750.000000	88.628	5.1345
3820.000000	88.602	4.2549
3870.000000	88.578	4.7158
3950.000000	88.561	4.3721
4000.000000	88.331	3.9390
4060.000000	88.221	4.2616
4120.000000	88.377	3.5450
4180.000000	88.342	4.1049
4250.000000	88.323	4.2092
4310.000000	88.331	4.8191
4370.000000	88.234	3.4480
4440.000000	88.198	3.7257
4500.000000	88.167	3.8023
4550.000000	88.181	3.5490
4620.000000	88.294	4.1304
4680.000000	88.197	3.6321
4750.000000	88.276	4.1927
4820.000000	88.216	2.9892
4870.000000	88.297	2.9876
4940.000000	88.352	3.0544
5000.000000	88.449	2.3769
5080.000000	88.327	2.2644
5150.000000	88.286	2.2006
5220.000000	88.300	1.4739
5300.000000	88.246	1.1521
5380.000000	88.172	0.2141
5450.000000	88.352	-0.2443
5520.000000	88.270	-1.0012
5600.000000	88.297	-2.3292
5700.000000	88.059	-4.1731
5800.000000	87.894	-4.8916
5900.000000	87.847	-5.9939
6000.000000	87.758	-7.7459
6080.000000	87.521	-8.9670
6150.000000	87.267	-9.2619
6220.000000	87.116	-10.5083
6300.000000	87.050	-10.9034
6400.000000	86.984	-12.3581
6500.000000	86.656	-14.0019
6600.000000	86.539	-13.2237
6700.000000	86.456	-14.7560
6800.000000	86.376	-15.2853
6900.000000	86.179	-15.0226
7000.000000	85.941	-16.1946
7100.000000	85.972	-17.1511
7200.000000	86.010	-17.5633
7300.000000	86.032	-19.0867
7400.000000	85.924	-19.0144
7500.000000	86.026	-21.7263
7620.000000	86.104	-22.3893
7750.000000	85.985	-25.7183
7880.000000	86.013	-30.0138
8000.000000	86.119	-32.9101
8120.000000	85.509	-37.3130
8250.000000	84.753	-41.5075
8380.000000	83.776	-44.9881
8500.000000	82.884	-47.2852
8620.000000	81.599	-46.9425
8750.000000	80.576	-44.7739
8850.000000	79.649	-41.6445
9000.000000	78.617	-35.3884
9120.000000	78.163	-27.2800
9250.000000	78.007	-19.5433
9380.000000	78.225	-11.5798
9500.000000	78.815	-6.6603
9620.000000	79.389	-2.1414
9750.000000	80.301	-0.6595
9880.000000	81.139	-1.6937
10000.000000	81.846	-3.2870
10150.000000	82.260	-7.4455
10300.000000	82.110	-13.1059
10440.000000	81.877	-15.6589
10600.000000	81.187	-17.5244
10750.000000	80.513	-18.9832
10900.000000	79.962	-17.3856
11060.000000	79.185	-15.8776
11200.000000	78.862	-13.3586
11380.000000	78.142	-9.0413
11500.000000	77.729	-7.2423
11720.000000	77.332	-0.9157
11800.000000	77.157	1.3058
12060.000000	76.693	7.9314
12200.000000	76.338	12.2720
12410.000000	76.147	19.0726
12500.000000	76.087	22.3420
12650.000000	76.010	26.7237
12800.000000	76.015	30.8604
13150.000000	76.321	41.6434
13200.000000	76.452	43.6100
13400.000000	76.799	48.7551
13600.000000	77.349	53.6191
13800.000000	78.195	57.7021
14000.000000	78.857	61.4192
14300.000000	80.822	64.3995
14500.000000	82.453	65.4271
14750.000000	85.639	59.7351
15000.000000	89.324	37.1898
15250.000000	89.214	-6.2198
15500.000000	85.382	-30.0872
15750.000000	81.975	-36.5748
16000.000000	79.560	-37.2918
16250.000000	78.388	-34.2610
16500.000000	77.375	-31.7126
16750.000000	76.877	-27.3662
17000.000000	76.518	-23.9482
17250.000000	76.249	-19.4889
17500.000000	75.935	-14.7412
17750.000000	75.950	-9.8361
18000.000000	76.112	-2.4414
18250.000000	76.511	2.4856
18500.000000	77.007	8.3601
18750.000000	78.003	12.0467
19000.000000	78.875	11.5417
19250.000000	79.515	8.7625
19500.000000	79.854	0.9300
19750.000000	78.771	-8.8153
