* Measurement data measured by REW V5.30.9
* Source: Microphone (Realtek USB2.0 Audio), MICROPHONE (Master Volume), L, volume: 0.500
* Format: 512k Log Swept Sine, 1 sweep at -12.0 dBFS with no timing reference
* Dated: 04 17, 24 8:13:00 AM
* REW Settings:
*  C-weighting compensation: Off
*  Target level: 75.0 dB
* Note: ; 
* Measurement: pacefm R
* Smoothing: None
* Frequency Step: 1/48 octave
* Start Frequency: 1.000 Hz
*
* Freq(Hz)	SPL(dB)	Phase(degrees)
1.000000	48.947	-46.4065
1.015000	48.741	-46.6502
1.030000	48.529	-46.9420
1.044000	48.325	-47.2645
1.060000	48.084	-47.6785
1.075000	47.853	-48.0974
1.090000	47.615	-48.5331
1.106000	47.355	-49.0017
1.120000	47.123	-49.4030
1.138000	46.817	-49.8896
1.150000	46.609	-50.1855
1.172000	46.220	-50.6442
1.180000	46.076	-50.7778
1.206000	45.600	-51.0577
1.220000	45.338	-51.0939
1.241000	44.939	-50.9692
1.250000	44.766	-50.8425
1.265000	44.475	-50.5235
1.280000	44.180	-50.0583
1.315000	43.481	-48.3329
1.320000	43.380	-48.0063
1.340000	42.973	-46.4803
1.360000	42.548	-44.5618
1.380000	42.067	-42.2051
1.400000	41.539	-39.4529
1.430000	40.682	-34.6862
1.450000	40.081	-31.1514
1.475000	39.317	-26.4140
1.500000	38.556	-21.4079
1.525000	37.819	-16.2252
1.550000	37.127	-10.9576
1.575000	36.499	-5.6971
1.600000	35.957	-0.5355
1.625000	35.520	4.4351
1.650000	35.209	9.1230
1.675000	35.044	13.4362
1.700000	35.046	17.4377
1.725000	35.211	21.4950
1.750000	35.519	25.5906
1.775000	35.947	29.6815
1.800000	36.474	33.7247
1.825000	37.077	37.6773
1.850000	37.734	41.4962
1.875000	38.424	45.1386
1.900000	39.123	48.5614
1.925000	39.810	51.7217
1.950000	40.464	54.5764
1.975000	41.061	57.0827
2.000000	41.580	59.1975
2.030000	42.078	61.1564
2.060000	42.518	62.4471
2.090000	42.926	63.1404
2.120000	43.306	63.3223
2.140000	43.544	63.2018
2.180000	43.987	62.4953
2.200000	44.194	61.9602
2.240000	44.583	60.6534
2.270000	44.854	59.5666
2.300000	45.111	58.4837
2.330000	45.357	57.4908
2.360000	45.593	56.6689
2.400000	45.875	55.5669
2.430000	46.058	54.6298
2.470000	46.272	53.2504
2.500000	46.413	52.1301
2.540000	46.581	50.5395
2.580000	46.734	48.8582
2.620000	46.879	47.1076
2.650000	46.988	45.7624
2.690000	47.138	43.9430
2.720000	47.250	42.5345
2.760000	47.383	40.5415
2.800000	47.503	38.4453
2.850000	47.641	35.7269
2.900000	47.777	32.9557
2.950000	47.921	30.1921
3.000000	48.084	27.4965
3.040000	48.233	25.4194
3.070000	48.353	23.8291
3.110000	48.518	21.6486
3.150000	48.689	19.4464
3.200000	48.915	16.7415
3.250000	49.153	14.1833
3.300000	49.404	11.8721
3.350000	49.669	9.9083
3.400000	49.951	8.3114
3.450000	50.256	6.9234
3.500000	50.578	5.7679
3.550000	50.910	4.8811
3.600000	51.246	4.2995
3.650000	51.580	4.0594
3.700000	51.905	4.1972
3.750000	52.225	4.7708
3.820000	52.676	6.2711
3.870000	52.998	7.7426
3.950000	53.503	10.5895
4.000000	53.808	12.5639
4.060000	54.160	15.0426
4.120000	54.493	17.8577
4.180000	54.813	20.9785
4.250000	55.177	24.8462
4.310000	55.489	28.2191
4.370000	55.808	31.5188
4.440000	56.177	35.3311
4.500000	56.486	38.6744
4.550000	56.746	41.4703
4.620000	57.125	45.3328
4.680000	57.475	48.5332
4.750000	57.923	52.1040
4.820000	58.401	55.6252
4.870000	58.759	58.0773
4.940000	59.284	61.3532
5.000000	59.755	63.9546
5.080000	60.415	67.0457
5.150000	61.036	69.4675
5.220000	61.685	71.6347
5.300000	62.441	73.7765
5.380000	63.191	75.5351
5.450000	63.843	76.7171
5.520000	64.503	77.5722
5.600000	65.254	78.2301
5.700000	66.164	78.7117
5.800000	67.030	78.8557
5.900000	67.864	78.5745
6.000000	68.661	78.0360
6.080000	69.265	77.5292
6.150000	69.769	76.9847
6.220000	70.253	76.3434
6.300000	70.782	75.5345
6.400000	71.408	74.4822
6.500000	71.992	73.3725
6.600000	72.536	72.1898
6.700000	73.047	70.9813
6.800000	73.527	69.7692
6.900000	73.971	68.5268
7.000000	74.387	67.2904
7.100000	74.782	66.0966
7.200000	75.150	64.9300
7.300000	75.497	63.7949
7.400000	75.828	62.7087
7.500000	76.145	61.6715
7.620000	76.505	60.4878
7.750000	76.881	59.3067
7.880000	77.243	58.2443
8.000000	77.567	57.3546
8.120000	77.886	56.5398
8.250000	78.226	55.7508
8.380000	78.560	55.0364
8.500000	78.865	54.4256
8.620000	79.166	53.8693
8.750000	79.487	53.3128
8.850000	79.731	52.9149
9.000000	80.090	52.3685
9.120000	80.374	51.9640
9.250000	80.676	51.5558
9.380000	80.975	51.1865
9.500000	81.250	50.8872
9.620000	81.523	50.6268
9.750000	81.820	50.3767
9.880000	82.121	50.1611
10.000000	82.401	49.9881
10.150000	82.757	49.7743
10.300000	83.121	49.5700
10.440000	83.465	49.3614
10.600000	83.867	49.0954
10.750000	84.247	48.8045
10.900000	84.626	48.4499
11.060000	85.030	48.0107
11.200000	85.377	47.5706
11.380000	85.813	46.9346
11.500000	86.095	46.4897
11.720000	86.592	45.6272
11.800000	86.766	45.3156
12.060000	87.305	44.3078
12.200000	87.580	43.7974
12.410000	87.975	43.0816
12.500000	88.140	42.8085
12.650000	88.407	42.3976
12.800000	88.669	42.0298
13.150000	89.247	41.3201
13.200000	89.297	41.2281
13.400000	89.427	40.8865
13.600000	89.510	40.6003
13.800000	89.562	40.3498
14.000000	89.626	40.1032
14.300000	89.732	39.6996
14.500000	89.806	39.4134
14.750000	89.889	39.0680
15.000000	89.972	38.6766
15.250000	90.057	38.2179
15.500000	90.139	37.6956
15.750000	90.203	37.1612
16.000000	90.259	36.5943
16.250000	90.311	36.0095
16.500000	90.357	35.4338
16.750000	90.388	34.9328
17.000000	90.421	34.4793
17.250000	90.462	34.0516
17.500000	90.513	33.6283
17.750000	90.565	33.1960
18.000000	90.624	32.6879
18.250000	90.686	32.0871
18.500000	90.744	31.3946
18.750000	90.782	30.6621
19.000000	90.806	29.9185
19.250000	90.819	29.2024
19.500000	90.823	28.5552
19.750000	90.817	28.0225
20.000000	90.817	27.5706
20.299999	90.829	27.0967
20.600000	90.853	26.6509
20.900000	90.882	26.1947
21.200001	90.916	25.6862
21.400000	90.937	25.3332
21.799999	90.965	24.6803
22.000000	90.978	24.3857
22.400000	91.010	23.8538
22.700001	91.040	23.4899
23.000000	91.077	23.0992
23.299999	91.117	22.6353
23.600000	91.150	22.1221
24.000000	91.172	21.4438
24.299999	91.183	20.9684
24.700001	91.192	20.4335
25.000000	91.202	20.0663
25.400000	91.225	19.5131
25.799999	91.235	18.8960
26.200001	91.226	18.2783
26.500000	91.207	17.9065
26.900000	91.180	17.6122
27.200001	91.180	17.4808
27.600000	91.212	17.2808
28.000000	91.262	16.8964
28.500000	91.312	16.0725
29.000000	91.304	15.2046
29.500000	91.266	14.5996
30.000000	91.243	14.3178
30.400000	91.261	14.1202
30.700001	91.286	13.9141
31.100000	91.325	13.5143
31.500000	91.360	12.9833
32.000000	91.384	12.2401
32.500000	91.387	11.4241
33.000000	91.355	10.6637
33.500000	91.300	10.0707
34.000000	91.243	9.7983
34.500000	91.228	9.7203
35.000000	91.257	9.5907
35.500000	91.307	9.1746
36.000000	91.335	8.5599
36.500000	91.331	7.9081
37.000000	91.307	7.4137
37.500000	91.290	7.0582
38.200001	91.285	6.6511
38.700001	91.291	6.3309
39.500000	91.299	5.7614
40.000000	91.298	5.3873
40.599998	91.291	4.9234
41.200001	91.275	4.4939
41.799999	91.258	4.0887
42.500000	91.236	3.5900
43.099998	91.205	3.1583
43.700001	91.168	2.7930
44.400002	91.138	2.4726
45.000000	91.128	2.1531
45.500000	91.120	1.8039
46.200001	91.097	1.3128
46.799999	91.076	0.9551
47.500000	91.061	0.5565
48.200001	91.047	0.1141
48.700001	91.031	-0.2060
49.400002	91.002	-0.5884
50.000000	90.979	-0.8604
50.799999	90.954	-1.2320
51.500000	90.926	-1.5480
52.200001	90.901	-1.8010
53.000000	90.884	-2.1684
53.799999	90.850	-2.6209
54.500000	90.815	-2.8765
55.200001	90.804	-3.1254
56.000000	90.785	-3.5861
57.000000	90.739	-3.9996
58.000000	90.714	-4.4048
59.000000	90.660	-4.7060
60.000000	90.656	-4.9492
60.799999	90.619	-5.4703
61.500000	90.549	-5.5962
62.200001	90.536	-5.4830
63.000000	90.568	-5.8343
64.000000	90.514	-6.5972
65.000000	90.450	-6.7852
66.000000	90.441	-7.1243
67.000000	90.399	-7.4763
68.000000	90.375	-7.7432
69.000000	90.329	-8.0466
70.000000	90.297	-8.1209
71.000000	90.275	-8.5138
72.000000	90.207	-8.6967
73.000000	90.196	-8.8292
74.000000	90.160	-9.3120
75.000000	90.100	-9.5212
76.199997	90.076	-9.7703
77.500000	90.021	-10.1628
78.800003	89.979	-10.2203
80.000000	89.961	-10.5577
81.199997	89.889	-10.7635
82.500000	89.852	-10.8343
83.800003	89.803	-11.1364
85.000000	89.743	-11.3207
86.199997	89.691	-11.4581
87.500000	89.642	-11.5784
88.500000	89.611	-11.6748
90.000000	89.576	-11.8762
91.199997	89.547	-12.1560
92.500000	89.489	-12.4215
93.800003	89.444	-12.5408
95.000000	89.410	-12.7067
96.199997	89.369	-12.8462
97.500000	89.332	-13.0001
98.800003	89.282	-13.1107
100.000000	89.250	-13.1394
101.500000	89.211	-13.2691
103.000000	89.164	-13.3819
104.400002	89.123	-13.4450
106.000000	89.062	-13.5737
107.500000	89.031	-13.6349
109.000000	88.968	-13.7462
110.599998	88.946	-13.9132
112.000000	88.879	-13.9025
113.800003	88.845	-14.0763
115.000000	88.813	-13.9966
117.199997	88.755	-13.9601
118.000000	88.750	-14.2144
120.599998	88.694	-14.1489
122.000000	88.585	-14.2488
124.099998	88.500	-14.0827
125.000000	88.522	-13.9165
126.500000	88.479	-14.3080
128.000000	88.445	-14.3139
131.500000	88.362	-14.2967
132.000000	88.356	-14.2601
134.000000	88.311	-14.4108
136.000000	88.273	-14.2256
138.000000	88.220	-14.2120
140.000000	88.179	-14.2955
143.000000	88.121	-14.2077
145.000000	88.087	-14.0051
147.500000	88.051	-13.9538
150.000000	87.974	-13.8266
152.500000	87.953	-13.7353
155.000000	87.885	-13.5758
157.500000	87.853	-13.3906
160.000000	87.793	-13.3860
162.500000	87.746	-13.2292
165.000000	87.707	-12.9352
167.500000	87.662	-12.7469
170.000000	87.627	-12.5688
172.500000	87.582	-12.5143
175.000000	87.546	-12.3763
177.500000	87.517	-12.3673
180.000000	87.482	-12.0311
182.500000	87.471	-11.9904
185.000000	87.423	-11.9302
187.500000	87.379	-11.6751
190.000000	87.393	-11.6082
192.500000	87.361	-11.6185
195.000000	87.331	-11.5755
197.500000	87.314	-11.5130
200.000000	87.291	-11.5118
203.000000	87.258	-11.5205
206.000000	87.234	-11.5264
209.000000	87.205	-11.4692
212.000000	87.182	-11.4692
214.000000	87.182	-11.3549
218.000000	87.148	-11.1683
220.000000	87.119	-11.0433
224.000000	87.067	-11.0339
227.000000	87.035	-10.9316
230.000000	87.010	-10.9194
233.000000	86.974	-10.7354
236.000000	86.952	-10.6734
240.000000	86.910	-10.5663
243.000000	86.878	-10.4592
247.000000	86.845	-10.2060
250.000000	86.824	-10.2447
254.000000	86.804	-10.0180
258.000000	86.761	-9.8473
262.000000	86.730	-9.7367
265.000000	86.708	-9.6121
269.000000	86.677	-9.4462
272.000000	86.654	-9.2802
276.000000	86.611	-9.0685
280.000000	86.578	-8.8637
285.000000	86.535	-8.5266
290.000000	86.490	-8.3567
295.000000	86.463	-8.0409
300.000000	86.436	-7.8689
304.000000	86.415	-7.6616
307.000000	86.391	-7.4660
311.000000	86.371	-7.3533
315.000000	86.359	-7.0402
320.000000	86.335	-6.8281
325.000000	86.293	-6.6539
330.000000	86.266	-6.4195
335.000000	86.243	-6.2110
340.000000	86.216	-5.9733
345.000000	86.187	-5.7182
350.000000	86.170	-5.4736
355.000000	86.143	-5.2414
360.000000	86.124	-4.9751
365.000000	86.096	-4.7742
370.000000	86.089	-4.4688
375.000000	86.060	-4.2393
382.000000	86.046	-3.8944
387.000000	86.032	-3.6964
395.000000	86.008	-3.3450
400.000000	85.998	-3.0517
406.000000	85.977	-2.8054
412.000000	85.959	-2.5311
418.000000	85.951	-2.2646
425.000000	85.931	-1.9614
431.000000	85.916	-1.5947
437.000000	85.918	-1.4319
444.000000	85.883	-1.1061
450.000000	85.872	-0.8779
455.000000	85.861	-0.6648
462.000000	85.844	-0.3286
468.000000	85.825	-0.0929
475.000000	85.811	0.1373
482.000000	85.799	0.4331
487.000000	85.787	0.6190
494.000000	85.782	0.9770
500.000000	85.772	1.1999
508.000000	85.765	1.5220
515.000000	85.764	1.8220
522.000000	85.764	2.1071
530.000000	85.758	2.4293
538.000000	85.753	2.7420
545.000000	85.748	3.0399
552.000000	85.737	3.3649
560.000000	85.720	3.7074
570.000000	85.713	4.1410
580.000000	85.703	4.5564
590.000000	85.701	4.9613
600.000000	85.690	5.4124
608.000000	85.685	5.7447
615.000000	85.683	6.0892
622.000000	85.680	6.3397
630.000000	85.680	6.7513
640.000000	85.676	7.1655
650.000000	85.675	7.5629
660.000000	85.678	8.0042
670.000000	85.680	8.4811
680.000000	85.683	8.9293
690.000000	85.687	9.3214
700.000000	85.705	9.8202
710.000000	85.703	10.2698
720.000000	85.702	10.7681
730.000000	85.716	11.2064
740.000000	85.724	11.6379
750.000000	85.732	12.1019
762.000000	85.743	12.6771
775.000000	85.754	13.2390
788.000000	85.780	13.8599
800.000000	85.799	14.4369
812.000000	85.821	15.0218
825.000000	85.850	15.5895
838.000000	85.881	16.1775
850.000000	85.909	16.7400
862.000000	85.937	17.3308
875.000000	85.969	17.8990
885.000000	85.999	18.3206
900.000000	86.032	19.0197
912.000000	86.048	19.7184
925.000000	86.091	20.9000
938.000000	86.308	21.6823
950.000000	86.419	21.5135
962.000000	86.478	21.5132
975.000000	86.520	21.4205
988.000000	86.443	21.3783
1000.000000	86.404	22.7696
1015.000000	86.555	23.8535
1030.000000	86.689	24.3778
1044.000000	86.786	24.7300
1060.000000	86.897	25.1331
1075.000000	86.993	25.4874
1090.000000	87.084	25.7813
1106.000000	87.180	26.1031
1120.000000	87.257	26.3548
1138.000000	87.366	26.6338
1150.000000	87.441	26.7899
1172.000000	87.582	27.0838
1180.000000	87.630	27.1549
1206.000000	87.779	27.3903
1220.000000	87.848	27.5270
1241.000000	87.961	27.6623
1250.000000	88.001	27.7416
1265.000000	88.079	27.8068
1280.000000	88.158	27.9259
1315.000000	88.324	28.0836
1320.000000	88.347	28.1087
1340.000000	88.437	28.1591
1360.000000	88.521	28.2473
1380.000000	88.611	28.3040
1400.000000	88.702	28.3768
1430.000000	88.846	28.4675
1450.000000	88.935	28.5285
1475.000000	89.050	28.6094
1500.000000	89.155	28.6576
1525.000000	89.261	28.7195
1550.000000	89.368	28.6796
1575.000000	89.475	28.7219
1600.000000	89.581	28.6956
1625.000000	89.681	28.7460
1650.000000	89.774	28.7408
1675.000000	89.878	28.6961
1700.000000	89.973	28.6988
1725.000000	90.073	28.6012
1750.000000	90.167	28.5367
1775.000000	90.264	28.4554
1800.000000	90.363	28.3477
1825.000000	90.453	28.1982
1850.000000	90.549	28.0432
1875.000000	90.644	27.8186
1900.000000	90.737	27.6213
1925.000000	90.830	27.3769
1950.000000	90.922	27.1115
1975.000000	91.006	26.8493
2000.000000	91.092	26.5665
2030.000000	91.193	26.1496
2060.000000	91.298	25.7325
2090.000000	91.392	25.2643
2120.000000	91.485	24.7789
2140.000000	91.544	24.4626
2180.000000	91.645	23.7433
2200.000000	91.686	23.3787
2240.000000	91.765	22.6165
2270.000000	91.819	22.0821
2300.000000	91.871	21.4717
2330.000000	91.909	20.9268
2360.000000	91.938	20.3584
2400.000000	91.964	19.6197
2430.000000	91.983	19.0580
2470.000000	91.997	18.3520
2500.000000	91.998	17.8215
2540.000000	91.999	17.1995
2580.000000	91.982	16.5698
2620.000000	91.969	16.0328
2650.000000	91.936	15.6488
2690.000000	91.881	15.3216
2720.000000	91.862	14.9327
2760.000000	91.822	14.7944
2800.000000	91.782	14.4141
2850.000000	91.701	14.3557
2900.000000	91.627	13.9744
2950.000000	91.586	14.1947
3000.000000	91.486	14.0834
3040.000000	91.416	14.4417
3070.000000	91.428	14.4871
3110.000000	91.366	14.8821
3150.000000	91.326	14.7437
3200.000000	91.187	15.3707
3250.000000	91.166	15.7531
3300.000000	91.155	16.9141
3350.000000	91.065	17.3491
3400.000000	91.043	17.4122
3450.000000	91.026	17.8513
3500.000000	91.043	19.3153
3550.000000	91.067	19.4591
3600.000000	91.053	21.1469
3650.000000	91.028	21.1935
3700.000000	91.125	21.6241
3750.000000	91.106	23.3547
3820.000000	91.239	23.9776
3870.000000	91.344	25.3910
3950.000000	91.559	26.4723
4000.000000	91.489	26.8444
4060.000000	91.575	28.0123
4120.000000	91.944	28.1019
4180.000000	92.134	29.3434
4250.000000	92.393	30.1391
4310.000000	92.661	31.1462
4370.000000	92.832	30.0413
4440.000000	93.119	30.4145
4500.000000	93.388	30.3920
4550.000000	93.651	29.9122
4620.000000	94.112	29.8770
4680.000000	94.324	28.5880
4750.000000	94.752	27.9076
4820.000000	95.031	25.0563
4870.000000	95.342	23.6629
4940.000000	95.685	21.4292
5000.000000	95.985	18.4298
5080.000000	96.059	14.8913
5150.000000	96.109	11.4300
5220.000000	96.087	7.1902
5300.000000	95.840	3.0856
5380.000000	95.460	-0.9856
5450.000000	95.317	-3.6422
5520.000000	94.879	-6.0659
5600.000000	94.464	-8.7793
5700.000000	93.660	-11.3752
5800.000000	92.939	-11.7737
5900.000000	92.395	-11.6348
6000.000000	91.915	-11.4165
6080.000000	91.453	-10.7881
6150.000000	91.071	-9.4891
6220.000000	90.826	-9.3085
6300.000000	90.666	-8.1147
6400.000000	90.486	-7.5234
6500.000000	90.081	-6.8585
6600.000000	89.927	-3.7182
6700.000000	89.856	-2.7894
6800.000000	89.841	-0.8383
6900.000000	89.769	1.7492
7000.000000	89.701	2.8986
7100.000000	89.949	4.1271
7200.000000	90.233	5.6285
7300.000000	90.533	5.8753
7400.000000	90.725	7.5360
7500.000000	91.171	6.0947
7620.000000	91.682	6.5648
7750.000000	92.057	3.8354
7880.000000	92.575	-0.6397
8000.000000	93.094	-4.3005
8120.000000	92.833	-9.9153
8250.000000	92.380	-15.5943
8380.000000	91.673	-20.7079
8500.000000	91.001	-24.6373
8620.000000	89.937	-26.3416
8750.000000	89.172	-26.9783
8850.000000	88.401	-26.8950
9000.000000	87.404	-26.1003
9120.000000	86.775	-23.2224
9250.000000	86.085	-20.9541
9380.000000	85.491	-17.6535
9500.000000	85.104	-15.4522
9620.000000	84.578	-11.6402
9750.000000	84.303	-8.4157
9880.000000	84.109	-5.3193
10000.000000	84.106	-1.1783
10150.000000	84.140	3.3943
10300.000000	84.217	6.3421
10440.000000	84.689	10.4238
10600.000000	85.192	13.2807
10750.000000	85.925	13.3769
10900.000000	86.965	13.3241
11060.000000	88.009	8.3898
11200.000000	89.153	0.3016
11380.000000	89.409	-16.0658
11500.000000	88.700	-29.1871
11720.000000	86.365	-43.9399
11800.000000	85.315	-47.0715
12060.000000	82.080	-51.1283
12200.000000	80.413	-49.9508
12410.000000	78.420	-45.7217
12500.000000	77.646	-42.8574
12650.000000	76.516	-38.6214
12800.000000	75.602	-34.0348
13150.000000	74.307	-21.5474
13200.000000	74.235	-19.3017
13400.000000	73.838	-14.3279
13600.000000	73.468	-9.3794
13800.000000	73.285	-4.2238
14000.000000	72.877	1.6270
14300.000000	72.925	10.2439
14500.000000	73.020	16.5797
14750.000000	73.657	23.6397
15000.000000	74.346	29.4759
15250.000000	75.233	34.4011
15500.000000	76.372	35.0482
15750.000000	77.149	30.8585
16000.000000	77.216	22.8909
16250.000000	77.025	17.0978
16500.000000	76.023	12.5553
16750.000000	75.068	12.6413
17000.000000	74.165	13.3219
17250.000000	73.486	13.9602
17500.000000	72.821	13.3342
17750.000000	72.447	7.7632
18000.000000	71.513	-1.5823
18250.000000	69.682	-17.7154
18500.000000	66.604	-31.6409
18750.000000	63.464	-42.7466
19000.000000	60.058	-52.4616
19250.000000	58.019	-56.7185
19500.000000	56.658	-57.7517
19750.000000	56.177	-61.8212
