* Measurement data measured by REW V5.30.9
* Source: Headset (Odo By VECLAN.COM), MICROPHONE (Master Volume), L, volume: 0.250
* Format: 512k Log Swept Sine, 1 sweep at -12.0 dBFS with no timing reference
* Dated: 10 9, 24 8:52:40 PM
* REW Settings:
*  C-weighting compensation: Off
*  Target level: 75.0 dB
* Note: ; 
* Measurement: paradise natural L
* Smoothing: None
* Frequency Step: 1/48 octave
* Start Frequency: 1.000 Hz
*
* Freq(Hz)	SPL(dB)	Phase(degrees)
1.000000	83.371	-147.9965
1.015000	83.610	-148.3805
1.030000	83.844	-148.7659
1.044000	84.060	-149.1322
1.060000	84.302	-149.5648
1.075000	84.526	-149.9901
1.090000	84.747	-150.4406
1.106000	84.980	-150.9485
1.120000	85.181	-151.3805
1.138000	85.436	-151.9093
1.150000	85.603	-152.2459
1.172000	85.904	-152.8323
1.180000	86.011	-153.0361
1.206000	86.352	-153.6668
1.220000	86.531	-153.9877
1.241000	86.791	-154.4466
1.250000	86.899	-154.6358
1.265000	87.076	-154.9418
1.280000	87.248	-155.2373
1.315000	87.626	-155.8915
1.320000	87.678	-155.9816
1.340000	87.877	-156.3347
1.360000	88.064	-156.6786
1.380000	88.240	-157.0157
1.400000	88.403	-157.3486
1.430000	88.622	-157.8456
1.450000	88.751	-158.1791
1.475000	88.837	-158.6002
1.500000	88.839	-159.0058
1.525000	88.843	-159.3919
1.550000	88.849	-159.7601
1.575000	88.856	-160.1119
1.600000	88.864	-160.4491
1.625000	88.873	-160.7732
1.650000	88.882	-161.0857
1.675000	88.891	-161.3882
1.700000	88.899	-161.6824
1.725000	88.907	-161.9698
1.750000	88.914	-162.2521
1.775000	88.920	-162.5307
1.800000	88.923	-162.8074
1.825000	88.925	-163.0836
1.850000	88.929	-163.3578
1.875000	88.935	-163.6236
1.900000	88.940	-163.8813
1.925000	88.945	-164.1315
1.950000	88.950	-164.3748
1.975000	88.955	-164.6118
2.000000	88.960	-164.8431
2.030000	88.966	-165.1141
2.060000	88.971	-165.3789
2.090000	88.977	-165.6385
2.120000	88.983	-165.8941
2.140000	88.987	-166.0627
2.180000	88.995	-166.3971
2.200000	88.999	-166.5636
2.240000	89.006	-166.8890
2.270000	89.012	-167.1253
2.300000	89.018	-167.3559
2.330000	89.024	-167.5813
2.360000	89.030	-167.8024
2.400000	89.038	-168.0917
2.430000	89.044	-168.3054
2.470000	89.052	-168.5877
2.500000	89.058	-168.7982
2.540000	89.066	-169.0787
2.580000	89.074	-169.3601
2.620000	89.082	-169.6393
2.650000	89.088	-169.8468
2.690000	89.096	-170.1208
2.720000	89.102	-170.3245
2.760000	89.110	-170.5936
2.800000	89.118	-170.8599
2.850000	89.126	-171.1890
2.900000	89.134	-171.5141
2.950000	89.140	-171.8353
3.000000	89.146	-172.1530
3.040000	89.149	-172.4043
3.070000	89.152	-172.5912
3.110000	89.154	-172.8379
3.150000	89.157	-173.0817
3.200000	89.159	-173.3820
3.250000	89.160	-173.6772
3.300000	89.161	-173.9668
3.350000	89.160	-174.2514
3.400000	89.159	-174.5313
3.450000	89.158	-174.8063
3.500000	89.155	-175.0761
3.550000	89.152	-175.3405
3.600000	89.148	-175.5994
3.650000	89.144	-175.8524
3.700000	89.139	-176.0998
3.750000	89.134	-176.3422
3.820000	89.125	-176.6727
3.870000	89.118	-176.9018
3.950000	89.105	-177.2551
4.000000	89.098	-177.4671
4.060000	89.088	-177.7117
4.120000	89.078	-177.9465
4.180000	89.067	-178.1716
4.250000	89.054	-178.4225
4.310000	89.043	-178.6277
4.370000	89.032	-178.8240
4.440000	89.020	-179.0412
4.500000	89.010	-179.2158
4.550000	89.001	-179.3540
4.620000	88.990	-179.5381
4.680000	88.981	-179.6890
4.750000	88.972	-179.8590
4.820000	88.965	179.9789
4.870000	88.960	179.8703
4.940000	88.955	179.7254
5.000000	88.951	179.6052
5.080000	88.949	179.4464
5.150000	88.948	179.3055
5.220000	88.949	179.1689
5.300000	88.952	179.0162
5.380000	88.957	178.8613
5.450000	88.962	178.7188
5.520000	88.968	178.5661
5.600000	88.976	178.3842
5.700000	88.988	178.1456
5.800000	89.001	177.8916
5.900000	89.012	177.6183
6.000000	89.023	177.3238
6.080000	89.031	177.0766
6.150000	89.037	176.8547
6.220000	89.042	176.6300
6.300000	89.045	176.3665
6.400000	89.047	176.0247
6.500000	89.045	175.6805
6.600000	89.041	175.3466
6.700000	89.032	175.0184
6.800000	89.020	174.6952
6.900000	89.006	174.3882
7.000000	88.990	174.1071
7.100000	88.972	173.8460
7.200000	88.952	173.6060
7.300000	88.932	173.3912
7.400000	88.914	173.2062
7.500000	88.895	173.0497
7.620000	88.874	172.8895
7.750000	88.858	172.7402
7.880000	88.846	172.6258
8.000000	88.840	172.5320
8.120000	88.839	172.4326
8.250000	88.844	172.3317
8.380000	88.854	172.2151
8.500000	88.867	172.0751
8.620000	88.885	171.9125
8.750000	88.905	171.7062
8.850000	88.918	171.5213
9.000000	88.939	171.2016
9.120000	88.952	170.9223
9.250000	88.963	170.6019
9.380000	88.971	170.2584
9.500000	88.974	169.9402
9.620000	88.973	169.6293
9.750000	88.969	169.2935
9.880000	88.956	168.9725
10.000000	88.935	168.6917
10.150000	88.898	168.3604
10.300000	88.859	168.0703
10.440000	88.820	167.8416
10.600000	88.776	167.6129
10.750000	88.740	167.4333
10.900000	88.708	167.2738
11.060000	88.680	167.0525
11.200000	88.663	166.8172
11.380000	88.643	166.4866
11.500000	88.629	166.2527
11.720000	88.601	165.7932
11.800000	88.589	165.6163
12.060000	88.543	165.0101
12.200000	88.513	164.6652
12.410000	88.464	164.1416
12.500000	88.446	163.9406
12.650000	88.418	163.6335
12.800000	88.393	163.3505
13.150000	88.341	162.7694
13.200000	88.335	162.6902
13.400000	88.314	162.3827
13.600000	88.298	162.0776
13.800000	88.286	161.7749
14.000000	88.275	161.4309
14.300000	88.258	160.8387
14.500000	88.241	160.4290
14.750000	88.210	159.9495
15.000000	88.172	159.5241
15.250000	88.133	159.1370
15.500000	88.098	158.8264
15.750000	88.071	158.5892
16.000000	88.057	158.3738
16.250000	88.056	158.1197
16.500000	88.065	157.8107
16.750000	88.073	157.4471
17.000000	88.077	157.0226
17.250000	88.075	156.5547
17.500000	88.063	156.0707
17.750000	88.043	155.6133
18.000000	88.017	155.1780
18.250000	87.988	154.7558
18.500000	87.957	154.3678
18.750000	87.924	154.0142
19.000000	87.890	153.6951
19.250000	87.858	153.3956
19.500000	87.829	153.1235
19.750000	87.805	152.8791
20.000000	87.789	152.6298
20.299999	87.780	152.2780
20.600000	87.779	151.8383
20.900000	87.775	151.2978
21.200001	87.761	150.6520
21.400000	87.742	150.2016
21.799999	87.680	149.3484
22.000000	87.642	148.9846
22.400000	87.564	148.4191
22.700001	87.519	148.1348
23.000000	87.494	147.8999
23.299999	87.489	147.6201
23.600000	87.495	147.2562
24.000000	87.506	146.6161
24.299999	87.505	146.0501
24.700001	87.482	145.2833
25.000000	87.452	144.7710
25.400000	87.406	144.2139
25.799999	87.365	143.7975
26.200001	87.339	143.4399
26.500000	87.328	143.1613
26.900000	87.319	142.7533
27.200001	87.314	142.4048
27.600000	87.306	141.8781
28.000000	87.292	141.2711
28.500000	87.258	140.3772
29.000000	87.187	139.4293
29.500000	87.080	138.6143
30.000000	86.972	138.0816
30.400000	86.915	137.7664
30.700001	86.891	137.5027
31.100000	86.871	137.0235
31.500000	86.849	136.4183
32.000000	86.809	135.6541
32.500000	86.775	134.9604
33.000000	86.755	134.2313
33.500000	86.720	133.4191
34.000000	86.656	132.7599
34.500000	86.598	132.4202
35.000000	86.581	132.1953
35.500000	86.573	131.7714
36.000000	86.522	131.3082
36.500000	86.448	131.1835
37.000000	86.425	131.2701
37.500000	86.448	130.9470
38.200001	86.358	129.8074
38.700001	86.194	129.5530
39.500000	86.154	130.1721
40.000000	86.268	129.4635
40.599998	86.262	127.3469
41.200001	86.059	125.8218
41.799999	85.932	125.3848
42.500000	85.961	124.1431
43.099998	85.862	122.3518
43.700001	85.670	121.6010
44.400002	85.634	121.6458
45.000000	85.699	120.8032
45.500000	85.656	119.8087
46.200001	85.529	119.3002
46.799999	85.522	119.1806
47.500000	85.512	118.2834
48.200001	85.393	117.5413
48.700001	85.334	117.3718
49.400002	85.322	116.7252
50.000000	85.258	115.7039
50.799999	85.104	114.8118
51.500000	85.045	114.3416
52.200001	85.026	113.5025
53.000000	84.971	112.3637
53.799999	84.900	111.3788
54.500000	84.838	110.6096
55.200001	84.765	109.8584
56.000000	84.641	109.2037
57.000000	84.537	109.0649
58.000000	84.520	108.1359
59.000000	84.330	107.2137
60.000000	84.292	107.0941
60.799999	84.278	105.8000
61.500000	84.119	104.9443
62.200001	84.027	105.0580
63.000000	84.090	104.5675
64.000000	83.989	102.7772
65.000000	83.783	102.3712
66.000000	83.708	102.1307
67.000000	83.634	101.6912
68.000000	83.607	100.9544
69.000000	83.502	99.5987
70.000000	83.311	98.8745
71.000000	83.250	98.3791
72.000000	83.158	97.0445
73.000000	83.011	96.3833
74.000000	82.974	95.4611
75.000000	82.814	94.4059
76.199997	82.749	94.3205
77.500000	82.719	92.8550
78.800003	82.546	92.1345
80.000000	82.458	91.6285
81.199997	82.377	90.8693
82.500000	82.223	89.4683
83.800003	82.010	89.2597
85.000000	82.052	88.5288
86.199997	81.934	87.1093
87.500000	81.799	86.5059
88.500000	81.728	86.3792
90.000000	81.704	85.2529
91.199997	81.462	84.5818
92.500000	81.352	84.6243
93.800003	81.262	84.0277
95.000000	81.188	83.0055
96.199997	81.018	82.1991
97.500000	80.890	81.5606
98.800003	80.805	81.5277
100.000000	80.804	80.0428
101.500000	80.568	79.8286
103.000000	80.521	78.4488
104.400002	80.446	78.5673
106.000000	80.376	77.1135
107.500000	80.299	76.2029
109.000000	80.117	76.0449
110.599998	80.087	74.2248
112.000000	79.789	74.5885
113.800003	79.824	72.8959
115.000000	79.606	72.5684
117.199997	79.489	71.4124
118.000000	79.397	71.5922
120.599998	79.219	69.2225
122.000000	79.162	70.1897
124.099998	79.066	69.6647
125.000000	79.034	68.9037
126.500000	78.830	68.4456
128.000000	78.740	68.1212
131.500000	78.547	66.3784
132.000000	78.506	66.2538
134.000000	78.382	65.5770
136.000000	78.244	65.2945
138.000000	78.148	64.6434
140.000000	78.041	63.8459
143.000000	77.849	63.0232
145.000000	77.737	62.3729
147.500000	77.587	61.7239
150.000000	77.451	61.0090
152.500000	77.335	60.4488
155.000000	77.191	59.7643
157.500000	77.056	59.2615
160.000000	76.927	58.6241
162.500000	76.782	58.0579
165.000000	76.644	57.5263
167.500000	76.506	56.9467
170.000000	76.373	56.3904
172.500000	76.247	55.9005
175.000000	76.120	55.4949
177.500000	75.983	54.9776
180.000000	75.852	54.5678
182.500000	75.741	54.0770
185.000000	75.629	53.6972
187.500000	75.498	53.3123
190.000000	75.381	52.8608
192.500000	75.261	52.5562
195.000000	75.159	52.1212
197.500000	75.053	51.8690
200.000000	74.949	51.4840
203.000000	74.837	51.0366
206.000000	74.732	50.7351
209.000000	74.626	50.3814
212.000000	74.524	50.0657
214.000000	74.457	49.8370
218.000000	74.337	49.3573
220.000000	74.272	49.1797
224.000000	74.130	48.8296
227.000000	74.047	48.5710
230.000000	73.968	48.2620
233.000000	73.875	48.0215
236.000000	73.781	47.7872
240.000000	73.682	47.4609
243.000000	73.606	47.2886
247.000000	73.494	47.0547
250.000000	73.423	46.8821
254.000000	73.327	46.5443
258.000000	73.219	46.3790
262.000000	73.104	46.3009
265.000000	73.079	46.1804
269.000000	72.952	45.9966
272.000000	72.897	45.9741
276.000000	72.813	45.7866
280.000000	72.733	45.7672
285.000000	72.647	45.6727
290.000000	72.558	45.6406
295.000000	72.466	45.7113
300.000000	72.379	45.6018
304.000000	72.317	45.7420
307.000000	72.303	45.8674
311.000000	72.256	45.9541
315.000000	72.258	46.0156
320.000000	72.212	45.8559
325.000000	72.204	45.7107
330.000000	72.142	45.6056
335.000000	72.109	45.0042
340.000000	72.005	45.2512
345.000000	71.958	45.2677
350.000000	71.927	45.3358
355.000000	71.884	45.3271
360.000000	71.893	45.6557
365.000000	71.887	45.7159
370.000000	71.879	45.6180
375.000000	71.869	45.5100
382.000000	71.834	45.3396
387.000000	71.814	45.2028
395.000000	71.769	44.9893
400.000000	71.742	45.0332
406.000000	71.719	45.0688
412.000000	71.685	45.1432
418.000000	71.666	45.1611
425.000000	71.642	45.1048
431.000000	71.620	45.2242
437.000000	71.601	45.2135
444.000000	71.584	45.3362
450.000000	71.577	45.4567
455.000000	71.577	45.5365
462.000000	71.568	45.5814
468.000000	71.559	45.5943
475.000000	71.567	45.7372
482.000000	71.548	45.8607
487.000000	71.555	45.9491
494.000000	71.552	46.0710
500.000000	71.553	46.0943
508.000000	71.570	46.3116
515.000000	71.564	46.3652
522.000000	71.576	46.4934
530.000000	71.593	46.6992
538.000000	71.604	46.8111
545.000000	71.609	46.9658
552.000000	71.625	47.0352
560.000000	71.643	47.2016
570.000000	71.649	47.4496
580.000000	71.684	47.6385
590.000000	71.701	47.7998
600.000000	71.751	47.9418
608.000000	71.775	48.2337
615.000000	71.792	48.3736
622.000000	71.808	48.4907
630.000000	71.839	48.7352
640.000000	71.864	48.9356
650.000000	71.907	49.1415
660.000000	71.937	49.3992
670.000000	71.984	49.6389
680.000000	72.027	49.9063
690.000000	72.056	50.1449
700.000000	72.104	50.3878
710.000000	72.144	50.6296
720.000000	72.187	50.9287
730.000000	72.238	51.1309
740.000000	72.283	51.4341
750.000000	72.327	51.6397
762.000000	72.409	51.9904
775.000000	72.478	52.2964
788.000000	72.562	52.6786
800.000000	72.632	53.0184
812.000000	72.697	53.3330
825.000000	72.788	53.6809
838.000000	72.876	53.9783
850.000000	72.962	54.2586
862.000000	73.045	54.5368
875.000000	73.133	54.8815
885.000000	73.215	55.1202
900.000000	73.317	55.3691
912.000000	73.422	55.6607
925.000000	73.528	55.8880
938.000000	73.637	56.1117
950.000000	73.748	56.3412
962.000000	73.849	56.5490
975.000000	73.972	56.6708
988.000000	74.080	56.7520
1000.000000	74.203	56.8592
1015.000000	74.342	56.9477
1030.000000	74.473	57.0003
1044.000000	74.607	56.9943
1060.000000	74.753	56.9195
1075.000000	74.879	56.8719
1090.000000	75.018	56.7195
1106.000000	75.157	56.5340
1120.000000	75.279	56.4000
1138.000000	75.430	56.1082
1150.000000	75.529	55.9257
1172.000000	75.704	55.4966
1180.000000	75.759	55.2635
1206.000000	75.944	54.7246
1220.000000	76.034	54.5002
1241.000000	76.167	53.9095
1250.000000	76.215	53.7453
1265.000000	76.311	53.3627
1280.000000	76.391	53.0417
1315.000000	76.582	52.1599
1320.000000	76.605	51.9940
1340.000000	76.693	51.5948
1360.000000	76.789	51.1202
1380.000000	76.881	50.6641
1400.000000	76.948	50.2499
1430.000000	77.062	49.6432
1450.000000	77.135	49.2544
1475.000000	77.221	48.7482
1500.000000	77.303	48.3839
1525.000000	77.379	48.0038
1550.000000	77.457	47.6585
1575.000000	77.538	47.2857
1600.000000	77.606	46.9373
1625.000000	77.676	46.6275
1650.000000	77.751	46.3303
1675.000000	77.825	46.0521
1700.000000	77.895	45.8247
1725.000000	77.969	45.6066
1750.000000	78.051	45.3592
1775.000000	78.115	45.1417
1800.000000	78.171	44.8872
1825.000000	78.250	44.6371
1850.000000	78.313	44.3524
1875.000000	78.401	44.2520
1900.000000	78.460	44.1195
1925.000000	78.532	43.9506
1950.000000	78.588	43.7800
1975.000000	78.682	43.7799
2000.000000	78.770	43.6563
2030.000000	78.885	43.5983
2060.000000	78.999	43.6593
2090.000000	79.123	43.6466
2120.000000	79.287	43.6247
2140.000000	79.400	43.5545
2180.000000	79.653	43.2477
2200.000000	79.777	43.1049
2240.000000	80.043	42.5628
2270.000000	80.243	42.1782
2300.000000	80.444	41.5718
2330.000000	80.668	40.8680
2360.000000	80.888	39.9435
2400.000000	81.154	38.5619
2430.000000	81.359	37.5949
2470.000000	81.646	35.9497
2500.000000	81.867	34.4786
2540.000000	82.158	32.0411
2580.000000	82.373	29.0870
2620.000000	82.491	25.9385
2650.000000	82.506	23.6454
2690.000000	82.459	20.7896
2720.000000	82.395	18.9998
2760.000000	82.286	16.9019
2800.000000	82.179	15.1927
2850.000000	82.065	13.2930
2900.000000	81.950	11.6073
2950.000000	81.867	9.8971
3000.000000	81.771	8.2079
3040.000000	81.683	6.8418
3070.000000	81.599	5.9321
3110.000000	81.500	4.7566
3150.000000	81.376	3.6073
3200.000000	81.220	2.2505
3250.000000	81.042	0.9352
3300.000000	80.848	-0.1569
3350.000000	80.639	-1.1265
3400.000000	80.431	-2.0289
3450.000000	80.225	-2.7192
3500.000000	80.007	-3.3298
3550.000000	79.811	-3.7484
3600.000000	79.600	-4.0991
3650.000000	79.415	-4.3123
3700.000000	79.211	-4.3917
3750.000000	79.019	-4.3926
3820.000000	78.778	-4.2034
3870.000000	78.628	-4.0645
3950.000000	78.384	-3.5336
4000.000000	78.245	-3.1218
4060.000000	78.106	-2.5696
4120.000000	77.975	-2.0655
4180.000000	77.875	-1.3185
4250.000000	77.761	-0.5690
4310.000000	77.693	0.1310
4370.000000	77.622	0.9066
4440.000000	77.566	1.8335
4500.000000	77.529	2.5754
4550.000000	77.512	3.2643
4620.000000	77.495	4.1703
4680.000000	77.493	5.0059
4750.000000	77.497	5.8594
4820.000000	77.518	6.7588
4870.000000	77.542	7.3007
4940.000000	77.581	8.1378
5000.000000	77.621	8.8434
5080.000000	77.641	9.7714
5150.000000	77.670	10.5206
5220.000000	77.723	11.2379
5300.000000	77.797	11.8323
5380.000000	77.863	12.4117
5450.000000	77.929	12.7742
5520.000000	77.986	13.0880
5600.000000	78.042	13.4290
5700.000000	78.129	13.6436
5800.000000	78.213	13.8657
5900.000000	78.280	14.0052
6000.000000	78.354	14.1135
6080.000000	78.402	14.1339
6150.000000	78.468	14.1564
6220.000000	78.528	14.0737
6300.000000	78.591	14.1302
6400.000000	78.726	13.9183
6500.000000	78.879	13.8080
6600.000000	79.037	13.3978
6700.000000	79.208	12.9881
6800.000000	79.348	12.4177
6900.000000	79.527	11.5824
7000.000000	79.654	10.8207
7100.000000	79.885	10.4975
7200.000000	80.166	9.2628
7300.000000	80.433	7.4363
7400.000000	80.652	5.4707
7500.000000	80.858	3.1677
7620.000000	81.108	-0.0355
7750.000000	81.348	-4.1376
7880.000000	81.529	-9.0652
8000.000000	81.565	-14.4811
8120.000000	81.387	-20.4049
8250.000000	80.979	-27.0782
8380.000000	80.341	-33.3061
8500.000000	79.550	-38.3443
8620.000000	78.595	-42.4285
8750.000000	77.488	-45.5094
8850.000000	76.603	-46.5016
9000.000000	75.389	-47.0048
9120.000000	74.421	-46.6617
9250.000000	73.425	-45.4034
9380.000000	72.524	-43.3863
9500.000000	71.732	-40.9392
9620.000000	71.021	-38.2560
9750.000000	70.325	-35.0142
9880.000000	69.688	-31.4584
10000.000000	69.146	-27.7633
10150.000000	68.618	-23.0692
10300.000000	68.156	-17.7145
10440.000000	67.802	-13.2714
10600.000000	67.528	-7.7145
10750.000000	67.293	-2.5039
10900.000000	67.177	2.6500
11060.000000	67.103	7.9982
11200.000000	67.124	12.3657
11380.000000	67.247	17.7802
11500.000000	67.418	21.0733
11720.000000	67.729	26.4772
11800.000000	67.908	28.3779
12060.000000	68.500	32.2804
12200.000000	68.828	33.9366
12410.000000	69.422	34.7946
12500.000000	69.674	34.6972
12650.000000	70.033	33.6671
12800.000000	70.366	31.8051
13150.000000	70.773	24.9157
13200.000000	70.764	23.6580
13400.000000	70.570	18.5914
13600.000000	70.153	14.4587
13800.000000	69.602	11.3325
14000.000000	69.045	9.9528
14300.000000	68.449	9.6341
14500.000000	68.130	10.1646
14750.000000	67.885	11.2437
15000.000000	67.860	13.7544
15250.000000	68.246	16.5131
15500.000000	69.373	17.2032
15750.000000	70.883	10.7105
16000.000000	71.707	-5.8976
16250.000000	70.482	-29.1464
16500.000000	69.218	-20.4651
16750.000000	71.331	-34.4896
17000.000000	72.759	-74.6257
17250.000000	68.965	-125.4509
17500.000000	63.719	-153.4155
17750.000000	60.140	-171.3064
18000.000000	57.656	174.7605
18250.000000	55.833	167.2410
18500.000000	54.532	166.0309
18750.000000	54.202	169.3187
19000.000000	54.410	169.8870
19250.000000	54.209	169.9734
19500.000000	54.781	163.4135
19750.000000	53.073	150.8611
