* Measurement data measured by REW V5.30.9
* Source: Headset (Odo By VECLAN.COM), MICROPHONE (Master Volume), L, volume: 0.250
* Format: 512k Log Swept Sine, 1 sweep at -12.0 dBFS with no timing reference
* Dated: 10 9, 24 8:33:23 PM
* REW Settings:
*  C-weighting compensation: Off
*  Target level: 75.0 dB
* Note: ; 
* Measurement: paradise texture R
* Smoothing: None
* Frequency Step: 1/48 octave
* Start Frequency: 1.000 Hz
*
* Freq(Hz)	SPL(dB)	Phase(degrees)
1.000000	73.565	-83.8600
1.015000	73.907	-84.4854
1.030000	74.244	-85.0976
1.044000	74.557	-85.6543
1.060000	74.912	-86.2696
1.075000	75.244	-86.8229
1.090000	75.576	-87.3500
1.106000	75.931	-87.8830
1.120000	76.237	-88.3396
1.138000	76.623	-88.9183
1.150000	76.876	-89.2991
1.172000	77.329	-89.9873
1.180000	77.491	-90.2345
1.206000	78.003	-91.0271
1.220000	78.271	-91.4474
1.241000	78.662	-92.0698
1.250000	78.825	-92.3337
1.265000	79.092	-92.7700
1.280000	79.352	-93.2021
1.315000	79.931	-94.1951
1.320000	80.010	-94.3354
1.340000	80.320	-94.8928
1.360000	80.616	-95.4447
1.380000	80.898	-95.9917
1.400000	81.166	-96.5343
1.430000	81.542	-97.3414
1.450000	81.774	-97.8757
1.475000	82.042	-98.5396
1.500000	82.274	-99.1937
1.525000	82.471	-99.8374
1.550000	82.638	-100.4712
1.575000	82.778	-101.0957
1.600000	82.895	-101.7115
1.625000	82.993	-102.3192
1.650000	83.076	-102.9194
1.675000	83.148	-103.5128
1.700000	83.212	-104.0999
1.725000	83.273	-104.6814
1.750000	83.334	-105.2578
1.775000	83.400	-105.8298
1.800000	83.474	-106.3980
1.825000	83.560	-106.9629
1.850000	83.656	-107.5241
1.875000	83.750	-108.0790
1.900000	83.841	-108.6279
1.925000	83.930	-109.1710
1.950000	84.017	-109.7083
1.975000	84.102	-110.2402
2.000000	84.185	-110.7669
2.030000	84.282	-111.3922
2.060000	84.377	-112.0106
2.090000	84.470	-112.6225
2.120000	84.560	-113.2282
2.140000	84.620	-113.6287
2.180000	84.737	-114.4225
2.200000	84.795	-114.8159
2.240000	84.907	-115.5932
2.270000	84.989	-116.1674
2.300000	85.068	-116.7346
2.330000	85.146	-117.2951
2.360000	85.221	-117.8495
2.400000	85.319	-118.5796
2.430000	85.390	-119.1210
2.470000	85.483	-119.8355
2.500000	85.551	-120.3663
2.540000	85.640	-121.0680
2.580000	85.727	-121.7635
2.620000	85.812	-122.4513
2.650000	85.873	-122.9618
2.690000	85.953	-123.6352
2.720000	86.011	-124.1347
2.760000	86.087	-124.7934
2.800000	86.160	-125.4437
2.850000	86.248	-126.2446
2.900000	86.334	-127.0320
2.950000	86.416	-127.8058
3.000000	86.494	-128.5657
3.040000	86.554	-129.1636
3.070000	86.598	-129.6064
3.110000	86.654	-130.1895
3.150000	86.708	-130.7643
3.200000	86.774	-131.4715
3.250000	86.838	-132.1666
3.300000	86.900	-132.8500
3.350000	86.960	-133.5201
3.400000	87.017	-134.1765
3.450000	87.072	-134.8201
3.500000	87.125	-135.4521
3.550000	87.175	-136.0734
3.600000	87.225	-136.6852
3.650000	87.273	-137.2884
3.700000	87.320	-137.8829
3.750000	87.364	-138.4666
3.820000	87.424	-139.2669
3.870000	87.465	-139.8272
3.950000	87.528	-140.7059
4.000000	87.566	-141.2449
4.060000	87.609	-141.8820
4.120000	87.651	-142.5069
4.180000	87.691	-143.1198
4.250000	87.736	-143.8201
4.310000	87.772	-144.4083
4.370000	87.807	-144.9861
4.440000	87.846	-145.6471
4.500000	87.878	-146.2020
4.550000	87.903	-146.6562
4.620000	87.937	-147.2793
4.680000	87.965	-147.8015
4.750000	87.996	-148.3970
4.820000	88.026	-148.9773
4.870000	88.047	-149.3824
4.940000	88.075	-149.9368
5.000000	88.098	-150.4004
5.080000	88.128	-151.0024
5.150000	88.154	-151.5140
5.220000	88.180	-152.0087
5.300000	88.208	-152.5551
5.380000	88.236	-153.0861
5.450000	88.261	-153.5417
5.520000	88.287	-153.9911
5.600000	88.316	-154.4904
5.700000	88.354	-155.0977
5.800000	88.391	-155.6970
5.900000	88.430	-156.2982
6.000000	88.470	-156.8931
6.080000	88.502	-157.3672
6.150000	88.529	-157.7844
6.220000	88.556	-158.2070
6.300000	88.586	-158.6970
6.400000	88.623	-159.3161
6.500000	88.659	-159.9413
6.600000	88.690	-160.5717
6.700000	88.717	-161.2130
6.800000	88.741	-161.8614
6.900000	88.760	-162.5045
7.000000	88.774	-163.1333
7.100000	88.782	-163.7608
7.200000	88.786	-164.3750
7.300000	88.784	-164.9568
7.400000	88.777	-165.4991
7.500000	88.765	-166.0136
7.620000	88.746	-166.5777
7.750000	88.724	-167.1019
7.880000	88.699	-167.5394
8.000000	88.677	-167.8743
8.120000	88.662	-168.1432
8.250000	88.650	-168.3475
8.380000	88.647	-168.5074
8.500000	88.656	-168.6433
8.620000	88.676	-168.7470
8.750000	88.707	-168.8727
8.850000	88.736	-169.0070
9.000000	88.790	-169.2426
9.120000	88.837	-169.4793
9.250000	88.887	-169.8058
9.380000	88.940	-170.1961
9.500000	88.983	-170.5929
9.620000	89.020	-171.0232
9.750000	89.053	-171.5311
9.880000	89.073	-172.0371
10.000000	89.075	-172.4956
10.150000	89.061	-173.0594
10.300000	89.038	-173.5422
10.440000	89.007	-173.9144
10.600000	88.971	-174.2618
10.750000	88.945	-174.4902
10.900000	88.925	-174.6538
11.060000	88.921	-174.8726
11.200000	88.933	-175.0884
11.380000	88.957	-175.4433
11.500000	88.979	-175.7367
11.720000	89.020	-176.4023
11.800000	89.031	-176.6984
12.060000	89.051	-177.8206
12.200000	89.042	-178.4995
12.410000	89.005	-179.5719
12.500000	88.983	-179.9858
12.650000	88.937	179.3602
12.800000	88.884	178.7945
13.150000	88.743	177.9344
13.200000	88.726	177.8573
13.400000	88.665	177.6886
13.600000	88.631	177.6138
13.800000	88.631	177.6124
14.000000	88.657	177.4868
14.300000	88.735	176.9904
14.500000	88.789	176.3959
14.750000	88.832	175.4570
15.000000	88.837	174.3617
15.250000	88.796	173.2533
15.500000	88.720	172.3276
15.750000	88.622	171.6724
16.000000	88.528	171.3396
16.250000	88.464	171.2172
16.500000	88.438	171.2218
16.750000	88.451	171.2271
17.000000	88.491	171.0832
17.250000	88.545	170.7628
17.500000	88.597	170.2499
17.750000	88.632	169.6364
18.000000	88.649	168.9677
18.250000	88.648	168.2916
18.500000	88.634	167.6937
18.750000	88.613	167.1817
19.000000	88.591	166.7625
19.250000	88.575	166.3900
19.500000	88.565	166.0470
19.750000	88.563	165.7159
20.000000	88.565	165.3565
20.299999	88.571	164.8713
20.600000	88.574	164.3325
20.900000	88.571	163.7634
21.200001	88.557	163.1732
21.400000	88.544	162.7901
21.799999	88.508	162.0807
22.000000	88.489	161.7585
22.400000	88.453	161.1561
22.700001	88.430	160.7390
23.000000	88.412	160.3262
23.299999	88.397	159.8919
23.600000	88.383	159.4458
24.000000	88.365	158.8393
24.299999	88.351	158.3741
24.700001	88.334	157.7487
25.000000	88.321	157.2773
25.400000	88.303	156.6390
25.799999	88.280	156.0141
26.200001	88.257	155.4079
26.500000	88.239	154.9658
26.900000	88.217	154.3970
27.200001	88.202	153.9709
27.600000	88.179	153.3980
28.000000	88.153	152.8380
28.500000	88.115	152.1790
29.000000	88.080	151.5778
29.500000	88.051	150.9713
30.000000	88.022	150.3265
30.400000	87.993	149.7896
30.700001	87.969	149.4016
31.100000	87.936	148.9144
31.500000	87.906	148.4444
32.000000	87.879	147.8402
32.500000	87.853	147.1661
33.000000	87.821	146.4543
33.500000	87.781	145.7576
34.000000	87.740	145.1047
34.500000	87.703	144.4603
35.000000	87.664	143.8283
35.500000	87.622	143.2383
36.000000	87.584	142.7119
36.500000	87.557	142.1963
37.000000	87.535	141.6306
37.500000	87.507	141.0095
38.200001	87.450	140.1705
38.700001	87.407	139.6290
39.500000	87.345	138.7795
40.000000	87.306	138.2419
40.599998	87.264	137.5992
41.200001	87.229	136.9047
41.799999	87.186	136.1234
42.500000	87.116	135.2506
43.099998	87.058	134.6559
43.700001	87.022	134.0844
44.400002	86.987	133.2853
45.000000	86.942	132.5774
45.500000	86.899	132.0601
46.200001	86.850	131.3958
46.799999	86.810	130.7773
47.500000	86.748	130.0659
48.200001	86.687	129.4684
48.700001	86.656	129.0292
49.400002	86.611	128.2627
50.000000	86.549	127.5693
50.799999	86.454	126.8545
51.500000	86.395	126.3286
52.200001	86.346	125.7482
53.000000	86.297	125.0903
53.799999	86.263	124.2939
54.500000	86.204	123.4633
55.200001	86.117	122.8775
56.000000	86.062	122.4108
57.000000	86.004	121.4037
58.000000	85.901	120.6073
59.000000	85.843	119.7190
60.000000	85.728	118.8027
60.799999	85.681	118.3459
61.500000	85.661	117.5942
62.200001	85.584	116.7812
63.000000	85.497	116.3019
64.000000	85.454	115.5339
65.000000	85.356	114.6883
66.000000	85.298	114.0998
67.000000	85.220	113.1210
68.000000	85.112	112.5458
69.000000	85.068	111.7940
70.000000	84.961	110.8287
71.000000	84.862	110.2854
72.000000	84.811	109.5632
73.000000	84.730	108.6390
74.000000	84.613	107.9434
75.000000	84.546	107.5023
76.199997	84.478	106.4637
77.500000	84.355	105.6423
78.800003	84.266	104.6891
80.000000	84.179	103.9884
81.199997	84.105	103.0850
82.500000	84.009	102.2556
83.800003	83.894	101.3936
85.000000	83.806	100.8191
86.199997	83.722	100.0580
87.500000	83.624	99.2035
88.500000	83.535	98.6073
90.000000	83.437	97.6607
91.199997	83.329	96.9259
92.500000	83.238	96.2371
93.800003	83.145	95.4649
95.000000	83.035	94.7844
96.199997	82.954	94.2820
97.500000	82.860	93.4511
98.800003	82.761	92.8873
100.000000	82.688	92.2018
101.500000	82.584	91.4700
103.000000	82.465	90.6082
104.400002	82.365	90.1470
106.000000	82.241	89.1002
107.500000	82.126	88.7046
109.000000	82.049	87.7316
110.599998	81.904	87.1111
112.000000	81.866	86.4083
113.800003	81.714	85.5411
115.000000	81.629	85.0011
117.199997	81.499	84.1692
118.000000	81.434	84.0056
120.599998	81.241	82.6862
122.000000	81.203	82.2472
124.099998	81.060	81.2913
125.000000	81.010	80.8908
126.500000	80.916	80.1904
128.000000	80.825	79.7431
131.500000	80.615	78.1845
132.000000	80.569	77.9920
134.000000	80.453	77.3821
136.000000	80.351	76.6778
138.000000	80.221	75.9975
140.000000	80.110	75.2761
143.000000	79.935	74.2166
145.000000	79.807	73.5359
147.500000	79.660	72.8053
150.000000	79.515	71.9975
152.500000	79.378	71.2561
155.000000	79.248	70.4922
157.500000	79.112	69.8911
160.000000	78.964	69.2805
162.500000	78.816	68.4872
165.000000	78.676	67.9324
167.500000	78.523	67.3194
170.000000	78.365	66.6936
172.500000	78.219	66.1290
175.000000	78.065	65.6040
177.500000	77.919	65.2587
180.000000	77.776	64.6840
182.500000	77.637	64.1786
185.000000	77.510	64.3256
187.500000	77.372	63.8631
190.000000	77.296	63.7045
192.500000	77.201	63.7812
195.000000	77.194	63.9658
197.500000	76.996	63.7083
200.000000	77.031	63.3052
203.000000	77.027	62.9098
206.000000	77.049	61.6988
209.000000	76.900	60.6603
212.000000	76.838	59.8773
214.000000	76.782	59.2664
218.000000	76.620	58.0646
220.000000	76.536	57.9102
224.000000	76.384	56.9531
227.000000	76.243	56.4094
230.000000	76.144	55.8164
233.000000	76.030	55.5893
236.000000	75.936	55.1308
240.000000	75.768	54.5191
243.000000	75.691	54.1201
247.000000	75.560	53.7006
250.000000	75.462	53.4471
254.000000	75.341	53.0093
258.000000	75.234	52.4902
262.000000	75.111	52.1097
265.000000	74.998	51.8397
269.000000	74.908	51.6324
272.000000	74.826	51.3057
276.000000	74.731	51.0010
280.000000	74.605	50.7524
285.000000	74.482	50.3904
290.000000	74.356	49.9717
295.000000	74.240	49.7291
300.000000	74.126	49.3744
304.000000	74.041	49.1256
307.000000	73.972	48.9891
311.000000	73.898	48.8006
315.000000	73.818	48.5231
320.000000	73.720	48.3458
325.000000	73.638	48.0773
330.000000	73.532	48.0465
335.000000	73.439	47.9133
340.000000	73.358	47.6567
345.000000	73.269	47.5577
350.000000	73.177	47.3918
355.000000	73.106	47.3140
360.000000	73.037	47.3623
365.000000	72.981	47.3221
370.000000	72.899	47.2282
375.000000	72.848	47.1919
382.000000	72.746	47.1553
387.000000	72.723	47.1810
395.000000	72.622	47.2669
400.000000	72.591	47.3799
406.000000	72.564	47.4215
412.000000	72.518	47.4538
418.000000	72.498	47.5840
425.000000	72.491	47.4271
431.000000	72.468	47.4001
437.000000	72.435	47.2321
444.000000	72.405	47.1604
450.000000	72.365	47.1436
455.000000	72.334	47.0689
462.000000	72.297	46.9462
468.000000	72.277	46.9072
475.000000	72.242	46.9099
482.000000	72.204	46.8766
487.000000	72.180	46.9181
494.000000	72.147	46.9859
500.000000	72.121	47.0569
508.000000	72.103	47.0926
515.000000	72.083	47.1166
522.000000	72.061	47.1464
530.000000	72.043	47.3145
538.000000	72.014	47.4273
545.000000	72.012	47.5162
552.000000	72.004	47.6162
560.000000	71.986	47.7218
570.000000	71.980	47.9080
580.000000	71.978	48.0564
590.000000	71.977	48.2661
600.000000	71.986	48.3989
608.000000	71.968	48.5874
615.000000	71.979	48.7389
622.000000	71.976	48.9199
630.000000	71.980	49.0955
640.000000	71.993	49.2900
650.000000	72.012	49.4698
660.000000	72.014	49.6537
670.000000	72.037	49.9809
680.000000	72.053	50.3001
690.000000	72.079	50.4453
700.000000	72.106	50.6812
710.000000	72.135	50.9486
720.000000	72.173	51.1841
730.000000	72.187	51.4656
740.000000	72.227	51.6972
750.000000	72.262	52.0153
762.000000	72.302	52.3449
775.000000	72.348	52.6565
788.000000	72.417	53.0465
800.000000	72.476	53.4202
812.000000	72.529	53.7957
825.000000	72.593	54.1338
838.000000	72.661	54.5366
850.000000	72.733	54.8454
862.000000	72.812	55.1637
875.000000	72.900	55.4526
885.000000	72.970	55.6740
900.000000	73.062	56.0070
912.000000	73.150	56.3125
925.000000	73.248	56.5373
938.000000	73.351	56.7483
950.000000	73.448	56.9457
962.000000	73.552	57.0749
975.000000	73.650	57.2712
988.000000	73.752	57.3555
1000.000000	73.856	57.4688
1015.000000	73.986	57.5569
1030.000000	74.114	57.5996
1044.000000	74.236	57.5523
1060.000000	74.369	57.5014
1075.000000	74.495	57.4199
1090.000000	74.614	57.3318
1106.000000	74.746	57.1907
1120.000000	74.851	57.0375
1138.000000	74.994	56.8187
1150.000000	75.078	56.5859
1172.000000	75.247	56.1612
1180.000000	75.301	56.0083
1206.000000	75.465	55.4934
1220.000000	75.551	55.2142
1241.000000	75.678	54.6856
1250.000000	75.724	54.4765
1265.000000	75.808	54.1497
1280.000000	75.883	53.8170
1315.000000	76.056	52.9718
1320.000000	76.077	52.8596
1340.000000	76.157	52.4351
1360.000000	76.233	52.0156
1380.000000	76.329	51.5269
1400.000000	76.383	51.1683
1430.000000	76.481	50.6017
1450.000000	76.553	50.2364
1475.000000	76.630	49.7270
1500.000000	76.689	49.4407
1525.000000	76.756	49.0514
1550.000000	76.834	48.7131
1575.000000	76.894	48.3650
1600.000000	76.956	48.1414
1625.000000	77.027	47.8076
1650.000000	77.084	47.5637
1675.000000	77.138	47.3758
1700.000000	77.203	47.1106
1725.000000	77.274	46.9599
1750.000000	77.340	46.7412
1775.000000	77.409	46.5711
1800.000000	77.466	46.3312
1825.000000	77.535	46.1864
1850.000000	77.593	45.9677
1875.000000	77.658	45.8163
1900.000000	77.718	45.7952
1925.000000	77.808	45.6762
1950.000000	77.849	45.5225
1975.000000	77.921	45.4781
2000.000000	78.004	45.4827
2030.000000	78.117	45.4794
2060.000000	78.239	45.4784
2090.000000	78.357	45.4901
2120.000000	78.500	45.5477
2140.000000	78.599	45.4981
2180.000000	78.852	45.2461
2200.000000	78.960	45.2670
2240.000000	79.196	44.8721
2270.000000	79.402	44.4142
2300.000000	79.593	44.1834
2330.000000	79.802	43.6152
2360.000000	80.032	42.8780
2400.000000	80.343	41.7905
2430.000000	80.606	40.8872
2470.000000	80.962	38.9505
2500.000000	81.180	37.0067
2540.000000	81.428	34.1801
2580.000000	81.552	31.1464
2620.000000	81.605	28.1873
2650.000000	81.576	26.1162
2690.000000	81.495	23.7136
2720.000000	81.430	22.2819
2760.000000	81.321	20.6679
2800.000000	81.242	19.3314
2850.000000	81.180	17.8625
2900.000000	81.133	16.4734
2950.000000	81.111	14.9827
3000.000000	81.063	13.4124
3040.000000	81.028	12.3227
3070.000000	81.003	11.3233
3110.000000	80.957	10.0603
3150.000000	80.880	8.8610
3200.000000	80.752	7.4192
3250.000000	80.617	6.1123
3300.000000	80.474	4.9641
3350.000000	80.335	3.9771
3400.000000	80.186	2.9444
3450.000000	80.032	1.9399
3500.000000	79.865	1.0464
3550.000000	79.692	0.2952
3600.000000	79.503	-0.3321
3650.000000	79.330	-0.8220
3700.000000	79.140	-1.2156
3750.000000	78.960	-1.4065
3820.000000	78.718	-1.6133
3870.000000	78.559	-1.6068
3950.000000	78.313	-1.3179
4000.000000	78.164	-1.1082
4060.000000	78.038	-0.7243
4120.000000	77.910	-0.2343
4180.000000	77.806	0.2693
4250.000000	77.694	0.9771
4310.000000	77.603	1.6286
4370.000000	77.549	2.3273
4440.000000	77.487	3.1437
4500.000000	77.452	3.8767
4550.000000	77.437	4.5334
4620.000000	77.419	5.3602
4680.000000	77.423	6.1296
4750.000000	77.418	6.9847
4820.000000	77.432	7.8461
4870.000000	77.449	8.3735
4940.000000	77.492	9.2443
5000.000000	77.528	9.9254
5080.000000	77.553	10.9208
5150.000000	77.593	11.6746
5220.000000	77.651	12.4020
5300.000000	77.732	12.9820
5380.000000	77.817	13.5748
5450.000000	77.871	13.9779
5520.000000	77.946	14.3140
5600.000000	78.026	14.5758
5700.000000	78.136	14.8210
5800.000000	78.233	15.0518
5900.000000	78.319	15.1125
6000.000000	78.410	15.1653
6080.000000	78.495	15.1011
6150.000000	78.563	14.9946
6220.000000	78.628	14.8641
6300.000000	78.722	14.6985
6400.000000	78.883	14.1643
6500.000000	79.047	13.7480
6600.000000	79.211	13.0052
6700.000000	79.385	12.1599
6800.000000	79.560	11.0479
6900.000000	79.723	9.7402
7000.000000	79.885	8.3347
7100.000000	80.022	6.5853
7200.000000	80.149	4.7857
7300.000000	80.185	3.0018
7400.000000	80.432	1.8179
7500.000000	80.602	-0.9907
7620.000000	80.770	-4.1973
7750.000000	80.913	-8.2659
7880.000000	81.010	-12.8073
8000.000000	81.046	-17.7616
8120.000000	80.894	-23.3784
8250.000000	80.555	-29.7874
8380.000000	79.955	-36.4449
8500.000000	79.220	-41.8079
8620.000000	78.281	-46.3711
8750.000000	77.195	-49.6691
8850.000000	76.287	-51.5262
9000.000000	74.982	-52.5287
9120.000000	73.949	-52.3025
9250.000000	72.914	-50.9661
9380.000000	71.925	-48.9706
9500.000000	71.104	-46.2802
9620.000000	70.332	-43.4561
9750.000000	69.598	-40.0050
9880.000000	68.891	-36.0616
10000.000000	68.357	-32.5453
10150.000000	67.697	-27.5640
10300.000000	67.117	-21.8278
10440.000000	66.747	-16.7267
10600.000000	66.392	-10.2925
10750.000000	66.134	-4.2694
10900.000000	65.968	1.5757
11060.000000	65.888	7.9298
11200.000000	65.880	13.2332
11380.000000	65.975	19.4310
11500.000000	66.143	23.6503
11720.000000	66.473	30.1697
11800.000000	66.655	32.4327
12060.000000	67.346	37.9768
12200.000000	67.770	39.9422
12410.000000	68.465	41.7365
12500.000000	68.769	41.9215
12650.000000	69.280	41.1766
12800.000000	69.764	39.5471
13150.000000	70.517	31.2758
13200.000000	70.550	29.7220
13400.000000	70.530	22.9111
13600.000000	70.199	16.6756
13800.000000	69.587	11.5703
14000.000000	68.885	8.5238
14300.000000	67.974	7.3514
14500.000000	67.544	7.9504
14750.000000	67.241	9.6286
15000.000000	67.056	12.0654
15250.000000	67.133	15.9288
15500.000000	67.968	20.1599
15750.000000	69.475	18.8090
16000.000000	70.984	7.0243
16250.000000	69.555	-15.6956
16500.000000	69.742	-17.4418
16750.000000	65.545	-22.3998
17000.000000	68.243	-18.2852
17250.000000	71.235	-45.2525
17500.000000	69.238	-107.2561
17750.000000	63.009	-137.3241
18000.000000	59.209	-150.7751
18250.000000	57.096	-158.0066
18500.000000	55.820	-161.6332
18750.000000	55.159	-159.5675
19000.000000	55.095	-154.0270
19250.000000	55.502	-151.6724
19500.000000	55.853	-148.4692
19750.000000	57.208	-149.1188
