* Measurement data measured by REW V5.30.9
* Source: Microphone (Realtek USB2.0 Audio), MICROPHONE (Master Volume), L, volume: 0.500
* Format: 512k Log Swept Sine, 1 sweep at -12.0 dBFS with no timing reference
* Dated: 02 23, 24 12:33:11 AM
* REW Settings:
*  C-weighting compensation: Off
*  Target level: 75.0 dB
* Note: ; 
* Measurement: phxcall r
* Smoothing: None
* Frequency Step: 1/48 octave
* Start Frequency: 1.000 Hz
*
* Freq(Hz)	SPL(dB)	Phase(degrees)
1.000000	46.599	-64.7673
1.015000	46.357	-65.3956
1.030000	46.106	-66.1590
1.044000	45.866	-67.0062
1.060000	45.584	-68.1044
1.075000	45.313	-69.2321
1.090000	45.034	-70.4267
1.106000	44.729	-71.7442
1.120000	44.456	-72.9084
1.138000	44.095	-74.3834
1.150000	43.849	-75.3319
1.172000	43.385	-76.9464
1.180000	43.213	-77.4800
1.206000	42.639	-78.9506
1.220000	42.322	-79.5395
1.241000	41.834	-80.0962
1.250000	41.620	-80.1989
1.265000	41.259	-80.1670
1.280000	40.890	-79.8578
1.315000	40.002	-77.9053
1.320000	39.872	-77.4709
1.340000	39.345	-75.3045
1.360000	38.782	-72.3367
1.380000	38.132	-68.4051
1.400000	37.407	-63.6154
1.430000	36.212	-55.0833
1.450000	35.368	-48.6712
1.475000	34.289	-40.0518
1.500000	33.211	-30.9787
1.525000	32.166	-21.6857
1.550000	31.186	-12.4060
1.575000	30.302	-3.3732
1.600000	29.547	5.1792
1.625000	28.950	13.0177
1.650000	28.544	19.9088
1.675000	28.361	25.6190
1.700000	28.434	30.1315
1.725000	28.767	33.9632
1.750000	29.325	37.2032
1.775000	30.070	39.9078
1.800000	30.966	42.1336
1.825000	31.975	43.9371
1.850000	33.060	45.3747
1.875000	34.185	46.5030
1.900000	35.312	47.3784
1.925000	36.405	48.0574
1.950000	37.425	48.5965
1.975000	38.337	49.0521
2.000000	39.104	49.4808
2.030000	39.793	49.9947
2.060000	40.341	50.1315
2.090000	40.796	49.8402
2.120000	41.169	49.1915
2.140000	41.379	48.5951
2.180000	41.723	47.1035
2.200000	41.864	46.2499
2.240000	42.103	44.4318
2.270000	42.259	43.0534
2.300000	42.410	41.7407
2.330000	42.567	40.5641
2.360000	42.743	39.5905
2.400000	42.958	38.3805
2.430000	43.090	37.4521
2.470000	43.234	36.2026
2.500000	43.321	35.2679
2.540000	43.418	34.0413
2.580000	43.500	32.8557
2.620000	43.574	31.7315
2.650000	43.631	30.9409
2.690000	43.715	29.9731
2.720000	43.777	29.2993
2.760000	43.844	28.4320
2.800000	43.898	27.6118
2.850000	43.956	26.6723
2.900000	44.013	25.8514
2.950000	44.083	25.1743
3.000000	44.175	24.6660
3.040000	44.272	24.3955
3.070000	44.352	24.2568
3.110000	44.463	24.1497
3.150000	44.582	24.1360
3.200000	44.746	24.2577
3.250000	44.930	24.5426
3.300000	45.140	25.0003
3.350000	45.379	25.6404
3.400000	45.653	26.4743
3.450000	45.959	27.5046
3.500000	46.292	28.7165
3.550000	46.649	30.0944
3.600000	47.025	31.6230
3.650000	47.414	33.2866
3.700000	47.812	35.0698
3.750000	48.227	37.0417
3.820000	48.844	40.1701
3.870000	49.302	42.5706
3.950000	50.049	46.5020
4.000000	50.512	48.9047
4.060000	51.058	51.6419
4.120000	51.605	54.4052
4.180000	52.155	57.1819
4.250000	52.793	60.3205
4.310000	53.330	62.8234
4.370000	53.852	65.0601
4.440000	54.444	67.3169
4.500000	54.940	69.0220
4.550000	55.346	70.2964
4.620000	55.901	71.8800
4.680000	56.365	73.0726
4.750000	56.889	74.2727
4.820000	57.395	75.1934
4.870000	57.746	75.7129
4.940000	58.227	76.3077
5.000000	58.630	76.7482
5.080000	59.157	77.3043
5.150000	59.603	77.6840
5.220000	60.038	77.9698
5.300000	60.525	78.2271
5.380000	61.008	78.4614
5.450000	61.426	78.6518
5.520000	61.838	78.8026
5.600000	62.303	78.9410
5.700000	62.880	79.0878
5.800000	63.457	79.2255
5.900000	64.031	79.3391
6.000000	64.600	79.4148
6.080000	65.051	79.4402
6.150000	65.445	79.4441
6.220000	65.836	79.4284
6.300000	66.278	79.3773
6.400000	66.819	79.2480
6.500000	67.349	79.0436
6.600000	67.867	78.7719
6.700000	68.369	78.4341
6.800000	68.852	78.0220
6.900000	69.319	77.5295
7.000000	69.769	76.9950
7.100000	70.201	76.4538
7.200000	70.613	75.8816
7.300000	71.009	75.2976
7.400000	71.392	74.7397
7.500000	71.761	74.2069
7.620000	72.185	73.5938
7.750000	72.635	73.0256
7.880000	73.073	72.5816
8.000000	73.472	72.2590
8.120000	73.874	72.0110
8.250000	74.312	71.8475
8.380000	74.754	71.7299
8.500000	75.171	71.6229
8.620000	75.595	71.5366
8.750000	76.058	71.3922
8.850000	76.417	71.2315
9.000000	76.958	70.9195
9.120000	77.385	70.5637
9.250000	77.841	70.0626
9.380000	78.288	69.4665
9.500000	78.684	68.8416
9.620000	79.068	68.1372
9.750000	79.466	67.3285
9.880000	79.843	66.4811
10.000000	80.174	65.6679
10.150000	80.566	64.6755
10.300000	80.931	63.6970
10.440000	81.254	62.8462
10.600000	81.603	61.9721
10.750000	81.916	61.2443
10.900000	82.220	60.6226
11.060000	82.537	60.0615
11.200000	82.814	59.6431
11.380000	83.168	59.2020
11.500000	83.407	58.9386
11.720000	83.848	58.5241
11.800000	84.010	58.3735
12.060000	84.537	57.8857
12.200000	84.819	57.5989
12.410000	85.239	57.1381
12.500000	85.416	56.9371
12.650000	85.707	56.5959
12.800000	85.993	56.2480
13.150000	86.622	55.4117
13.200000	86.677	55.2880
13.400000	86.831	54.7897
13.600000	86.932	54.3204
13.800000	86.998	53.8625
14.000000	87.074	53.3902
14.300000	87.190	52.6226
14.500000	87.264	52.0900
14.750000	87.338	51.4505
15.000000	87.403	50.8267
15.250000	87.464	50.2327
15.500000	87.523	49.6956
15.750000	87.572	49.2774
16.000000	87.632	48.9189
16.250000	87.709	48.5772
16.500000	87.802	48.2206
16.750000	87.896	47.8451
17.000000	87.994	47.3929
17.250000	88.094	46.8624
17.500000	88.188	46.2706
17.750000	88.262	45.6844
18.000000	88.327	45.1230
18.250000	88.386	44.6088
18.500000	88.445	44.1622
18.750000	88.502	43.8042
19.000000	88.568	43.4764
19.250000	88.647	43.1405
19.500000	88.734	42.7625
19.750000	88.819	42.3298
20.000000	88.900	41.8238
20.299999	88.988	41.1406
20.600000	89.057	40.4388
20.900000	89.106	39.7913
21.200001	89.147	39.2133
21.400000	89.172	38.8766
21.799999	89.220	38.3214
22.000000	89.247	38.0739
22.400000	89.308	37.6119
22.700001	89.356	37.3149
23.000000	89.411	37.0515
23.299999	89.481	36.7842
23.600000	89.564	36.4844
24.000000	89.692	35.9284
24.299999	89.791	35.3033
24.700001	89.892	34.2341
25.000000	89.928	33.3649
25.400000	89.929	32.3157
25.799999	89.894	31.6633
26.200001	89.879	31.4187
26.500000	89.903	31.3788
26.900000	89.980	31.2732
27.200001	90.061	31.0004
27.600000	90.162	30.3782
28.000000	90.228	29.6009
28.500000	90.270	28.6548
29.000000	90.288	27.9451
29.500000	90.320	27.3848
30.000000	90.366	26.8531
30.400000	90.414	26.3389
30.700001	90.448	25.8992
31.100000	90.481	25.2440
31.500000	90.497	24.5632
32.000000	90.490	23.8745
32.500000	90.489	23.4247
33.000000	90.518	23.1089
33.500000	90.576	22.6560
34.000000	90.625	22.1021
34.500000	90.665	21.6000
35.000000	90.718	21.2064
35.500000	90.795	20.6648
36.000000	90.850	19.9271
36.500000	90.859	19.2416
37.000000	90.859	18.9430
37.500000	90.920	18.7936
38.200001	91.056	17.9083
38.700001	91.076	16.8493
39.500000	90.974	16.0013
40.000000	90.969	16.0802
40.599998	91.051	15.7989
41.200001	91.091	15.0076
41.799999	91.070	14.4976
42.500000	91.122	14.3255
43.099998	91.222	13.5961
43.700001	91.227	12.4021
44.400002	91.123	11.8033
45.000000	91.118	12.0468
45.500000	91.206	12.0050
46.200001	91.330	11.0832
46.799999	91.347	9.9885
47.500000	91.292	9.0507
48.200001	91.240	8.6170
48.700001	91.248	8.4425
49.400002	91.316	7.7826
50.000000	91.323	6.6329
50.799999	91.151	5.6016
51.500000	91.050	6.2551
52.200001	91.206	6.8281
53.000000	91.404	5.6679
53.799999	91.386	4.3751
54.500000	91.363	4.0044
55.200001	91.380	3.5470
56.000000	91.348	3.0775
57.000000	91.374	2.9708
58.000000	91.411	2.1290
59.000000	91.382	1.6621
60.000000	91.431	0.9844
60.799999	91.416	0.2445
61.500000	91.411	-0.1233
62.200001	91.437	-0.5998
63.000000	91.443	-1.2948
64.000000	91.436	-1.9514
65.000000	91.426	-2.5279
66.000000	91.436	-2.9466
67.000000	91.446	-3.6114
68.000000	91.430	-4.1712
69.000000	91.430	-4.8179
70.000000	91.400	-5.3174
71.000000	91.428	-5.7813
72.000000	91.432	-6.4585
73.000000	91.434	-6.9795
74.000000	91.421	-7.5633
75.000000	91.412	-8.0680
76.199997	91.336	-8.7241
77.500000	91.357	-8.9874
78.800003	91.251	-9.7234
80.000000	91.416	-9.5513
81.199997	91.410	-11.7139
82.500000	91.334	-11.8008
83.800003	91.314	-12.9187
85.000000	91.279	-12.9090
86.199997	91.309	-13.5568
87.500000	91.291	-14.1159
88.500000	91.271	-14.4467
90.000000	91.301	-15.1701
91.199997	91.201	-15.7323
92.500000	91.209	-16.1026
93.800003	91.124	-16.8227
95.000000	91.128	-17.4988
96.199997	91.045	-17.9371
97.500000	91.116	-18.6426
98.800003	91.033	-18.6446
100.000000	91.118	-19.0753
101.500000	91.120	-18.5759
103.000000	91.110	-20.6181
104.400002	91.039	-20.5090
106.000000	90.907	-21.7782
107.500000	90.930	-22.0671
109.000000	90.929	-22.4893
110.599998	90.854	-23.6017
112.000000	90.753	-23.4688
113.800003	90.765	-24.3887
115.000000	90.742	-25.1360
117.199997	90.745	-25.6905
118.000000	90.758	-25.9317
120.599998	90.733	-27.1396
122.000000	90.619	-27.4844
124.099998	90.560	-28.5740
125.000000	90.457	-29.7327
126.500000	90.278	-28.2673
128.000000	90.604	-27.8110
131.500000	90.584	-29.8827
132.000000	90.585	-30.5076
134.000000	90.401	-30.9588
136.000000	90.370	-31.9393
138.000000	90.353	-32.4046
140.000000	90.331	-32.7997
143.000000	90.207	-33.7203
145.000000	90.185	-34.2887
147.500000	90.121	-35.2929
150.000000	90.029	-36.0009
152.500000	89.928	-36.5167
155.000000	89.893	-36.5872
157.500000	89.839	-36.6953
160.000000	89.796	-37.2219
162.500000	89.765	-37.7412
165.000000	89.743	-38.3568
167.500000	89.682	-38.9179
170.000000	89.633	-39.6512
172.500000	89.571	-40.1647
175.000000	89.512	-40.8310
177.500000	89.448	-41.3357
180.000000	89.381	-41.6983
182.500000	89.296	-42.3793
185.000000	89.222	-42.9695
187.500000	89.150	-43.5165
190.000000	89.089	-44.0752
192.500000	89.013	-44.4857
195.000000	88.937	-44.9042
197.500000	88.862	-45.3929
200.000000	88.790	-46.0140
203.000000	88.712	-46.4810
206.000000	88.661	-46.9557
209.000000	88.578	-47.4635
212.000000	88.508	-47.9569
214.000000	88.445	-48.2587
218.000000	88.339	-48.7824
220.000000	88.297	-49.1480
224.000000	88.172	-49.5572
227.000000	88.080	-49.8645
230.000000	87.988	-50.0406
233.000000	87.899	-50.3505
236.000000	87.783	-50.4511
240.000000	87.649	-50.2985
243.000000	87.596	-49.9909
247.000000	87.526	-49.2277
250.000000	87.538	-48.4191
254.000000	87.679	-47.5353
258.000000	87.941	-47.4956
262.000000	88.201	-48.6067
265.000000	88.328	-50.0304
269.000000	88.381	-52.1687
272.000000	88.337	-53.6697
276.000000	88.248	-55.3538
280.000000	88.128	-56.7181
285.000000	87.962	-58.0131
290.000000	87.808	-59.1333
295.000000	87.635	-60.0813
300.000000	87.460	-60.7498
304.000000	87.414	-60.9937
307.000000	87.363	-61.7080
311.000000	87.246	-62.3789
315.000000	87.139	-63.0081
320.000000	87.019	-63.6347
325.000000	86.888	-64.3069
330.000000	86.766	-64.8655
335.000000	86.649	-65.3735
340.000000	86.516	-65.8335
345.000000	86.406	-66.3508
350.000000	86.300	-66.7989
355.000000	86.166	-67.2557
360.000000	86.051	-68.2202
365.000000	85.967	-67.9970
370.000000	85.849	-68.3268
375.000000	85.758	-68.7416
382.000000	85.625	-69.2296
387.000000	85.527	-69.5202
395.000000	85.373	-69.9687
400.000000	85.276	-70.2512
406.000000	85.162	-70.6679
412.000000	85.057	-70.9693
418.000000	84.942	-71.2663
425.000000	84.813	-71.6175
431.000000	84.701	-71.7643
437.000000	84.578	-71.9135
444.000000	84.454	-72.1574
450.000000	84.372	-72.2612
455.000000	84.301	-72.4116
462.000000	84.186	-72.6273
468.000000	84.081	-72.7592
475.000000	83.965	-72.8169
482.000000	83.857	-73.0156
487.000000	83.776	-73.1168
494.000000	83.669	-73.2323
500.000000	83.572	-73.2757
508.000000	83.449	-73.4084
515.000000	83.333	-73.3302
522.000000	83.221	-73.3352
530.000000	83.103	-73.2971
538.000000	82.978	-73.2209
545.000000	82.873	-73.1022
552.000000	82.772	-72.8780
560.000000	82.638	-72.5825
570.000000	82.494	-72.1466
580.000000	82.346	-71.6438
590.000000	82.213	-71.0991
600.000000	82.075	-70.4351
608.000000	82.014	-69.7066
615.000000	81.938	-69.0973
622.000000	81.900	-68.5161
630.000000	81.857	-67.8233
640.000000	81.814	-66.8474
650.000000	81.776	-65.8323
660.000000	81.754	-64.8540
670.000000	81.757	-63.9184
680.000000	81.792	-63.1046
690.000000	81.830	-62.3113
700.000000	81.888	-61.5156
710.000000	81.938	-60.8693
720.000000	81.991	-60.2268
730.000000	82.057	-59.6337
740.000000	82.114	-59.1955
750.000000	82.190	-58.6357
762.000000	82.251	-58.0869
775.000000	82.325	-57.4386
788.000000	82.414	-56.8559
800.000000	82.498	-56.2705
812.000000	82.583	-55.7059
825.000000	82.670	-55.1363
838.000000	82.756	-54.5450
850.000000	82.852	-53.9362
862.000000	82.951	-53.3187
875.000000	83.068	-52.7334
885.000000	83.156	-52.2245
900.000000	83.307	-51.5790
912.000000	83.431	-51.0030
925.000000	83.579	-50.3690
938.000000	83.725	-49.7953
950.000000	83.882	-49.2848
962.000000	84.036	-48.8252
975.000000	84.211	-48.2866
988.000000	84.396	-47.8364
1000.000000	84.570	-47.4398
1015.000000	84.795	-46.9917
1030.000000	85.038	-46.6030
1044.000000	85.267	-46.2829
1060.000000	85.538	-46.0315
1075.000000	85.795	-45.8470
1090.000000	86.055	-45.7503
1106.000000	86.339	-45.7215
1120.000000	86.598	-45.7513
1138.000000	86.926	-45.9344
1150.000000	87.151	-46.0701
1172.000000	87.558	-46.5005
1180.000000	87.702	-46.7006
1206.000000	88.189	-47.4611
1220.000000	88.455	-48.0252
1241.000000	88.854	-48.9095
1250.000000	89.020	-49.3190
1265.000000	89.298	-50.0986
1280.000000	89.580	-51.0016
1315.000000	90.223	-53.3178
1320.000000	90.312	-53.7089
1340.000000	90.668	-55.2959
1360.000000	91.006	-57.0239
1380.000000	91.327	-58.8780
1400.000000	91.633	-60.8372
1430.000000	92.066	-64.0243
1450.000000	92.324	-66.3351
1475.000000	92.602	-69.2850
1500.000000	92.842	-72.3389
1525.000000	93.032	-75.4548
1550.000000	93.171	-78.5700
1575.000000	93.271	-81.5994
1600.000000	93.325	-84.6039
1625.000000	93.336	-87.4457
1650.000000	93.304	-90.2074
1675.000000	93.259	-92.7120
1700.000000	93.182	-95.1604
1725.000000	93.083	-97.3564
1750.000000	92.963	-99.3571
1775.000000	92.824	-101.1444
1800.000000	92.689	-102.8196
1825.000000	92.551	-104.2861
1850.000000	92.413	-105.6307
1875.000000	92.284	-106.7907
1900.000000	92.140	-107.9611
1925.000000	92.007	-108.9571
1950.000000	91.877	-109.8750
1975.000000	91.748	-110.6559
2000.000000	91.630	-111.3879
2030.000000	91.494	-112.1408
2060.000000	91.365	-112.7963
2090.000000	91.252	-113.3335
2120.000000	91.151	-113.7893
2140.000000	91.093	-114.1031
2180.000000	90.984	-114.6100
2200.000000	90.933	-114.8263
2240.000000	90.845	-115.3043
2270.000000	90.790	-115.5229
2300.000000	90.741	-115.7785
2330.000000	90.700	-115.9731
2360.000000	90.674	-116.1413
2400.000000	90.652	-116.3682
2430.000000	90.640	-116.4669
2470.000000	90.640	-116.6199
2500.000000	90.658	-116.7319
2540.000000	90.710	-116.8650
2580.000000	90.770	-117.0461
2620.000000	90.879	-117.1468
2650.000000	90.953	-117.3135
2690.000000	91.087	-117.5600
2720.000000	91.221	-118.0127
2760.000000	91.394	-118.5405
2800.000000	91.576	-119.5692
2850.000000	91.743	-120.6864
2900.000000	91.904	-122.2422
2950.000000	92.087	-123.4787
3000.000000	92.198	-125.1795
3040.000000	92.280	-126.0791
3070.000000	92.399	-127.0785
3110.000000	92.482	-127.9934
3150.000000	92.567	-129.5032
3200.000000	92.602	-130.5497
3250.000000	92.777	-131.8582
3300.000000	92.972	-132.6931
3350.000000	93.063	-134.4585
3400.000000	93.208	-136.8449
3450.000000	93.305	-138.9202
3500.000000	93.405	-140.0142
3550.000000	93.469	-142.3377
3600.000000	93.481	-143.0886
3650.000000	93.456	-145.3775
3700.000000	93.537	-147.2070
3750.000000	93.470	-147.6564
3820.000000	93.525	-149.9319
3870.000000	93.558	-150.4810
3950.000000	93.626	-152.3546
4000.000000	93.460	-153.7836
4060.000000	93.412	-154.7192
4120.000000	93.613	-156.6724
4180.000000	93.613	-157.3739
4250.000000	93.622	-158.8168
4310.000000	93.635	-159.5667
4370.000000	93.512	-162.2670
4440.000000	93.416	-163.4656
4500.000000	93.311	-164.6182
4550.000000	93.231	-165.7422
4620.000000	93.196	-166.3321
4680.000000	92.943	-167.6486
4750.000000	92.825	-167.8038
4820.000000	92.557	-169.4091
4870.000000	92.476	-169.5732
4940.000000	92.298	-169.2300
5000.000000	92.207	-169.5228
5080.000000	91.849	-168.5945
5150.000000	91.652	-167.5988
5220.000000	91.526	-167.1247
5300.000000	91.343	-165.7509
5380.000000	91.225	-164.5274
5450.000000	91.460	-163.1481
5520.000000	91.512	-162.3657
5600.000000	91.753	-162.5150
5700.000000	91.801	-163.9360
5800.000000	91.877	-165.2129
5900.000000	91.912	-167.6863
6000.000000	91.750	-170.8731
6080.000000	91.343	-173.0105
6150.000000	90.903	-173.7476
6220.000000	90.544	-175.1192
6300.000000	90.237	-175.1366
6400.000000	89.865	-175.6463
6500.000000	89.294	-175.7540
6600.000000	88.974	-173.0608
6700.000000	88.768	-172.3755
6800.000000	88.635	-170.3815
6900.000000	88.460	-167.3309
7000.000000	88.362	-165.3432
7100.000000	88.749	-162.8394
7200.000000	89.430	-161.1729
7300.000000	89.905	-161.9943
7400.000000	90.446	-160.6537
7500.000000	91.290	-163.3800
7620.000000	92.309	-165.1312
7750.000000	93.252	-171.5858
7880.000000	94.235	178.5724
8000.000000	94.907	168.5743
8120.000000	94.416	156.9852
8250.000000	93.386	146.9114
8380.000000	92.064	140.2166
8500.000000	90.964	136.5421
8620.000000	89.622	135.9591
8750.000000	88.710	136.7454
8850.000000	87.901	137.9390
9000.000000	86.939	140.1438
9120.000000	86.330	144.1454
9250.000000	85.721	147.4801
9380.000000	85.228	151.2803
9500.000000	84.873	153.5275
9620.000000	84.290	157.4379
9750.000000	83.884	160.7817
9880.000000	83.494	164.3439
10000.000000	83.271	169.0291
10150.000000	82.961	174.3868
10300.000000	82.641	178.2887
10440.000000	82.609	-176.7271
10600.000000	82.392	-172.6292
10750.000000	82.236	-170.4721
10900.000000	82.147	-167.1114
11060.000000	81.841	-165.7508
11200.000000	81.825	-164.7834
11380.000000	81.303	-163.2978
11500.000000	81.076	-163.8525
11720.000000	81.001	-165.0161
11800.000000	80.914	-166.3931
12060.000000	80.514	-173.8861
12200.000000	80.152	-178.5289
12410.000000	79.793	173.9992
12500.000000	79.651	171.3388
12650.000000	79.444	166.3309
12800.000000	79.359	162.1108
13150.000000	79.566	156.7975
13200.000000	79.663	157.1218
13400.000000	79.838	156.3706
13600.000000	80.061	157.8342
13800.000000	80.484	160.8481
14000.000000	80.636	165.3127
14300.000000	81.562	172.4277
14500.000000	82.212	178.1130
14750.000000	83.597	-178.5021
15000.000000	84.910	178.7598
15250.000000	84.381	167.7360
15500.000000	85.620	178.2458
15750.000000	83.064	153.7793
16000.000000	78.681	150.2840
16250.000000	75.092	156.5358
16500.000000	71.224	163.9477
16750.000000	67.155	172.1435
17000.000000	62.291	171.3311
17250.000000	58.094	141.0263
17500.000000	62.273	100.5065
17750.000000	66.686	88.3049
18000.000000	69.275	93.1224
18250.000000	71.206	101.8225
18500.000000	73.065	114.1451
18750.000000	74.900	123.0643
19000.000000	75.822	129.2679
19250.000000	75.707	139.4431
19500.000000	75.492	156.3687
19750.000000	75.979	-178.3178
