* Measurement data measured by REW V5.30.9
* Source: Microphone (Realtek USB2.0 Audio), MICROPHONE (Master Volume), L, volume: 0.500
* Format: 512k Log Swept Sine, 1 sweep at -12.0 dBFS with no timing reference
* Dated: 02 23, 24 4:11:19 PM
* REW Settings:
*  C-weighting compensation: Off
*  Target level: 75.0 dB
* Note: ; 
* Measurement: polaris dddd l
* Smoothing: None
* Frequency Step: 1/48 octave
* Start Frequency: 1.000 Hz
*
* Freq(Hz)	SPL(dB)	Phase(degrees)
1.000000	48.787	-75.8298
1.015000	48.612	-76.6758
1.030000	48.440	-77.5568
1.044000	48.282	-78.4140
1.060000	48.103	-79.4258
1.075000	47.937	-80.3969
1.090000	47.770	-81.3812
1.106000	47.590	-82.4362
1.120000	47.429	-83.3557
1.138000	47.217	-84.5214
1.150000	47.070	-85.2817
1.172000	46.790	-86.6243
1.180000	46.683	-87.0919
1.206000	46.317	-88.5149
1.220000	46.105	-89.2088
1.241000	45.765	-90.1360
1.250000	45.611	-90.4866
1.265000	45.341	-91.0020
1.280000	45.054	-91.4239
1.315000	44.310	-91.9970
1.320000	44.194	-92.0273
1.340000	43.708	-92.0071
1.360000	43.159	-91.8004
1.380000	42.499	-91.5415
1.400000	41.743	-91.2209
1.430000	40.468	-90.5832
1.450000	39.551	-90.0260
1.475000	38.360	-89.1480
1.500000	37.153	-88.0339
1.525000	35.966	-86.6472
1.550000	34.834	-84.9509
1.575000	33.793	-82.9084
1.600000	32.878	-80.4830
1.625000	32.124	-77.6380
1.650000	31.567	-74.3365
1.675000	31.243	-70.5419
1.700000	31.176	-66.0415
1.725000	31.344	-60.4215
1.750000	31.714	-53.8545
1.775000	32.256	-46.5461
1.800000	32.941	-38.7021
1.825000	33.739	-30.5281
1.850000	34.619	-22.2297
1.875000	35.551	-14.0128
1.900000	36.505	-6.0829
1.925000	37.451	1.3542
1.950000	38.360	8.0929
1.975000	39.200	13.9275
2.000000	39.942	18.6523
2.030000	40.674	22.6116
2.060000	41.346	25.0018
2.090000	41.995	26.1153
2.120000	42.621	26.1591
2.140000	43.025	25.6962
2.180000	43.803	23.8654
2.200000	44.178	22.6203
2.240000	44.897	19.7769
2.270000	45.411	17.5771
2.300000	45.903	15.5496
2.330000	46.375	13.9013
2.360000	46.826	12.8287
2.400000	47.381	11.6665
2.430000	47.761	10.7419
2.470000	48.227	9.4640
2.500000	48.551	8.4893
2.540000	48.957	7.1933
2.580000	49.341	5.9309
2.620000	49.714	4.7340
2.650000	49.991	3.8984
2.690000	50.364	2.8929
2.720000	50.644	2.2049
2.760000	51.001	1.3224
2.800000	51.341	0.4910
2.850000	51.750	-0.4569
2.900000	52.146	-1.2803
2.950000	52.534	-1.9542
3.000000	52.923	-2.4540
3.040000	53.236	-2.7144
3.070000	53.469	-2.8479
3.110000	53.776	-2.9513
3.150000	54.078	-2.9608
3.200000	54.452	-2.8269
3.250000	54.824	-2.5145
3.300000	55.197	-2.0056
3.350000	55.573	-1.2826
3.400000	55.953	-0.3319
3.450000	56.334	0.8367
3.500000	56.716	2.2097
3.550000	57.098	3.7737
3.600000	57.481	5.5155
3.650000	57.866	7.4218
3.700000	58.252	9.4793
3.750000	58.640	11.7674
3.820000	59.187	15.4092
3.870000	59.579	18.2112
3.950000	60.206	22.8123
4.000000	60.596	25.6325
4.060000	61.060	28.8553
4.120000	61.524	32.1236
4.180000	61.987	35.4191
4.250000	62.523	39.1532
4.310000	62.977	42.1348
4.370000	63.424	44.7995
4.440000	63.939	47.4997
4.500000	64.374	49.5549
4.550000	64.733	51.0937
4.620000	65.228	52.9959
4.680000	65.645	54.4046
4.750000	66.121	55.7822
4.820000	66.587	56.8085
4.870000	66.914	57.3617
4.940000	67.364	57.9467
5.000000	67.743	58.3272
5.080000	68.236	58.7289
5.150000	68.657	58.8907
5.220000	69.069	58.8918
5.300000	69.529	58.7619
5.380000	69.979	58.5653
5.450000	70.364	58.3338
5.520000	70.741	58.0077
5.600000	71.162	57.5636
5.700000	71.676	56.9777
5.800000	72.179	56.3954
5.900000	72.668	55.7696
6.000000	73.146	55.1387
6.080000	73.521	54.6569
6.150000	73.844	54.2497
6.220000	74.162	53.8495
6.300000	74.520	53.3978
6.400000	74.960	52.8365
6.500000	75.392	52.2876
6.600000	75.815	51.7451
6.700000	76.230	51.1875
6.800000	76.637	50.6002
6.900000	77.037	49.9924
7.000000	77.428	49.3671
7.100000	77.813	48.7256
7.200000	78.190	48.0658
7.300000	78.559	47.3903
7.400000	78.922	46.7033
7.500000	79.278	45.9984
7.620000	79.696	45.1347
7.750000	80.139	44.2164
7.880000	80.572	43.3232
8.000000	80.962	42.5187
8.120000	81.345	41.7460
8.250000	81.751	40.9440
8.380000	82.148	40.1740
8.500000	82.507	39.4913
8.620000	82.859	38.8360
8.750000	83.232	38.1495
8.850000	83.513	37.6388
9.000000	83.925	36.8977
9.120000	84.245	36.3112
9.250000	84.584	35.6793
9.380000	84.914	35.0588
9.500000	85.210	34.5001
9.620000	85.499	33.9533
9.750000	85.805	33.3767
9.880000	86.103	32.8172
10.000000	86.371	32.3159
10.150000	86.699	31.7126
10.300000	87.019	31.1340
10.440000	87.312	30.6222
10.600000	87.642	30.0770
10.750000	87.945	29.5938
10.900000	88.244	29.1312
11.060000	88.557	28.6582
11.200000	88.828	28.2513
11.380000	89.170	27.7405
11.500000	89.393	27.4062
11.720000	89.794	26.8067
11.800000	89.936	26.5923
12.060000	90.388	25.9087
12.200000	90.623	25.5505
12.410000	90.966	25.0294
12.500000	91.111	24.8203
12.650000	91.347	24.4916
12.800000	91.579	24.1743
13.150000	92.091	23.4585
13.200000	92.131	23.3529
13.400000	92.222	22.9265
13.600000	92.262	22.5175
13.800000	92.267	22.1128
14.000000	92.280	21.6903
14.300000	92.299	21.0162
14.500000	92.307	20.5665
14.750000	92.301	20.0606
15.000000	92.293	19.5886
15.250000	92.288	19.1380
15.500000	92.288	18.7103
15.750000	92.282	18.3382
16.000000	92.285	17.9540
16.250000	92.297	17.5326
16.500000	92.315	17.0683
16.750000	92.322	16.6012
17.000000	92.325	16.1166
17.250000	92.327	15.6270
17.500000	92.328	15.1522
17.750000	92.318	14.7381
18.000000	92.311	14.3583
18.250000	92.311	14.0003
18.500000	92.317	13.6547
18.750000	92.323	13.3253
19.000000	92.334	12.9742
19.250000	92.349	12.5927
19.500000	92.365	12.1819
19.750000	92.371	11.7714
20.000000	92.374	11.3578
20.299999	92.373	10.8760
20.600000	92.367	10.4473
20.900000	92.355	10.0991
21.200001	92.350	9.8022
21.400000	92.352	9.6271
21.799999	92.359	9.3168
22.000000	92.367	9.1491
22.400000	92.389	8.7578
22.700001	92.400	8.4386
23.000000	92.404	8.1089
23.299999	92.405	7.7762
23.600000	92.400	7.4804
24.000000	92.392	7.1641
24.299999	92.394	6.9322
24.700001	92.400	6.5972
25.000000	92.404	6.2936
25.400000	92.401	5.7945
25.799999	92.375	5.3015
26.200001	92.336	4.8864
26.500000	92.305	4.6587
26.900000	92.270	4.4569
27.200001	92.257	4.3084
27.600000	92.251	4.0625
28.000000	92.246	3.7408
28.500000	92.237	3.2276
29.000000	92.212	2.7049
29.500000	92.178	2.1883
30.000000	92.127	1.7774
30.400000	92.085	1.5671
30.700001	92.059	1.5194
31.100000	92.047	1.5551
31.500000	92.072	1.5528
32.000000	92.131	1.2921
32.500000	92.176	0.6457
33.000000	92.160	-0.0773
33.500000	92.105	-0.5797
34.000000	92.052	-0.7316
34.500000	92.041	-0.7823
35.000000	92.051	-0.9638
35.500000	92.054	-1.3477
36.000000	92.026	-1.7229
36.500000	91.987	-1.9731
37.000000	91.959	-2.0798
37.500000	91.955	-2.2229
38.200001	91.950	-2.6197
38.700001	91.930	-2.9418
39.500000	91.903	-3.2991
40.000000	91.905	-3.5880
40.599998	91.896	-4.1506
41.200001	91.846	-4.6334
41.799999	91.803	-4.8354
42.500000	91.802	-5.1661
43.099998	91.769	-5.6890
43.700001	91.691	-5.8637
44.400002	91.687	-5.5478
45.000000	91.762	-5.8464
45.500000	91.757	-6.5910
46.200001	91.603	-7.0717
46.799999	91.515	-6.4569
47.500000	91.580	-5.9702
48.200001	91.614	-6.3692
48.700001	91.577	-6.5254
49.400002	91.567	-6.3597
50.000000	91.604	-6.5362
50.799999	91.583	-7.1418
51.500000	91.538	-7.3194
52.200001	91.547	-7.5419
53.000000	91.533	-8.2909
53.799999	91.430	-8.9343
54.500000	91.321	-8.8719
55.200001	91.308	-8.3277
56.000000	91.437	-8.3586
57.000000	91.479	-9.8111
58.000000	91.367	-10.5600
59.000000	91.283	-11.1228
60.000000	91.142	-11.0486
60.799999	91.151	-10.5300
61.500000	91.213	-10.5213
62.200001	91.260	-10.7379
63.000000	91.314	-11.1834
64.000000	91.287	-12.1476
65.000000	91.159	-12.2673
66.000000	91.152	-12.1143
67.000000	91.090	-12.5947
68.000000	91.003	-12.4449
69.000000	91.024	-12.7532
70.000000	90.932	-13.3920
71.000000	90.891	-13.3197
72.000000	90.905	-13.7226
73.000000	90.870	-13.9270
74.000000	90.862	-14.1853
75.000000	90.766	-14.2395
76.199997	90.735	-13.8171
77.500000	90.663	-13.8330
78.800003	90.661	-14.4136
80.000000	90.404	-14.9525
81.199997	90.443	-14.0268
82.500000	90.492	-15.4532
83.800003	90.397	-15.9179
85.000000	90.334	-16.0601
86.199997	90.348	-16.1095
87.500000	90.248	-16.3154
88.500000	90.291	-15.9312
90.000000	90.255	-16.9399
91.199997	90.157	-16.9526
92.500000	90.019	-16.5875
93.800003	90.036	-15.4930
95.000000	90.115	-15.7673
96.199997	90.017	-16.0480
97.500000	89.935	-15.8828
98.800003	90.050	-15.0690
100.000000	90.088	-17.1856
101.500000	90.031	-16.3797
103.000000	89.761	-17.9148
104.400002	89.939	-15.7015
106.000000	89.815	-16.4401
107.500000	89.852	-16.9772
109.000000	89.747	-16.5795
110.599998	89.779	-17.6192
112.000000	89.745	-17.5494
113.800003	89.763	-17.3954
115.000000	89.690	-17.2645
117.199997	89.426	-17.3670
118.000000	89.483	-16.9513
120.599998	88.754	-13.7990
122.000000	89.498	-17.5903
124.099998	89.500	-18.1985
125.000000	89.404	-18.7122
126.500000	89.458	-18.2453
128.000000	89.320	-18.0521
131.500000	89.284	-18.2779
132.000000	89.289	-18.5198
134.000000	89.305	-18.6724
136.000000	89.337	-18.5812
138.000000	89.269	-18.5537
140.000000	89.215	-18.4931
143.000000	89.200	-19.0426
145.000000	89.183	-18.9218
147.500000	89.162	-19.1049
150.000000	89.102	-19.3305
152.500000	89.073	-19.6278
155.000000	89.027	-19.7287
157.500000	88.999	-19.9832
160.000000	88.957	-20.0369
162.500000	88.863	-20.3861
165.000000	88.821	-20.7152
167.500000	88.736	-20.7372
170.000000	88.661	-20.7589
172.500000	88.589	-20.8365
175.000000	88.533	-20.7547
177.500000	88.445	-20.9861
180.000000	88.411	-20.8332
182.500000	88.297	-21.2535
185.000000	88.225	-21.1093
187.500000	88.140	-21.1808
190.000000	88.097	-21.0932
192.500000	88.004	-21.1045
195.000000	87.940	-20.9623
197.500000	87.876	-20.9799
200.000000	87.810	-20.9513
203.000000	87.744	-20.8177
206.000000	87.673	-20.5631
209.000000	87.622	-20.4082
212.000000	87.554	-20.2156
214.000000	87.515	-20.1318
218.000000	87.463	-19.7211
220.000000	87.443	-19.4790
224.000000	87.410	-18.9008
227.000000	87.395	-18.8195
230.000000	87.424	-18.8280
233.000000	87.434	-18.8518
236.000000	87.377	-18.6685
240.000000	87.401	-18.4736
243.000000	87.308	-19.0087
247.000000	87.293	-18.9833
250.000000	87.235	-19.0549
254.000000	87.193	-18.9463
258.000000	87.128	-19.0335
262.000000	87.082	-18.9397
265.000000	87.034	-18.7298
269.000000	86.951	-18.9592
272.000000	86.912	-18.7075
276.000000	86.854	-18.6740
280.000000	86.801	-18.6456
285.000000	86.744	-18.4061
290.000000	86.677	-18.1832
295.000000	86.612	-18.0166
300.000000	86.540	-17.7783
304.000000	86.491	-17.6750
307.000000	86.462	-17.7258
311.000000	86.407	-17.4911
315.000000	86.359	-17.1503
320.000000	86.310	-16.9564
325.000000	86.248	-16.7605
330.000000	86.199	-16.5298
335.000000	86.148	-16.2746
340.000000	86.095	-16.0185
345.000000	86.049	-15.8300
350.000000	86.003	-15.5560
355.000000	85.946	-15.3553
360.000000	85.924	-14.4944
365.000000	85.856	-14.7991
370.000000	85.811	-14.4561
375.000000	85.773	-14.3749
382.000000	85.723	-14.0215
387.000000	85.679	-13.7565
395.000000	85.617	-13.3077
400.000000	85.571	-13.0887
406.000000	85.534	-12.7505
412.000000	85.486	-12.5037
418.000000	85.446	-12.1610
425.000000	85.406	-11.7628
431.000000	85.367	-11.4435
437.000000	85.328	-11.1080
444.000000	85.286	-10.7125
450.000000	85.258	-10.4770
455.000000	85.218	-10.1833
462.000000	85.162	-9.6642
468.000000	85.135	-9.4502
475.000000	85.091	-9.0410
482.000000	85.057	-8.7042
487.000000	85.036	-8.4070
494.000000	84.994	-7.9732
500.000000	84.989	-7.6688
508.000000	84.941	-7.1911
515.000000	84.907	-6.8386
522.000000	84.879	-6.4749
530.000000	84.845	-5.9699
538.000000	84.806	-5.5765
545.000000	84.780	-5.2076
552.000000	84.764	-4.7567
560.000000	84.729	-4.2892
570.000000	84.691	-3.7809
580.000000	84.670	-3.1798
590.000000	84.642	-2.6114
600.000000	84.608	-2.0811
608.000000	84.591	-1.5535
615.000000	84.577	-1.2486
622.000000	84.546	-0.7426
630.000000	84.541	-0.3515
640.000000	84.514	0.2551
650.000000	84.488	0.8907
660.000000	84.472	1.3960
670.000000	84.451	2.0523
680.000000	84.438	2.5954
690.000000	84.415	3.1543
700.000000	84.394	3.7413
710.000000	84.348	4.6308
720.000000	84.364	5.4998
730.000000	84.392	6.2623
740.000000	84.418	6.7858
750.000000	84.431	7.3471
762.000000	84.442	8.0050
775.000000	84.460	8.7940
788.000000	84.471	9.5831
800.000000	84.490	10.2316
812.000000	84.504	11.0026
825.000000	84.523	11.8122
838.000000	84.538	12.5997
850.000000	84.579	13.3466
862.000000	84.597	14.1131
875.000000	84.639	14.9351
885.000000	84.672	15.5431
900.000000	84.733	16.4801
912.000000	84.782	17.1950
925.000000	84.843	17.9644
938.000000	84.908	18.6840
950.000000	84.975	19.3142
962.000000	85.036	20.0007
975.000000	85.115	20.6523
988.000000	85.200	21.2953
1000.000000	85.278	21.8436
1015.000000	85.377	22.4967
1030.000000	85.484	23.1241
1044.000000	85.575	23.6620
1060.000000	85.692	24.2113
1075.000000	85.796	24.7246
1090.000000	85.904	25.1581
1106.000000	86.025	25.6199
1120.000000	86.120	25.9736
1138.000000	86.250	26.3562
1150.000000	86.335	26.5663
1172.000000	86.490	26.9463
1180.000000	86.540	27.0913
1206.000000	86.707	27.4031
1220.000000	86.794	27.5895
1241.000000	86.915	27.8041
1250.000000	86.972	27.8554
1265.000000	87.062	27.9710
1280.000000	87.146	28.1287
1315.000000	87.334	28.3504
1320.000000	87.352	28.4116
1340.000000	87.455	28.5538
1360.000000	87.550	28.6672
1380.000000	87.645	28.8054
1400.000000	87.736	28.9245
1430.000000	87.860	29.1421
1450.000000	87.953	29.2817
1475.000000	88.061	29.5109
1500.000000	88.160	29.6754
1525.000000	88.261	29.9486
1550.000000	88.358	30.1426
1575.000000	88.458	30.3421
1600.000000	88.557	30.5914
1625.000000	88.653	30.8137
1650.000000	88.749	31.0144
1675.000000	88.853	31.2840
1700.000000	88.947	31.5363
1725.000000	89.047	31.8025
1750.000000	89.151	32.0055
1775.000000	89.256	32.2383
1800.000000	89.364	32.5054
1825.000000	89.465	32.7397
1850.000000	89.574	32.9741
1875.000000	89.681	33.1396
1900.000000	89.797	33.3721
1925.000000	89.909	33.6195
1950.000000	90.016	33.7768
1975.000000	90.132	33.9693
2000.000000	90.245	34.1196
2030.000000	90.391	34.3049
2060.000000	90.539	34.4854
2090.000000	90.691	34.6709
2120.000000	90.838	34.7940
2140.000000	90.939	34.8285
2180.000000	91.143	34.9516
2200.000000	91.243	34.9854
2240.000000	91.452	35.0650
2270.000000	91.608	35.0665
2300.000000	91.765	35.0397
2330.000000	91.924	34.9926
2360.000000	92.081	34.8928
2400.000000	92.292	34.7201
2430.000000	92.448	34.5868
2470.000000	92.661	34.2864
2500.000000	92.808	34.0847
2540.000000	93.035	33.7229
2580.000000	93.244	33.2479
2620.000000	93.455	32.7137
2650.000000	93.595	32.3321
2690.000000	93.787	31.8508
2720.000000	93.959	31.3393
2760.000000	94.172	30.8357
2800.000000	94.392	29.8525
2850.000000	94.621	28.8085
2900.000000	94.821	27.2774
2950.000000	95.048	26.1672
3000.000000	95.186	24.5147
3040.000000	95.298	23.5828
3070.000000	95.427	22.5265
3110.000000	95.507	21.4466
3150.000000	95.593	19.7290
3200.000000	95.593	18.2798
3250.000000	95.670	16.6115
3300.000000	95.724	15.6120
3350.000000	95.665	13.8974
3400.000000	95.651	11.8678
3450.000000	95.610	10.2966
3500.000000	95.603	9.7595
3550.000000	95.572	7.9211
3600.000000	95.489	7.4992
3650.000000	95.362	5.4954
3700.000000	95.328	3.9219
3750.000000	95.148	3.6923
3820.000000	95.012	1.7465
3870.000000	94.905	1.4554
3950.000000	94.729	0.0722
4000.000000	94.393	-1.0108
4060.000000	94.143	-1.3686
4120.000000	94.142	-2.6455
4180.000000	93.950	-2.5598
4250.000000	93.732	-2.8571
4310.000000	93.574	-2.5636
4370.000000	93.308	-4.1205
4440.000000	93.079	-3.9802
4500.000000	92.879	-4.0066
4550.000000	92.746	-4.2509
4620.000000	92.652	-3.6150
4680.000000	92.378	-3.9477
4750.000000	92.248	-3.0950
4820.000000	91.980	-3.8897
4870.000000	91.925	-3.5375
4940.000000	91.786	-2.8423
5000.000000	91.727	-2.8858
5080.000000	91.407	-2.0938
5150.000000	91.212	-1.4419
5220.000000	91.049	-1.4161
5300.000000	90.783	-0.6279
5380.000000	90.502	0.0014
5450.000000	90.550	1.0104
5520.000000	90.360	1.9018
5600.000000	90.301	2.3735
5700.000000	89.994	3.0157
5800.000000	89.854	4.9078
5900.000000	89.882	6.0198
6000.000000	89.884	6.0927
6080.000000	89.692	6.4698
6150.000000	89.496	7.5617
6220.000000	89.426	7.8037
6300.000000	89.479	9.2258
6400.000000	89.591	9.8958
6500.000000	89.490	10.3655
6600.000000	89.631	13.0370
6700.000000	89.847	13.4017
6800.000000	90.097	14.6256
6900.000000	90.256	16.4162
7000.000000	90.395	16.7304
7100.000000	90.841	17.1400
7200.000000	91.326	17.8910
7300.000000	91.832	17.3494
7400.000000	92.237	18.2341
7500.000000	92.919	16.0141
7620.000000	93.756	15.4016
7750.000000	94.539	11.0164
7880.000000	95.472	4.1057
8000.000000	96.326	-2.8527
8120.000000	96.251	-12.5069
8250.000000	95.754	-22.7642
8380.000000	94.780	-31.6137
8500.000000	93.791	-37.9047
8620.000000	92.413	-41.0468
8750.000000	91.333	-42.6096
8850.000000	90.350	-42.9401
9000.000000	89.103	-42.4252
9120.000000	88.277	-39.6567
9250.000000	87.413	-37.5926
9380.000000	86.624	-34.5683
9500.000000	86.047	-32.5350
9620.000000	85.168	-29.2174
9750.000000	84.819	-23.9082
9880.000000	84.464	-21.4201
10000.000000	84.217	-17.4563
10150.000000	83.836	-12.9001
10300.000000	83.437	-9.5711
10440.000000	83.366	-4.7303
10600.000000	83.104	-0.3262
10750.000000	83.008	2.3717
10900.000000	83.073	6.5915
11060.000000	82.948	9.3175
11200.000000	83.224	11.7432
11380.000000	83.178	14.3503
11500.000000	83.137	14.2003
11720.000000	83.349	16.2777
11800.000000	83.386	16.3424
12060.000000	83.459	14.5406
12200.000000	83.302	13.0358
12410.000000	83.028	9.9389
12500.000000	82.845	8.9379
12650.000000	82.422	6.1083
12800.000000	81.911	3.4067
13150.000000	80.599	0.2559
13200.000000	80.450	0.7683
13400.000000	79.727	0.3424
13600.000000	79.227	0.8864
13800.000000	78.992	1.8280
14000.000000	78.610	3.3332
14300.000000	78.763	5.5610
14500.000000	78.909	8.4185
14750.000000	79.708	10.5986
15000.000000	80.700	12.1252
15250.000000	81.903	11.7698
15500.000000	83.239	4.8270
15750.000000	83.641	-8.2840
16000.000000	82.422	-22.0486
16250.000000	80.844	-27.6241
16500.000000	78.733	-28.1817
16750.000000	76.930	-22.5184
17000.000000	75.321	-15.4517
17250.000000	73.885	-5.8469
17500.000000	72.453	5.1055
17750.000000	71.275	16.0729
18000.000000	70.307	29.5402
18250.000000	69.252	41.0743
18500.000000	68.153	55.6571
18750.000000	67.438	69.3275
19000.000000	66.281	81.9155
19250.000000	64.745	98.1644
19500.000000	63.598	118.1653
19750.000000	62.277	142.5698
