* Measurement data measured by REW V5.30.9
* Source: Microphone (Realtek USB2.0 Audio), MICROPHONE (Master Volume), L, volume: 0.500
* Format: 512k Log Swept Sine, 1 sweep at -12.0 dBFS with no timing reference
* Dated: 02 23, 24 3:55:51 PM
* REW Settings:
*  C-weighting compensation: Off
*  Target level: 75.0 dB
* Note: ; 
* Measurement: polaris uddd r
* Smoothing: None
* Frequency Step: 1/48 octave
* Start Frequency: 1.000 Hz
*
* Freq(Hz)	SPL(dB)	Phase(degrees)
1.000000	48.441	-64.7857
1.015000	48.214	-65.3730
1.030000	47.976	-66.0667
1.044000	47.744	-66.8214
1.060000	47.469	-67.7863
1.075000	47.201	-68.7666
1.090000	46.925	-69.7969
1.106000	46.622	-70.9254
1.120000	46.349	-71.9166
1.138000	45.991	-73.1649
1.150000	45.747	-73.9630
1.172000	45.291	-75.3118
1.180000	45.123	-75.7542
1.206000	44.568	-76.9592
1.220000	44.265	-77.4305
1.241000	43.807	-77.8537
1.250000	43.610	-77.9176
1.265000	43.280	-77.8491
1.280000	42.949	-77.5423
1.315000	42.178	-75.7714
1.320000	42.069	-75.3855
1.340000	41.632	-73.4758
1.360000	41.182	-70.8804
1.380000	40.672	-67.4538
1.400000	40.112	-63.2868
1.430000	39.203	-55.8730
1.450000	38.569	-50.3050
1.475000	37.767	-42.8224
1.500000	36.975	-34.9465
1.525000	36.217	-26.8783
1.550000	35.517	-18.8190
1.575000	34.899	-10.9693
1.600000	34.385	-3.5305
1.625000	34.000	3.2967
1.650000	33.767	9.3111
1.675000	33.709	14.3118
1.700000	33.854	18.2919
1.725000	34.209	21.7148
1.750000	34.747	24.6511
1.775000	35.436	27.1423
1.800000	36.249	29.2297
1.825000	37.156	30.9547
1.850000	38.127	32.3588
1.875000	39.133	33.4832
1.900000	40.144	34.3695
1.925000	41.132	35.0589
1.950000	42.066	35.5929
1.975000	42.918	36.0129
2.000000	43.658	36.3603
2.030000	44.368	36.7022
2.060000	44.974	36.6442
2.090000	45.514	36.1532
2.120000	45.995	35.2990
2.140000	46.289	34.5624
2.180000	46.822	32.7813
2.200000	47.066	31.7783
2.240000	47.525	29.6511
2.270000	47.853	28.0312
2.300000	48.178	26.4682
2.330000	48.507	25.0319
2.360000	48.851	23.7886
2.400000	49.297	22.1979
2.430000	49.611	20.9687
2.470000	50.008	19.3015
2.500000	50.292	18.0438
2.540000	50.656	16.3772
2.580000	51.009	14.7455
2.620000	51.358	13.1738
2.650000	51.619	12.0497
2.690000	51.972	10.6437
2.720000	52.238	9.6436
2.760000	52.585	8.3358
2.800000	52.925	7.0711
2.850000	53.343	5.5739
2.900000	53.756	4.1976
2.950000	54.167	2.9719
3.000000	54.580	1.9267
3.040000	54.914	1.2371
3.070000	55.164	0.7811
3.110000	55.497	0.2457
3.150000	55.830	-0.1960
3.200000	56.246	-0.5987
3.250000	56.661	-0.8140
3.300000	57.077	-0.8191
3.350000	57.494	-0.5912
3.400000	57.913	-0.1167
3.450000	58.333	0.5856
3.500000	58.754	1.5047
3.550000	59.175	2.6302
3.600000	59.596	3.9523
3.650000	60.015	5.4607
3.700000	60.433	7.1454
3.750000	60.850	9.0850
3.820000	61.434	12.2748
3.870000	61.850	14.7793
3.950000	62.511	18.9481
4.000000	62.920	21.5252
4.060000	63.405	24.4842
4.120000	63.887	27.5235
4.180000	64.365	30.6224
4.250000	64.916	34.1619
4.310000	65.382	37.0012
4.370000	65.840	39.5413
4.440000	66.366	42.1235
4.500000	66.809	44.1054
4.550000	67.174	45.5988
4.620000	67.676	47.4554
4.680000	68.098	48.8360
4.750000	68.581	50.1900
4.820000	69.053	51.2130
4.870000	69.384	51.7741
4.940000	69.839	52.3798
5.000000	70.221	52.7830
5.080000	70.719	53.2167
5.150000	71.144	53.4146
5.220000	71.559	53.4585
5.300000	72.022	53.3817
5.380000	72.475	53.2381
5.450000	72.862	53.0528
5.520000	73.240	52.7751
5.600000	73.663	52.3872
5.700000	74.178	51.8697
5.800000	74.680	51.3524
5.900000	75.168	50.7899
6.000000	75.644	50.2196
6.080000	76.018	49.7838
6.150000	76.339	49.4153
6.220000	76.654	49.0526
6.300000	77.009	48.6414
6.400000	77.444	48.1267
6.500000	77.871	47.6203
6.600000	78.289	47.1163
6.700000	78.698	46.5915
6.800000	79.100	46.0308
6.900000	79.493	45.4443
7.000000	79.879	44.8337
7.100000	80.256	44.1996
7.200000	80.626	43.5396
7.300000	80.988	42.8572
7.400000	81.343	42.1575
7.500000	81.690	41.4330
7.620000	82.096	40.5378
7.750000	82.525	39.5807
7.880000	82.942	38.6432
8.000000	83.317	37.7953
8.120000	83.684	36.9832
8.250000	84.070	36.1406
8.380000	84.448	35.3360
8.500000	84.789	34.6304
8.620000	85.122	33.9595
8.750000	85.476	33.2640
8.850000	85.743	32.7532
9.000000	86.135	32.0209
9.120000	86.442	31.4442
9.250000	86.769	30.8279
9.380000	87.088	30.2227
9.500000	87.377	29.6732
9.620000	87.661	29.1328
9.750000	87.962	28.5554
9.880000	88.257	27.9843
10.000000	88.524	27.4642
10.150000	88.850	26.8255
10.300000	89.170	26.1973
10.440000	89.462	25.6313
10.600000	89.788	25.0153
10.750000	90.089	24.4613
10.900000	90.384	23.9284
11.060000	90.693	23.3813
11.200000	90.958	22.9145
11.380000	91.294	22.3321
11.500000	91.513	21.9540
11.720000	91.906	21.2817
11.800000	92.046	21.0420
12.060000	92.490	20.2802
12.200000	92.721	19.8808
12.410000	93.057	19.2991
12.500000	93.198	19.0655
12.650000	93.429	18.6973
12.800000	93.655	18.3457
13.150000	94.151	17.5743
13.200000	94.188	17.4642
13.400000	94.271	17.0271
13.600000	94.305	16.6147
13.800000	94.305	16.2080
14.000000	94.315	15.7758
14.300000	94.332	15.0535
14.500000	94.338	14.5454
14.750000	94.325	13.9354
15.000000	94.301	13.3465
15.250000	94.273	12.7944
15.500000	94.242	12.3066
15.750000	94.202	11.9433
16.000000	94.174	11.6420
16.250000	94.163	11.3579
16.500000	94.170	11.0583
16.750000	94.178	10.7394
17.000000	94.193	10.3450
17.250000	94.211	9.8731
17.500000	94.225	9.3392
17.750000	94.223	8.8060
18.000000	94.214	8.2854
18.250000	94.202	7.7954
18.500000	94.190	7.3541
18.750000	94.174	6.9856
19.000000	94.165	6.6468
19.250000	94.165	6.3152
19.500000	94.172	5.9737
19.750000	94.176	5.6262
20.000000	94.181	5.2539
20.299999	94.186	4.7824
20.600000	94.185	4.3184
20.900000	94.174	3.8968
21.200001	94.164	3.5029
21.400000	94.158	3.2591
21.799999	94.140	2.8291
22.000000	94.132	2.6223
22.400000	94.119	2.2107
22.700001	94.104	1.9276
23.000000	94.088	1.6627
23.299999	94.073	1.4014
23.600000	94.060	1.1623
24.000000	94.043	0.8809
24.299999	94.039	0.6508
24.700001	94.038	0.3045
25.000000	94.039	-0.0181
25.400000	94.039	-0.5824
25.799999	94.016	-1.2222
26.200001	93.968	-1.8481
26.500000	93.920	-2.2187
26.900000	93.852	-2.4942
27.200001	93.821	-2.5843
27.600000	93.816	-2.6869
28.000000	93.841	-2.9692
28.500000	93.871	-3.7725
29.000000	93.822	-4.7376
29.500000	93.707	-5.3132
30.000000	93.610	-5.1836
30.400000	93.611	-4.8830
30.700001	93.654	-4.7974
31.100000	93.732	-5.0936
31.500000	93.779	-5.8220
32.000000	93.742	-6.8325
32.500000	93.639	-7.4575
33.000000	93.545	-7.5942
33.500000	93.502	-7.6773
34.000000	93.464	-7.9187
34.500000	93.402	-8.1632
35.000000	93.339	-8.1414
35.500000	93.327	-8.0470
36.000000	93.349	-8.2216
36.500000	93.348	-8.7550
37.000000	93.295	-9.2411
37.500000	93.241	-9.4356
38.200001	93.235	-9.6504
38.700001	93.244	-10.1947
39.500000	93.150	-11.2000
40.000000	93.067	-11.3974
40.599998	93.032	-11.4347
41.200001	93.036	-11.7234
41.799999	93.024	-12.2166
42.500000	92.991	-12.7538
43.099998	92.949	-13.2045
43.700001	92.880	-13.4686
44.400002	92.840	-13.2812
45.000000	92.882	-13.3308
45.500000	92.889	-13.8218
46.200001	92.769	-14.3024
46.799999	92.671	-13.8877
47.500000	92.682	-13.5858
48.200001	92.605	-14.1201
48.700001	92.443	-14.0018
49.400002	92.337	-12.5903
50.000000	92.461	-11.9506
50.799999	92.553	-13.1611
51.500000	92.398	-14.0944
52.200001	92.273	-13.8553
53.000000	92.331	-13.8018
53.799999	92.381	-15.0414
54.500000	92.254	-16.1316
55.200001	92.091	-15.9585
56.000000	92.136	-15.2102
57.000000	92.232	-16.1516
58.000000	92.118	-16.5747
59.000000	92.074	-16.9858
60.000000	91.906	-16.8324
60.799999	91.988	-16.2948
61.500000	92.081	-17.2068
62.200001	92.010	-18.1801
63.000000	91.949	-18.4075
64.000000	91.921	-19.1602
65.000000	91.784	-19.0800
66.000000	91.792	-18.7221
67.000000	91.730	-18.6970
68.000000	91.707	-18.4502
69.000000	91.671	-18.8491
70.000000	91.608	-19.5667
71.000000	91.429	-20.6121
72.000000	91.268	-20.2856
73.000000	91.296	-20.4644
74.000000	91.203	-20.4956
75.000000	91.262	-19.7151
76.199997	91.315	-19.8292
77.500000	91.338	-19.9741
78.800003	91.156	-21.6557
80.000000	90.556	-22.5087
81.199997	90.247	-18.2753
82.500000	90.788	-19.0181
83.800003	90.588	-19.9452
85.000000	90.861	-19.5711
86.199997	90.888	-20.5078
87.500000	90.978	-19.9070
88.500000	91.014	-20.7023
90.000000	90.803	-19.9811
91.199997	90.928	-20.2821
92.500000	90.776	-21.2341
93.800003	90.720	-21.7496
95.000000	90.620	-21.6442
96.199997	90.718	-21.6744
97.500000	90.659	-22.2874
98.800003	90.622	-21.9003
100.000000	90.585	-22.0920
101.500000	90.509	-21.6751
103.000000	90.508	-22.4957
104.400002	90.352	-22.7048
106.000000	90.339	-22.8017
107.500000	90.291	-22.8282
109.000000	90.210	-22.5562
110.599998	90.272	-22.7292
112.000000	90.076	-23.0479
113.800003	90.045	-23.4656
115.000000	90.014	-23.2296
117.199997	90.021	-22.9092
118.000000	90.021	-23.1150
120.599998	90.422	-21.1316
122.000000	89.885	-23.2698
124.099998	89.799	-22.8612
125.000000	89.713	-23.4250
126.500000	89.647	-23.5865
128.000000	89.664	-24.3671
131.500000	89.616	-24.5355
132.000000	89.600	-23.9680
134.000000	89.506	-23.5575
136.000000	89.492	-24.0157
138.000000	89.451	-23.9252
140.000000	89.528	-24.2237
143.000000	89.371	-23.8987
145.000000	89.298	-23.9197
147.500000	89.238	-24.1744
150.000000	89.158	-24.3338
152.500000	89.135	-24.2106
155.000000	89.090	-24.0454
157.500000	89.016	-24.1782
160.000000	88.946	-24.3992
162.500000	88.895	-24.0766
165.000000	88.825	-24.0451
167.500000	88.763	-24.0811
170.000000	88.707	-24.0385
172.500000	88.615	-23.9348
175.000000	88.559	-23.8513
177.500000	88.485	-23.8641
180.000000	88.431	-23.8746
182.500000	88.360	-23.7706
185.000000	88.303	-23.7171
187.500000	88.246	-23.6146
190.000000	88.176	-23.6268
192.500000	88.122	-23.5586
195.000000	88.071	-23.4441
197.500000	88.015	-23.3775
200.000000	87.964	-23.2527
203.000000	87.912	-23.1912
206.000000	87.875	-23.2036
209.000000	87.823	-23.0620
212.000000	87.772	-22.9340
214.000000	87.738	-22.9311
218.000000	87.667	-22.7143
220.000000	87.635	-22.7012
224.000000	87.577	-22.5396
227.000000	87.527	-22.4684
230.000000	87.483	-22.3633
233.000000	87.440	-22.2260
236.000000	87.396	-22.0368
240.000000	87.325	-21.9222
243.000000	87.299	-21.8801
247.000000	87.253	-21.6492
250.000000	87.207	-21.5513
254.000000	87.143	-21.3402
258.000000	87.088	-21.1814
262.000000	87.032	-21.0338
265.000000	86.995	-20.8307
269.000000	86.933	-20.6704
272.000000	86.892	-20.5270
276.000000	86.841	-20.3068
280.000000	86.796	-20.1542
285.000000	86.729	-19.8671
290.000000	86.665	-19.6093
295.000000	86.611	-19.3447
300.000000	86.542	-19.1056
304.000000	86.499	-18.9297
307.000000	86.464	-18.7339
311.000000	86.419	-18.5952
315.000000	86.384	-18.3608
320.000000	86.337	-18.0860
325.000000	86.278	-17.8461
330.000000	86.241	-17.5240
335.000000	86.193	-17.2795
340.000000	86.145	-16.9605
345.000000	86.102	-16.8116
350.000000	86.057	-16.5151
355.000000	86.028	-16.2651
360.000000	85.920	-16.1903
365.000000	85.927	-15.7454
370.000000	85.882	-15.2125
375.000000	85.846	-15.0874
382.000000	85.800	-14.7732
387.000000	85.768	-14.4459
395.000000	85.704	-14.0487
400.000000	85.673	-13.6951
406.000000	85.623	-13.3744
412.000000	85.587	-13.1366
418.000000	85.553	-12.7058
425.000000	85.499	-12.3573
431.000000	85.476	-11.8884
437.000000	85.427	-11.7157
444.000000	85.391	-11.2783
450.000000	85.359	-10.9408
455.000000	85.337	-10.6111
462.000000	85.295	-10.2390
468.000000	85.264	-9.9111
475.000000	85.226	-9.5690
482.000000	85.207	-9.1102
487.000000	85.176	-8.9232
494.000000	85.142	-8.4721
500.000000	85.130	-8.1113
508.000000	85.080	-7.6783
515.000000	85.061	-7.3412
522.000000	85.030	-6.9238
530.000000	84.998	-6.4811
538.000000	84.971	-6.0528
545.000000	84.949	-5.6398
552.000000	84.924	-5.2401
560.000000	84.884	-4.8195
570.000000	84.867	-4.2584
580.000000	84.836	-3.6679
590.000000	84.811	-3.0685
600.000000	84.791	-2.4607
608.000000	84.758	-2.0503
615.000000	84.736	-1.6450
622.000000	84.734	-1.2451
630.000000	84.699	-0.8161
640.000000	84.675	-0.2221
650.000000	84.641	0.4053
660.000000	84.615	0.9889
670.000000	84.575	1.6003
680.000000	84.541	2.3051
690.000000	84.475	3.2992
700.000000	84.462	4.6577
710.000000	84.608	5.9631
720.000000	84.709	6.0185
730.000000	84.699	6.2113
740.000000	84.690	6.9412
750.000000	84.734	7.4920
762.000000	84.765	8.1228
775.000000	84.789	8.6818
788.000000	84.808	9.4016
800.000000	84.824	10.0340
812.000000	84.840	10.7315
825.000000	84.857	11.4733
838.000000	84.888	12.2136
850.000000	84.916	12.9118
862.000000	84.950	13.6016
875.000000	84.992	14.3503
885.000000	85.029	14.9894
900.000000	85.089	15.8268
912.000000	85.146	16.5024
925.000000	85.201	17.1953
938.000000	85.273	17.8904
950.000000	85.329	18.4965
962.000000	85.400	19.1817
975.000000	85.482	19.7101
988.000000	85.558	20.3132
1000.000000	85.634	20.8504
1015.000000	85.736	21.5085
1030.000000	85.844	22.0573
1044.000000	85.941	22.5729
1060.000000	86.062	23.0702
1075.000000	86.172	23.5387
1090.000000	86.286	23.9091
1106.000000	86.404	24.3270
1120.000000	86.499	24.6446
1138.000000	86.632	24.9267
1150.000000	86.711	25.1460
1172.000000	86.865	25.3924
1180.000000	86.914	25.5281
1206.000000	87.080	25.7608
1220.000000	87.159	25.8910
1241.000000	87.278	26.0611
1250.000000	87.329	26.1166
1265.000000	87.406	26.2453
1280.000000	87.491	26.3244
1315.000000	87.693	26.6044
1320.000000	87.703	26.6094
1340.000000	87.808	26.7539
1360.000000	87.912	26.8431
1380.000000	88.006	26.9699
1400.000000	88.102	27.0620
1430.000000	88.242	27.2067
1450.000000	88.333	27.3035
1475.000000	88.439	27.4412
1500.000000	88.555	27.5489
1525.000000	88.657	27.6633
1550.000000	88.761	27.8040
1575.000000	88.872	27.9240
1600.000000	88.966	28.0507
1625.000000	89.069	28.1832
1650.000000	89.170	28.3224
1675.000000	89.270	28.4859
1700.000000	89.372	28.6327
1725.000000	89.474	28.7090
1750.000000	89.570	28.9129
1775.000000	89.670	28.9608
1800.000000	89.777	29.0533
1825.000000	89.876	29.1906
1850.000000	89.985	29.2837
1875.000000	90.096	29.3415
1900.000000	90.196	29.4275
1925.000000	90.305	29.4549
1950.000000	90.407	29.5115
1975.000000	90.510	29.5607
2000.000000	90.613	29.5939
2030.000000	90.751	29.5931
2060.000000	90.877	29.5705
2090.000000	91.007	29.4975
2120.000000	91.135	29.4539
2140.000000	91.217	29.4540
2180.000000	91.379	29.3273
2200.000000	91.459	29.1965
2240.000000	91.617	29.0650
2270.000000	91.718	28.9280
2300.000000	91.824	28.9758
2330.000000	91.908	29.0426
2360.000000	92.004	29.1634
2400.000000	92.172	29.5845
2430.000000	92.348	29.8703
2470.000000	92.658	29.9093
2500.000000	92.899	29.4391
2540.000000	93.190	28.5016
2580.000000	93.408	27.2616
2620.000000	93.600	26.0757
2650.000000	93.714	25.1583
2690.000000	93.843	24.0405
2720.000000	93.949	23.0304
2760.000000	94.052	22.0353
2800.000000	94.131	20.7137
2850.000000	94.181	19.5239
2900.000000	94.218	18.1134
2950.000000	94.314	17.4517
3000.000000	94.367	16.2783
3040.000000	94.420	15.5544
3070.000000	94.504	14.5908
3110.000000	94.505	13.6240
3150.000000	94.487	12.0749
3200.000000	94.356	11.0603
3250.000000	94.306	9.9748
3300.000000	94.252	9.7282
3350.000000	94.105	8.9219
3400.000000	94.036	7.8348
3450.000000	93.957	7.1919
3500.000000	93.917	7.5444
3550.000000	93.878	6.6361
3600.000000	93.798	7.1701
3650.000000	93.680	6.0891
3700.000000	93.687	5.3961
3750.000000	93.568	5.9627
3820.000000	93.532	5.0078
3870.000000	93.505	5.2916
3950.000000	93.460	4.6515
4000.000000	93.208	3.9436
4060.000000	93.054	3.9563
4120.000000	93.160	2.9066
4180.000000	93.067	3.1217
4250.000000	92.971	2.8240
4310.000000	92.895	3.0396
4370.000000	92.709	1.3383
4440.000000	92.552	1.2406
4500.000000	92.411	1.0867
4550.000000	92.310	0.6496
4620.000000	92.259	1.0283
4680.000000	92.011	0.5051
4750.000000	91.911	1.1728
4820.000000	91.664	0.2044
4870.000000	91.622	0.4333
4940.000000	91.500	0.9716
5000.000000	91.459	0.7530
5080.000000	91.160	1.3673
5150.000000	90.976	1.9303
5220.000000	90.829	1.8633
5300.000000	90.563	2.4758
5380.000000	90.291	2.9904
5450.000000	90.349	3.9034
5520.000000	90.165	4.6067
5600.000000	90.115	4.9847
5700.000000	89.812	5.3012
5800.000000	89.620	6.9232
5900.000000	89.588	8.1290
6000.000000	89.558	8.7972
6080.000000	89.397	9.5231
6150.000000	89.237	10.9144
6220.000000	89.216	11.2597
6300.000000	89.323	12.7210
6400.000000	89.498	13.3613
6500.000000	89.463	13.8876
6600.000000	89.658	16.4940
6700.000000	89.930	16.6832
6800.000000	90.238	17.7261
6900.000000	90.455	19.3362
7000.000000	90.667	19.3370
7100.000000	91.169	19.3429
7200.000000	91.719	19.5828
7300.000000	92.270	18.3725
7400.000000	92.720	18.4407
7500.000000	93.392	15.2401
7620.000000	94.173	13.2354
7750.000000	94.768	7.2687
7880.000000	95.380	-0.8877
8000.000000	95.804	-7.9738
8120.000000	95.300	-16.2398
8250.000000	94.516	-23.7387
8380.000000	93.495	-29.4693
8500.000000	92.616	-33.4252
8620.000000	91.401	-34.9219
8750.000000	90.519	-35.3556
8850.000000	89.674	-35.0645
9000.000000	88.591	-34.0737
9120.000000	87.891	-30.9765
9250.000000	87.118	-28.6702
9380.000000	86.436	-25.2724
9500.000000	85.967	-23.0409
9620.000000	85.190	-19.2345
9750.000000	84.868	-14.4717
9880.000000	84.581	-11.5766
10000.000000	84.417	-7.2577
10150.000000	84.178	-2.4109
10300.000000	83.896	1.1555
10440.000000	83.959	6.0301
10600.000000	83.879	10.4068
10750.000000	83.918	13.1212
10900.000000	84.126	17.2962
11060.000000	84.194	19.9180
11200.000000	84.648	22.2256
11380.000000	84.902	24.5855
11500.000000	85.125	23.9912
11720.000000	85.812	24.4265
11800.000000	86.047	23.6490
12060.000000	86.681	17.3404
12200.000000	86.633	12.9639
12410.000000	86.404	5.4436
12500.000000	86.163	2.8126
12650.000000	85.598	-2.1030
12800.000000	84.945	-6.1347
13150.000000	83.416	-10.5764
13200.000000	83.274	-10.2573
13400.000000	82.586	-10.7544
13600.000000	82.147	-10.3361
13800.000000	82.052	-9.9095
14000.000000	81.747	-9.2720
14300.000000	81.996	-9.3501
14500.000000	82.060	-8.9795
14750.000000	82.505	-10.7358
15000.000000	82.673	-13.5579
15250.000000	82.456	-16.7578
15500.000000	81.894	-20.8709
15750.000000	80.704	-23.4351
16000.000000	79.241	-23.4136
16250.000000	78.255	-19.3141
16500.000000	77.004	-14.8833
16750.000000	76.031	-7.1199
17000.000000	75.072	0.0627
17250.000000	74.184	8.6575
17500.000000	73.177	17.2422
17750.000000	72.413	24.5852
18000.000000	71.482	33.6091
18250.000000	70.470	39.6404
18500.000000	69.011	46.4621
18750.000000	67.600	52.1660
19000.000000	65.340	53.4668
19250.000000	62.048	54.1712
19500.000000	56.862	29.7125
19750.000000	55.962	-49.0013
