* Measurement data measured by REW V5.30.9
* Source: Microphone (Realtek USB2.0 Audio), MICROPHONE (Master Volume), L, volume: 0.500
* Format: 512k Log Swept Sine, 1 sweep at -12.0 dBFS with no timing reference
* Dated: 02 23, 24 1:59:18 PM
* REW Settings:
*  C-weighting compensation: Off
*  Target level: 75.0 dB
* Note: ; 
* Measurement: pr3 r
* Smoothing: None
* Frequency Step: 1/48 octave
* Start Frequency: 1.000 Hz
*
* Freq(Hz)	SPL(dB)	Phase(degrees)
1.000000	51.626	-77.0071
1.015000	51.440	-77.5069
1.030000	51.237	-78.0186
1.044000	51.033	-78.5147
1.060000	50.783	-79.0932
1.075000	50.535	-79.6365
1.090000	50.277	-80.1706
1.106000	49.991	-80.7192
1.120000	49.735	-81.1721
1.138000	49.399	-81.7038
1.150000	49.173	-82.0190
1.172000	48.758	-82.4963
1.180000	48.608	-82.6328
1.206000	48.128	-82.9152
1.220000	47.877	-82.9523
1.241000	47.514	-82.8353
1.250000	47.366	-82.7160
1.265000	47.128	-82.4170
1.280000	46.905	-81.9843
1.315000	46.453	-80.3996
1.320000	46.397	-80.1021
1.340000	46.199	-78.7200
1.360000	46.035	-76.9593
1.380000	45.883	-74.6887
1.400000	45.743	-71.9630
1.430000	45.557	-67.1636
1.450000	45.453	-63.5851
1.475000	45.349	-58.8003
1.500000	45.275	-53.7878
1.525000	45.236	-48.6748
1.550000	45.234	-43.5885
1.575000	45.274	-38.6561
1.600000	45.359	-34.0048
1.625000	45.492	-29.7619
1.650000	45.676	-26.0545
1.675000	45.916	-23.0099
1.700000	46.223	-20.6389
1.725000	46.620	-18.6644
1.750000	47.097	-17.0366
1.775000	47.641	-15.7227
1.800000	48.238	-14.6905
1.825000	48.877	-13.9074
1.850000	49.544	-13.3409
1.875000	50.228	-12.9586
1.900000	50.914	-12.7278
1.925000	51.590	-12.6162
1.950000	52.245	-12.5913
1.975000	52.864	-12.6204
2.000000	53.435	-12.6713
2.030000	54.046	-12.7412
2.060000	54.617	-13.0424
2.090000	55.164	-13.6036
2.120000	55.690	-14.3821
2.140000	56.029	-15.0009
2.180000	56.685	-16.4207
2.200000	57.002	-17.1965
2.240000	57.619	-18.8168
2.270000	58.069	-20.0424
2.300000	58.510	-21.2293
2.330000	58.945	-22.3349
2.360000	59.375	-23.3192
2.400000	59.932	-24.5916
2.430000	60.334	-25.5689
2.470000	60.851	-26.8867
2.500000	61.226	-27.8750
2.540000	61.713	-29.1764
2.580000	62.185	-30.4407
2.620000	62.646	-31.6477
2.650000	62.987	-32.5033
2.690000	63.436	-33.5616
2.720000	63.767	-34.3052
2.760000	64.197	-35.2672
2.800000	64.614	-36.1848
2.850000	65.120	-37.2518
2.900000	65.611	-38.2089
2.950000	66.089	-39.0333
3.000000	66.559	-39.7025
3.040000	66.928	-40.1139
3.070000	67.200	-40.3724
3.110000	67.556	-40.6572
3.150000	67.903	-40.8619
3.200000	68.327	-40.9863
3.250000	68.742	-40.9416
3.300000	69.149	-40.7034
3.350000	69.549	-40.2471
3.400000	69.943	-39.5612
3.450000	70.328	-38.6715
3.500000	70.705	-37.5845
3.550000	71.074	-36.3050
3.600000	71.437	-34.8379
3.650000	71.794	-33.1879
3.700000	72.148	-31.3599
3.750000	72.496	-29.2794
3.820000	72.974	-25.9063
3.870000	73.308	-23.2765
3.950000	73.834	-18.9082
4.000000	74.158	-16.2021
4.060000	74.542	-13.0793
4.120000	74.921	-9.8702
4.180000	75.293	-6.5978
4.250000	75.721	-2.8519
4.310000	76.082	0.1669
4.370000	76.439	2.8884
4.440000	76.850	5.6875
4.500000	77.197	7.8607
4.550000	77.482	9.5149
4.620000	77.877	11.5947
4.680000	78.210	13.1614
4.750000	78.593	14.7242
4.820000	78.970	15.9539
4.870000	79.236	16.6597
4.940000	79.603	17.4607
5.000000	79.912	18.0214
5.080000	80.318	18.6472
5.150000	80.667	18.9999
5.220000	81.010	19.1866
5.300000	81.394	19.2565
5.380000	81.771	19.2405
5.450000	82.094	19.1494
5.520000	82.412	18.9504
5.600000	82.767	18.6360
5.700000	83.201	18.1903
5.800000	83.625	17.7221
5.900000	84.037	17.1831
6.000000	84.438	16.6217
6.080000	84.753	16.1892
6.150000	85.023	15.8166
6.220000	85.288	15.4438
6.300000	85.586	15.0190
6.400000	85.951	14.4923
6.500000	86.308	13.9776
6.600000	86.656	13.4677
6.700000	86.999	12.9459
6.800000	87.335	12.4013
6.900000	87.664	11.8410
7.000000	87.987	11.2668
7.100000	88.306	10.6794
7.200000	88.619	10.0786
7.300000	88.927	9.4644
7.400000	89.231	8.8373
7.500000	89.530	8.1907
7.620000	89.883	7.3959
7.750000	90.258	6.5451
7.880000	90.626	5.7103
8.000000	90.959	4.9532
8.120000	91.285	4.2218
8.250000	91.631	3.4561
8.380000	91.969	2.7187
8.500000	92.274	2.0656
8.620000	92.572	1.4379
8.750000	92.886	0.7857
8.850000	93.123	0.3057
9.000000	93.467	-0.3830
9.120000	93.735	-0.9187
9.250000	94.018	-1.4857
9.380000	94.292	-2.0331
9.500000	94.539	-2.5170
9.620000	94.779	-2.9814
9.750000	95.034	-3.4644
9.880000	95.283	-3.9267
10.000000	95.507	-4.3352
10.150000	95.782	-4.8238
10.300000	96.051	-5.2885
10.440000	96.298	-5.6971
10.600000	96.575	-6.1292
10.750000	96.831	-6.5106
10.900000	97.083	-6.8759
11.060000	97.348	-7.2497
11.200000	97.577	-7.5733
11.380000	97.865	-7.9821
11.500000	98.054	-8.2527
11.720000	98.393	-8.7443
11.800000	98.513	-8.9242
12.060000	98.894	-9.5133
12.200000	99.092	-9.8355
12.410000	99.379	-10.3224
12.500000	99.499	-10.5239
12.650000	99.694	-10.8505
12.800000	99.884	-11.1730
13.150000	100.290	-11.9201
13.200000	100.314	-12.0296
13.400000	100.341	-12.4676
13.600000	100.314	-12.8684
13.800000	100.252	-13.2437
14.000000	100.199	-13.6095
14.300000	100.125	-14.1556
14.500000	100.076	-14.4986
14.750000	100.007	-14.8570
15.000000	99.942	-15.1814
15.250000	99.887	-15.4911
15.500000	99.843	-15.7888
15.750000	99.798	-16.0413
16.000000	99.766	-16.3135
16.250000	99.748	-16.6320
16.500000	99.740	-17.0062
16.750000	99.726	-17.4052
17.000000	99.714	-17.8579
17.250000	99.701	-18.3599
17.500000	99.686	-18.8962
17.750000	99.656	-19.4192
18.000000	99.621	-19.9388
18.250000	99.583	-20.4480
18.500000	99.542	-20.9353
18.750000	99.492	-21.3703
19.000000	99.441	-21.7741
19.250000	99.391	-22.1498
19.500000	99.343	-22.4952
19.750000	99.291	-22.7928
20.000000	99.241	-23.0680
20.299999	99.189	-23.3817
20.600000	99.142	-23.6827
20.900000	99.096	-23.9800
21.200001	99.056	-24.3184
21.400000	99.029	-24.5666
21.799999	98.965	-25.0667
22.000000	98.930	-25.3151
22.400000	98.858	-25.7771
22.700001	98.805	-26.0548
23.000000	98.761	-26.3075
23.299999	98.730	-26.6060
23.600000	98.707	-26.9897
24.000000	98.663	-27.6668
24.299999	98.612	-28.2765
24.700001	98.499	-29.0229
25.000000	98.390	-29.3884
25.400000	98.249	-29.5300
25.799999	98.152	-29.3368
26.200001	98.125	-29.1667
26.500000	98.137	-29.2563
26.900000	98.146	-29.7234
27.200001	98.129	-30.2788
27.600000	98.058	-31.0145
28.000000	97.952	-31.5075
28.500000	97.842	-31.7743
29.000000	97.787	-32.0096
29.500000	97.757	-32.6010
30.000000	97.683	-33.3936
30.400000	97.592	-33.9374
30.700001	97.519	-34.1839
31.100000	97.439	-34.3400
31.500000	97.395	-34.4796
32.000000	97.359	-34.8183
32.500000	97.303	-35.3317
33.000000	97.211	-35.6614
33.500000	97.130	-35.6779
34.000000	97.094	-35.5792
34.500000	97.092	-35.7689
35.000000	97.051	-36.2415
35.500000	96.950	-36.6654
36.000000	96.828	-36.7081
36.500000	96.751	-36.6182
37.000000	96.700	-36.8253
37.500000	96.603	-37.3885
38.200001	96.358	-37.6921
38.700001	96.238	-37.2361
39.500000	96.287	-37.2188
40.000000	96.300	-38.3672
40.599998	96.143	-39.8910
41.200001	95.909	-40.3475
41.799999	95.786	-40.0321
42.500000	95.756	-39.9934
43.099998	95.694	-40.0407
43.700001	95.648	-39.5425
44.400002	95.731	-38.9110
45.000000	95.838	-39.2267
45.500000	95.843	-39.9990
46.200001	95.671	-40.8826
46.799999	95.446	-40.7508
47.500000	95.271	-39.7027
48.200001	95.256	-38.8855
48.700001	95.279	-38.9249
49.400002	95.256	-39.5647
50.000000	95.188	-40.2159
50.799999	95.081	-41.0998
51.500000	94.960	-41.9017
52.200001	94.808	-42.3876
53.000000	94.676	-42.3393
53.799999	94.645	-42.2914
54.500000	94.614	-42.6462
55.200001	94.523	-42.9070
56.000000	94.437	-42.8154
57.000000	94.364	-43.1401
58.000000	94.213	-43.3968
59.000000	94.142	-43.7098
60.000000	93.977	-44.5626
60.799999	93.825	-44.4469
61.500000	93.793	-44.2623
62.200001	93.770	-44.5093
63.000000	93.690	-44.7255
64.000000	93.627	-44.6484
65.000000	93.558	-44.9660
66.000000	93.429	-44.9777
67.000000	93.350	-44.9605
68.000000	93.232	-45.1768
69.000000	93.136	-45.1170
70.000000	93.058	-45.3651
71.000000	92.957	-45.5688
72.000000	92.850	-45.7229
73.000000	92.749	-45.5158
74.000000	92.717	-45.5285
75.000000	92.631	-45.7778
76.199997	92.559	-45.8542
77.500000	92.415	-46.2885
78.800003	92.320	-45.8303
80.000000	92.291	-46.3903
81.199997	92.109	-46.4748
82.500000	92.052	-46.2883
83.800003	91.910	-46.4315
85.000000	91.839	-46.2355
86.199997	91.726	-46.4285
87.500000	91.618	-46.0751
88.500000	91.568	-46.1994
90.000000	91.442	-46.0626
91.199997	91.400	-46.3264
92.500000	91.289	-46.4399
93.800003	91.199	-46.5692
95.000000	91.119	-46.3391
96.199997	91.055	-46.4513
97.500000	90.957	-46.3476
98.800003	90.866	-46.2991
100.000000	90.850	-46.2741
101.500000	90.696	-46.6050
103.000000	90.661	-46.0422
104.400002	90.533	-45.9890
106.000000	90.440	-45.9652
107.500000	90.328	-45.9180
109.000000	90.205	-46.3613
110.599998	90.197	-46.3475
112.000000	90.145	-45.7496
113.800003	90.037	-45.3762
115.000000	89.867	-45.1678
117.199997	89.605	-46.5553
118.000000	89.565	-45.5539
120.599998	88.309	-49.7406
122.000000	89.600	-46.1431
124.099998	89.750	-43.6898
125.000000	89.786	-46.4745
126.500000	89.318	-44.5709
128.000000	89.202	-44.3017
131.500000	88.883	-43.9290
132.000000	89.173	-43.7893
134.000000	89.045	-45.2111
136.000000	88.920	-44.2476
138.000000	88.926	-43.9097
140.000000	88.976	-44.7067
143.000000	88.654	-43.5583
145.000000	88.684	-43.3028
147.500000	88.588	-43.3439
150.000000	88.570	-43.7580
152.500000	88.413	-44.1029
155.000000	88.180	-43.2826
157.500000	88.102	-43.1552
160.000000	88.017	-42.9241
162.500000	87.927	-43.2138
165.000000	87.903	-43.0130
167.500000	87.891	-42.4470
170.000000	87.808	-41.7623
172.500000	87.680	-41.5923
175.000000	87.587	-41.7234
177.500000	87.554	-41.6293
180.000000	87.522	-41.5713
182.500000	87.357	-40.7510
185.000000	87.249	-40.8675
187.500000	87.200	-40.4656
190.000000	87.113	-40.0415
192.500000	86.978	-39.8327
195.000000	86.891	-39.5583
197.500000	86.870	-38.9922
200.000000	86.772	-38.3444
203.000000	86.733	-38.2406
206.000000	86.747	-38.1291
209.000000	86.726	-37.5254
212.000000	86.684	-37.2817
214.000000	86.629	-37.3181
218.000000	86.592	-37.3022
220.000000	86.549	-37.0903
224.000000	86.466	-36.8963
227.000000	86.414	-36.7798
230.000000	86.355	-36.5228
233.000000	86.296	-36.2321
236.000000	86.234	-36.0217
240.000000	86.176	-35.7513
243.000000	86.106	-35.5493
247.000000	86.038	-35.2378
250.000000	86.008	-34.8301
254.000000	85.929	-34.6192
258.000000	85.857	-34.3084
262.000000	85.782	-34.0050
265.000000	85.730	-33.7120
269.000000	85.674	-33.4459
272.000000	85.630	-33.2028
276.000000	85.574	-32.8457
280.000000	85.515	-32.5136
285.000000	85.439	-32.1501
290.000000	85.372	-31.7634
295.000000	85.315	-31.3190
300.000000	85.249	-30.9285
304.000000	85.179	-30.5823
307.000000	85.155	-30.4411
311.000000	85.099	-30.0108
315.000000	85.054	-29.6526
320.000000	85.002	-29.2675
325.000000	84.961	-28.7911
330.000000	84.892	-28.3714
335.000000	84.863	-27.9620
340.000000	84.807	-27.6576
345.000000	84.774	-27.2133
350.000000	84.715	-26.9637
355.000000	84.689	-26.2615
360.000000	84.665	-27.5675
365.000000	84.610	-25.5745
370.000000	84.548	-25.5098
375.000000	84.533	-24.6665
382.000000	84.484	-24.0294
387.000000	84.464	-23.5423
395.000000	84.450	-23.0279
400.000000	84.430	-22.6690
406.000000	84.409	-22.2336
412.000000	84.377	-21.8586
418.000000	84.353	-21.5213
425.000000	84.327	-21.0881
431.000000	84.297	-20.7568
437.000000	84.281	-20.3596
444.000000	84.237	-19.9205
450.000000	84.221	-19.5963
455.000000	84.201	-19.2318
462.000000	84.168	-18.7245
468.000000	84.144	-18.3998
475.000000	84.113	-17.9671
482.000000	84.120	-17.5378
487.000000	84.083	-17.1015
494.000000	84.067	-16.6647
500.000000	84.050	-16.3189
508.000000	84.032	-15.7594
515.000000	84.011	-15.3496
522.000000	84.008	-14.8425
530.000000	83.983	-14.3333
538.000000	83.962	-13.7737
545.000000	83.956	-13.3563
552.000000	83.949	-12.8133
560.000000	83.939	-12.3096
570.000000	83.922	-11.7022
580.000000	83.916	-11.0115
590.000000	83.913	-10.3658
600.000000	83.911	-9.7735
608.000000	83.920	-9.2349
615.000000	83.906	-8.6912
622.000000	83.911	-8.2702
630.000000	83.916	-7.7253
640.000000	83.927	-7.0466
650.000000	83.916	-6.3678
660.000000	83.943	-5.6675
670.000000	83.954	-5.0463
680.000000	83.957	-4.3567
690.000000	83.975	-3.7079
700.000000	83.987	-2.9739
710.000000	84.017	-2.3102
720.000000	84.031	-1.6181
730.000000	84.068	-0.8317
740.000000	84.085	-0.2000
750.000000	84.114	0.5435
762.000000	84.166	1.3561
775.000000	84.204	2.2925
788.000000	84.255	3.1784
800.000000	84.304	4.0509
812.000000	84.360	4.9448
825.000000	84.422	5.8897
838.000000	84.496	6.8017
850.000000	84.560	7.6984
862.000000	84.638	8.5720
875.000000	84.716	9.5255
885.000000	84.782	10.2697
900.000000	84.888	11.2899
912.000000	84.987	12.1221
925.000000	85.105	12.9981
938.000000	85.199	13.8168
950.000000	85.311	14.5832
962.000000	85.431	15.4115
975.000000	85.552	16.1938
988.000000	85.681	16.8988
1000.000000	85.808	17.5572
1015.000000	85.963	18.3468
1030.000000	86.121	19.0875
1044.000000	86.272	19.7168
1060.000000	86.444	20.4444
1075.000000	86.615	21.0907
1090.000000	86.774	21.6895
1106.000000	86.954	22.2476
1120.000000	87.099	22.7609
1138.000000	87.294	23.3296
1150.000000	87.440	23.7766
1172.000000	87.674	24.3709
1180.000000	87.760	24.5635
1206.000000	88.039	25.2838
1220.000000	88.196	25.5761
1241.000000	88.416	25.9817
1250.000000	88.500	26.1984
1265.000000	88.669	26.4730
1280.000000	88.829	26.8112
1315.000000	89.187	27.4559
1320.000000	89.242	27.5367
1340.000000	89.446	27.8999
1360.000000	89.648	28.2519
1380.000000	89.858	28.5344
1400.000000	90.060	28.8641
1430.000000	90.372	29.3020
1450.000000	90.590	29.6510
1475.000000	90.864	30.0233
1500.000000	91.146	30.2906
1525.000000	91.437	30.5251
1550.000000	91.747	30.5658
1575.000000	92.061	30.4383
1600.000000	92.385	30.1400
1625.000000	92.707	29.4516
1650.000000	93.000	28.3703
1675.000000	93.233	26.7750
1700.000000	93.338	24.9378
1725.000000	93.307	23.2043
1750.000000	93.150	22.2199
1775.000000	92.955	22.4844
1800.000000	92.824	23.5342
1825.000000	92.799	25.0093
1850.000000	92.854	26.7268
1875.000000	93.005	28.4396
1900.000000	93.231	29.7776
1925.000000	93.479	30.8311
1950.000000	93.743	31.5725
1975.000000	94.015	32.1067
2000.000000	94.255	32.5527
2030.000000	94.562	32.8541
2060.000000	94.866	33.0600
2090.000000	95.152	33.1152
2120.000000	95.433	33.1173
2140.000000	95.627	33.0274
2180.000000	95.981	32.7618
2200.000000	96.147	32.6321
2240.000000	96.482	32.1061
2270.000000	96.716	31.7034
2300.000000	96.939	31.2205
2330.000000	97.147	30.7705
2360.000000	97.337	30.3102
2400.000000	97.601	29.8145
2430.000000	97.822	29.4319
2470.000000	98.123	28.7357
2500.000000	98.343	27.9571
2540.000000	98.635	26.6646
2580.000000	98.869	25.0078
2620.000000	99.057	23.4000
2650.000000	99.151	22.1417
2690.000000	99.257	20.6906
2720.000000	99.344	19.4268
2760.000000	99.410	18.0599
2800.000000	99.452	16.3948
2850.000000	99.427	14.7982
2900.000000	99.377	12.9874
2950.000000	99.333	11.8622
3000.000000	99.219	10.5190
3040.000000	99.142	9.8580
3070.000000	99.138	9.0074
3110.000000	99.047	8.0374
3150.000000	98.918	6.2012
3200.000000	98.522	4.5970
3250.000000	98.056	3.7104
3300.000000	97.590	5.2983
3350.000000	97.201	7.2341
3400.000000	97.083	8.7616
3450.000000	97.067	9.8517
3500.000000	97.076	11.1921
3550.000000	97.004	10.8489
3600.000000	96.804	12.1366
3650.000000	96.584	12.4912
3700.000000	96.583	13.5028
3750.000000	96.524	15.3415
3820.000000	96.597	15.3914
3870.000000	96.627	15.9264
3950.000000	96.582	14.9924
4000.000000	96.244	14.0530
4060.000000	95.949	14.1415
4120.000000	95.960	13.0249
4180.000000	95.709	12.3546
4250.000000	95.126	10.7185
4310.000000	94.340	11.6731
4370.000000	93.542	13.6578
4440.000000	93.187	18.8949
4500.000000	93.146	21.9504
4550.000000	93.187	23.2408
4620.000000	93.294	24.7774
4680.000000	93.081	24.5178
4750.000000	92.915	25.4611
4820.000000	92.526	25.2181
4870.000000	92.411	26.5968
4940.000000	92.388	28.4672
5000.000000	92.484	28.5204
5080.000000	92.353	28.1773
5150.000000	92.237	26.9700
5220.000000	92.059	24.8068
5300.000000	91.718	22.7426
5380.000000	91.319	19.9304
5450.000000	91.194	17.4322
5520.000000	90.751	14.2380
5600.000000	90.254	9.3787
5700.000000	88.919	3.6098
5800.000000	87.588	3.7951
5900.000000	87.042	5.4595
6000.000000	86.943	5.4839
6080.000000	86.914	4.8025
6150.000000	87.019	4.1787
6220.000000	87.317	1.4462
6300.000000	87.779	-1.4954
6400.000000	88.245	-7.3669
6500.000000	88.155	-13.1167
6600.000000	88.082	-14.4798
6700.000000	88.042	-14.8994
6800.000000	88.422	-12.0283
6900.000000	89.002	-8.8612
7000.000000	89.622	-7.7608
7100.000000	90.490	-6.9724
7200.000000	91.246	-5.7386
7300.000000	91.798	-4.4426
7400.000000	92.328	1.0424
7500.000000	93.511	4.6756
7620.000000	95.365	9.6372
7750.000000	97.333	7.9859
7880.000000	99.154	1.7095
8000.000000	100.517	-4.9163
8120.000000	100.662	-13.0034
8250.000000	100.374	-19.6548
8380.000000	99.766	-23.6364
8500.000000	99.267	-25.3388
8620.000000	98.483	-24.1303
8750.000000	98.169	-21.7668
8850.000000	97.804	-20.1115
9000.000000	97.230	-17.7585
9120.000000	96.833	-12.7743
9250.000000	96.506	-7.6096
9380.000000	96.398	-2.0496
9500.000000	96.457	1.3967
9620.000000	96.347	5.8735
9750.000000	96.468	9.1570
9880.000000	96.580	11.3977
10000.000000	96.709	14.0417
10150.000000	96.623	16.3775
10300.000000	96.315	17.1577
10440.000000	96.155	19.1206
10600.000000	95.498	20.3438
10750.000000	94.703	20.6523
10900.000000	93.765	23.8565
11060.000000	92.443	27.6400
11200.000000	91.564	32.6039
11380.000000	90.025	40.3912
11500.000000	88.984	44.8794
11720.000000	87.317	57.3623
11800.000000	86.635	61.9657
12060.000000	84.287	77.7499
12200.000000	82.663	88.5660
12410.000000	80.358	110.1558
12500.000000	79.531	121.4374
12650.000000	78.401	140.5471
12800.000000	77.414	160.9416
13150.000000	77.773	-137.7771
13200.000000	78.349	-128.9006
13400.000000	80.682	-105.1064
13600.000000	82.997	-87.0956
13800.000000	85.339	-74.7563
14000.000000	86.607	-65.7759
14300.000000	87.845	-49.9331
14500.000000	88.557	-32.2669
14750.000000	91.433	-9.6070
15000.000000	95.711	-0.4509
15250.000000	98.547	-8.1771
15500.000000	98.928	-17.4460
15750.000000	98.168	-18.9487
16000.000000	97.282	-15.3746
16250.000000	97.192	-7.8477
16500.000000	96.931	-0.6984
16750.000000	96.969	7.5419
17000.000000	96.964	13.2711
17250.000000	96.675	17.5859
17500.000000	95.566	20.5477
17750.000000	93.795	24.9200
18000.000000	91.282	37.1107
18250.000000	88.663	56.6951
18500.000000	86.885	87.3525
18750.000000	87.189	118.8303
19000.000000	88.228	142.8193
19250.000000	89.335	163.5782
19500.000000	90.598	-179.6449
19750.000000	91.363	-164.3595
