* Measurement data measured by REW V5.30.9
* Source: Headset (Odo By VECLAN.COM), MICROPHONE (Master Volume), L, volume: 0.250
* Format: 1M Log Swept Sine, 1 sweep at -12.0 dBFS with no timing reference
* Dated: 10 13, 24 8:22:04 PM
* REW Settings:
*  C-weighting compensation: Off
*  Target level: 75.0 dB
* Note: ; 
* Measurement: projectm L
* Smoothing: None
* Frequency Step: 1/48 octave
* Start Frequency: 1.000 Hz
*
* Freq(Hz)	SPL(dB)	Phase(degrees)
1.000000	75.023	-99.7588
1.015000	75.362	-99.9599
1.030000	75.697	-100.1623
1.044000	76.005	-100.3535
1.060000	76.353	-100.5758
1.075000	76.675	-100.7891
1.090000	76.994	-101.0084
1.106000	77.331	-101.2488
1.120000	77.623	-101.4583
1.138000	77.992	-101.7245
1.150000	78.234	-101.9002
1.172000	78.670	-102.2188
1.180000	78.826	-102.3336
1.206000	79.322	-102.7030
1.220000	79.583	-102.8998
1.241000	79.964	-103.1926
1.250000	80.124	-103.3171
1.265000	80.386	-103.5238
1.280000	80.641	-103.7292
1.315000	81.211	-104.2048
1.320000	81.289	-104.2724
1.340000	81.595	-104.5419
1.360000	81.888	-104.8105
1.380000	82.167	-105.0784
1.400000	82.433	-105.3460
1.430000	82.804	-105.7473
1.450000	83.033	-106.0153
1.475000	83.296	-106.3510
1.500000	83.524	-106.6854
1.525000	83.718	-107.0181
1.550000	83.883	-107.3490
1.575000	84.022	-107.6783
1.600000	84.138	-108.0062
1.625000	84.237	-108.3327
1.650000	84.320	-108.6579
1.675000	84.393	-108.9820
1.700000	84.459	-109.3049
1.725000	84.522	-109.6269
1.750000	84.586	-109.9481
1.775000	84.654	-110.2684
1.800000	84.730	-110.5882
1.825000	84.819	-110.9073
1.850000	84.917	-111.2260
1.875000	85.014	-111.5440
1.900000	85.109	-111.8614
1.925000	85.202	-112.1780
1.950000	85.293	-112.4938
1.975000	85.382	-112.8087
2.000000	85.470	-113.1225
2.030000	85.573	-113.4977
2.060000	85.674	-113.8712
2.090000	85.773	-114.2429
2.120000	85.870	-114.6125
2.140000	85.934	-114.8578
2.180000	86.060	-115.3453
2.200000	86.123	-115.5875
2.240000	86.245	-116.0688
2.270000	86.333	-116.4272
2.300000	86.420	-116.7835
2.330000	86.505	-117.1379
2.360000	86.589	-117.4904
2.400000	86.697	-117.9576
2.430000	86.776	-118.3061
2.470000	86.880	-118.7683
2.500000	86.957	-119.1132
2.540000	87.057	-119.5710
2.580000	87.155	-120.0267
2.620000	87.251	-120.4811
2.650000	87.321	-120.8207
2.690000	87.412	-121.2717
2.720000	87.479	-121.6081
2.760000	87.567	-122.0537
2.800000	87.652	-122.4954
2.850000	87.755	-123.0411
2.900000	87.855	-123.5785
2.950000	87.952	-124.1067
3.000000	88.045	-124.6278
3.040000	88.117	-125.0397
3.070000	88.169	-125.3457
3.110000	88.237	-125.7495
3.150000	88.303	-126.1483
3.200000	88.384	-126.6395
3.250000	88.463	-127.1222
3.300000	88.540	-127.5960
3.350000	88.614	-128.0604
3.400000	88.686	-128.5156
3.450000	88.756	-128.9622
3.500000	88.823	-129.4010
3.550000	88.889	-129.8326
3.600000	88.954	-130.2576
3.650000	89.017	-130.6766
3.700000	89.079	-131.0893
3.750000	89.139	-131.4942
3.820000	89.221	-132.0489
3.870000	89.278	-132.4377
3.950000	89.366	-133.0488
4.000000	89.420	-133.4253
4.060000	89.484	-133.8719
4.120000	89.547	-134.3101
4.180000	89.608	-134.7406
4.250000	89.677	-135.2352
4.310000	89.735	-135.6543
4.370000	89.792	-136.0703
4.440000	89.858	-136.5525
4.500000	89.912	-136.9607
4.550000	89.957	-137.2977
4.620000	90.018	-137.7655
4.680000	90.069	-138.1638
4.750000	90.128	-138.6265
4.820000	90.185	-139.0873
4.870000	90.225	-139.4148
4.940000	90.280	-139.8706
5.000000	90.326	-140.2589
5.080000	90.385	-140.7728
5.150000	90.436	-141.2188
5.220000	90.484	-141.6618
5.300000	90.538	-142.1642
5.380000	90.590	-142.6621
5.450000	90.634	-143.0938
5.520000	90.677	-143.5216
5.600000	90.723	-144.0071
5.700000	90.778	-144.6075
5.800000	90.830	-145.1977
5.900000	90.880	-145.7753
6.000000	90.926	-146.3423
6.080000	90.962	-146.7876
6.150000	90.991	-147.1703
6.220000	91.020	-147.5457
6.300000	91.052	-147.9656
6.400000	91.090	-148.4776
6.500000	91.127	-148.9762
6.600000	91.162	-149.4624
6.700000	91.197	-149.9342
6.800000	91.230	-150.3928
6.900000	91.264	-150.8419
7.000000	91.297	-151.2848
7.100000	91.330	-151.7182
7.200000	91.363	-152.1444
7.300000	91.396	-152.5670
7.400000	91.429	-152.9876
7.500000	91.461	-153.4038
7.620000	91.498	-153.9004
7.750000	91.538	-154.4385
7.880000	91.576	-154.9771
8.000000	91.610	-155.4706
8.120000	91.641	-155.9575
8.250000	91.672	-156.4797
8.380000	91.701	-156.9928
8.500000	91.726	-157.4556
8.620000	91.751	-157.9099
8.750000	91.775	-158.3888
8.850000	91.793	-158.7454
9.000000	91.817	-159.2626
9.120000	91.835	-159.6626
9.250000	91.857	-160.0814
9.380000	91.879	-160.4850
9.500000	91.899	-160.8514
9.620000	91.921	-161.2138
9.750000	91.946	-161.5998
9.880000	91.966	-161.9917
10.000000	91.977	-162.3663
10.150000	91.984	-162.8435
10.300000	91.986	-163.3187
10.440000	91.982	-163.7629
10.600000	91.972	-164.2612
10.750000	91.960	-164.7053
10.900000	91.943	-165.1366
11.060000	91.924	-165.6088
11.200000	91.906	-166.0374
11.380000	91.881	-166.5507
11.500000	91.861	-166.8552
11.720000	91.823	-167.3582
11.800000	91.810	-167.5223
12.060000	91.768	-168.0038
12.200000	91.749	-168.2638
12.410000	91.729	-168.6482
12.500000	91.726	-168.8097
12.650000	91.729	-169.0688
12.800000	91.737	-169.3402
13.150000	91.756	-170.0771
13.200000	91.758	-170.1916
13.400000	91.764	-170.6831
13.600000	91.762	-171.1752
13.800000	91.750	-171.6493
14.000000	91.731	-172.1002
14.300000	91.693	-172.7144
14.500000	91.665	-173.0356
14.750000	91.634	-173.3475
15.000000	91.612	-173.5789
15.250000	91.607	-173.8394
15.500000	91.612	-174.1345
15.750000	91.624	-174.4808
16.000000	91.636	-174.9148
16.250000	91.642	-175.4196
16.500000	91.640	-175.9631
16.750000	91.623	-176.4760
17.000000	91.598	-176.9371
17.250000	91.570	-177.3388
17.500000	91.544	-177.6740
17.750000	91.523	-177.9647
18.000000	91.508	-178.2468
18.250000	91.499	-178.5635
18.500000	91.488	-178.8972
18.750000	91.474	-179.2256
19.000000	91.453	-179.5279
19.250000	91.431	-179.7809
19.500000	91.411	-179.9704
19.750000	91.400	179.9069
20.000000	91.403	179.7988
20.299999	91.424	179.6113
20.600000	91.455	179.3097
20.900000	91.484	178.8758
21.200001	91.499	178.3238
21.400000	91.496	177.9432
21.799999	91.464	177.2518
22.000000	91.441	176.9736
22.400000	91.394	176.5554
22.700001	91.367	176.3348
23.000000	91.349	176.1294
23.299999	91.335	175.8952
23.600000	91.321	175.6481
24.000000	91.299	175.3295
24.299999	91.285	175.1047
24.700001	91.273	174.7981
25.000000	91.267	174.5188
25.400000	91.252	174.0384
25.799999	91.212	173.5134
26.200001	91.145	173.0918
26.500000	91.089	172.9178
26.900000	91.032	172.8767
27.200001	91.013	172.8886
27.600000	91.015	172.7971
28.000000	91.025	172.4852
28.500000	91.006	171.8894
29.000000	90.948	171.3937
29.500000	90.889	171.1363
30.000000	90.859	170.9708
30.400000	90.851	170.7492
30.700001	90.845	170.5208
31.100000	90.825	170.1837
31.500000	90.797	169.8701
32.000000	90.760	169.5592
32.500000	90.731	169.2739
33.000000	90.702	168.9666
33.500000	90.665	168.6613
34.000000	90.624	168.4235
34.500000	90.589	168.2404
35.000000	90.563	168.0685
35.500000	90.542	167.8629
36.000000	90.520	167.6353
36.500000	90.499	167.3890
37.000000	90.479	167.1078
37.500000	90.451	166.7841
38.200001	90.390	166.4317
38.700001	90.355	166.3455
39.500000	90.357	166.1017
40.000000	90.352	165.6517
40.599998	90.288	165.1257
41.200001	90.219	165.0760
41.799999	90.231	165.0651
42.500000	90.250	164.1558
43.099998	90.111	163.2476
43.700001	89.921	163.4484
44.400002	89.904	164.3981
45.000000	90.009	164.1264
45.500000	89.999	163.2406
46.200001	89.828	162.6042
46.799999	89.734	162.9656
47.500000	89.748	163.0325
48.200001	89.711	162.5176
48.700001	89.642	162.3670
49.400002	89.586	162.4890
50.000000	89.571	162.4084
50.799999	89.512	162.1553
51.500000	89.455	162.1424
52.200001	89.422	162.0528
53.000000	89.360	161.7524
53.799999	89.278	161.5771
54.500000	89.225	161.4410
55.200001	89.170	161.2196
56.000000	89.118	161.1394
57.000000	89.170	160.6542
58.000000	89.079	159.0095
59.000000	88.805	159.2805
60.000000	88.887	160.3020
60.799999	88.941	159.6663
61.500000	88.857	159.4009
62.200001	88.807	159.7164
63.000000	88.809	159.8364
64.000000	88.768	159.6809
65.000000	88.714	159.4823
66.000000	88.626	159.3029
67.000000	88.573	159.3046
68.000000	88.528	159.1049
69.000000	88.490	159.0395
70.000000	88.471	158.8314
71.000000	88.410	158.5601
72.000000	88.324	158.6624
73.000000	88.305	158.8430
74.000000	88.242	158.5176
75.000000	88.164	158.8582
76.199997	88.168	158.1795
77.500000	87.904	158.8446
78.800003	88.108	159.2841
80.000000	88.003	158.4825
81.199997	87.968	158.6552
82.500000	87.850	158.4133
83.800003	87.769	158.6607
85.000000	87.709	158.5456
86.199997	87.670	158.4050
87.500000	87.620	157.9128
88.500000	87.567	157.8156
90.000000	87.507	157.7407
91.199997	87.461	158.0130
92.500000	87.458	158.1756
93.800003	87.405	157.6344
95.000000	87.259	157.5717
96.199997	87.234	157.5226
97.500000	87.164	156.5078
98.800003	86.906	156.3719
100.000000	86.892	158.0507
101.500000	87.043	158.2325
103.000000	87.135	158.6548
104.400002	87.042	158.0852
106.000000	86.973	158.5937
107.500000	86.867	158.4566
109.000000	86.826	158.4404
110.599998	86.754	158.3319
112.000000	86.770	158.2701
113.800003	86.675	159.0001
115.000000	86.740	158.7014
117.199997	86.583	158.6981
118.000000	86.561	158.8109
120.599998	86.480	158.5929
122.000000	86.453	158.9494
124.099998	86.407	158.7636
125.000000	86.362	159.0068
126.500000	86.338	159.2051
128.000000	86.334	159.4294
131.500000	86.200	159.6465
132.000000	86.166	159.8560
134.000000	86.168	159.6701
136.000000	86.110	159.8235
138.000000	86.075	160.0414
140.000000	86.017	159.9485
143.000000	85.979	160.3673
145.000000	85.909	160.2213
147.500000	85.878	160.8006
150.000000	85.885	160.7122
152.500000	85.819	161.0044
155.000000	85.777	161.3516
157.500000	85.668	161.5057
160.000000	85.741	161.1960
162.500000	85.621	162.1650
165.000000	85.569	162.1754
167.500000	85.598	161.9626
170.000000	85.508	162.6107
172.500000	85.503	162.2206
175.000000	85.365	162.4700
177.500000	85.302	162.8520
180.000000	85.347	163.4000
182.500000	85.300	163.8344
185.000000	85.183	162.9885
187.500000	85.171	163.8882
190.000000	85.134	163.5610
192.500000	85.119	163.8947
195.000000	84.997	164.1385
197.500000	85.040	164.1912
200.000000	84.908	164.4815
203.000000	84.931	164.7554
206.000000	84.873	164.3846
209.000000	84.799	165.0536
212.000000	84.697	165.4591
214.000000	84.751	165.3306
218.000000	84.917	165.1913
220.000000	84.829	166.1429
224.000000	84.728	165.2942
227.000000	84.714	166.4083
230.000000	84.865	166.5029
233.000000	84.784	167.0583
236.000000	84.709	167.5631
240.000000	84.644	167.2560
243.000000	84.591	168.0739
247.000000	84.627	168.0484
250.000000	84.555	167.9637
254.000000	84.529	168.8089
258.000000	84.351	168.9421
262.000000	84.547	168.0634
265.000000	84.529	168.7803
269.000000	84.408	170.2244
272.000000	84.338	169.9010
276.000000	84.364	170.1488
280.000000	84.492	170.4539
285.000000	84.585	169.7287
290.000000	84.485	170.5642
295.000000	84.393	172.5862
300.000000	84.309	171.0370
304.000000	84.249	172.7115
307.000000	84.604	173.7473
311.000000	84.353	171.3792
315.000000	84.391	172.6482
320.000000	84.201	173.3230
325.000000	84.200	173.0002
330.000000	84.099	172.8492
335.000000	84.140	173.6257
340.000000	84.203	173.8198
345.000000	84.074	173.6882
350.000000	84.186	174.6392
355.000000	84.106	173.4672
360.000000	83.722	173.4183
365.000000	83.855	174.5199
370.000000	84.139	174.6026
375.000000	83.973	175.5616
382.000000	83.865	176.6146
387.000000	83.937	177.2868
395.000000	84.030	175.5275
400.000000	84.021	178.0887
406.000000	83.794	179.8618
412.000000	84.066	177.0723
418.000000	84.033	178.4191
425.000000	83.773	177.1779
431.000000	84.213	179.0311
437.000000	83.563	179.5458
444.000000	84.002	179.6810
450.000000	83.917	179.8156
455.000000	83.856	-179.8093
462.000000	83.890	-179.8850
468.000000	83.933	-179.6467
475.000000	83.957	-179.1089
482.000000	83.950	-178.2742
487.000000	83.933	-179.7699
494.000000	83.561	-174.5847
500.000000	83.918	-175.0352
508.000000	84.483	-179.6018
515.000000	84.811	-179.4849
522.000000	84.355	-173.7126
530.000000	83.736	-175.3594
538.000000	83.780	-176.8725
545.000000	83.828	-175.6818
552.000000	83.883	-175.7797
560.000000	83.806	-175.8863
570.000000	83.803	-174.9952
580.000000	83.895	-174.6307
590.000000	83.860	-174.0695
600.000000	83.852	-173.4532
608.000000	83.901	-173.1739
615.000000	83.849	-172.9795
622.000000	83.851	-172.6459
630.000000	83.860	-172.0576
640.000000	83.871	-171.8566
650.000000	83.878	-171.2914
660.000000	83.880	-170.8833
670.000000	83.930	-170.4356
680.000000	83.854	-170.4832
690.000000	83.921	-169.7931
700.000000	84.012	-169.4816
710.000000	83.802	-168.8672
720.000000	83.870	-167.7577
730.000000	83.920	-168.2196
740.000000	83.695	-168.8709
750.000000	84.058	-167.9387
762.000000	83.868	-167.5197
775.000000	84.068	-165.9890
788.000000	84.109	-164.2400
800.000000	84.069	-164.3472
812.000000	84.144	-163.7653
825.000000	84.295	-163.5592
838.000000	84.283	-162.6372
850.000000	84.291	-162.2618
862.000000	84.340	-162.0112
875.000000	84.368	-161.3257
885.000000	84.429	-160.6231
900.000000	84.536	-159.9286
912.000000	84.577	-159.3907
925.000000	84.629	-158.5029
938.000000	84.746	-158.9688
950.000000	84.837	-158.0238
962.000000	84.874	-157.5275
975.000000	84.973	-157.0173
988.000000	85.053	-156.7319
1000.000000	85.136	-156.3854
1015.000000	85.239	-155.9731
1030.000000	85.371	-155.5372
1044.000000	85.453	-155.3643
1060.000000	85.643	-154.9075
1075.000000	85.742	-154.2902
1090.000000	85.819	-154.7343
1106.000000	85.943	-154.4924
1120.000000	86.038	-154.3726
1138.000000	86.175	-154.4002
1150.000000	86.269	-154.3710
1172.000000	86.417	-154.4110
1180.000000	86.456	-154.3321
1206.000000	86.627	-154.5437
1220.000000	86.711	-154.7544
1241.000000	86.852	-154.8414
1250.000000	86.896	-154.9691
1265.000000	86.980	-155.1922
1280.000000	87.072	-155.3906
1315.000000	87.251	-155.8732
1320.000000	87.268	-155.9456
1340.000000	87.366	-156.2659
1360.000000	87.461	-156.6650
1380.000000	87.541	-156.9512
1400.000000	87.604	-157.3868
1430.000000	87.728	-157.8985
1450.000000	87.744	-158.4494
1475.000000	87.807	-158.9834
1500.000000	87.887	-159.3349
1525.000000	87.912	-159.9638
1550.000000	87.952	-160.2697
1575.000000	87.975	-160.7690
1600.000000	87.997	-161.0538
1625.000000	88.027	-161.2383
1650.000000	88.042	-161.5034
1675.000000	88.067	-161.8360
1700.000000	88.078	-161.9187
1725.000000	88.082	-162.0942
1750.000000	88.120	-162.1749
1775.000000	88.129	-162.2459
1800.000000	88.136	-162.3166
1825.000000	88.149	-162.4765
1850.000000	88.166	-162.4107
1875.000000	88.198	-162.5046
1900.000000	88.223	-162.4924
1925.000000	88.264	-162.5192
1950.000000	88.285	-162.5153
1975.000000	88.337	-162.5725
2000.000000	88.348	-162.5765
2030.000000	88.403	-162.5469
2060.000000	88.467	-162.5103
2090.000000	88.530	-162.3845
2120.000000	88.597	-162.4956
2140.000000	88.647	-162.5181
2180.000000	88.741	-162.5583
2200.000000	88.816	-162.4862
2240.000000	88.911	-162.8383
2270.000000	89.013	-162.7570
2300.000000	89.096	-162.8534
2330.000000	89.172	-162.9514
2360.000000	89.262	-163.1044
2400.000000	89.401	-162.9296
2430.000000	89.517	-162.7047
2470.000000	89.775	-162.5933
2500.000000	90.021	-162.3506
2540.000000	90.429	-162.5095
2580.000000	90.882	-164.2452
2620.000000	91.244	-166.6201
2650.000000	91.485	-168.6624
2690.000000	91.758	-171.7583
2720.000000	91.888	-174.1044
2760.000000	92.008	-177.4078
2800.000000	92.065	179.0782
2850.000000	92.049	174.8428
2900.000000	91.913	170.6819
2950.000000	91.711	166.5090
3000.000000	91.409	162.9344
3040.000000	91.139	160.1268
3070.000000	90.913	158.2284
3110.000000	90.568	155.8994
3150.000000	90.191	153.8730
3200.000000	89.677	151.7916
3250.000000	89.152	150.2905
3300.000000	88.623	149.2831
3350.000000	88.118	148.7139
3400.000000	87.634	148.5462
3450.000000	87.183	148.7094
3500.000000	86.763	149.1978
3550.000000	86.384	149.9508
3600.000000	86.053	150.9784
3650.000000	85.763	152.1754
3700.000000	85.526	153.4966
3750.000000	85.335	154.9188
3820.000000	85.179	157.1299
3870.000000	85.117	158.6951
3950.000000	85.167	161.1772
4000.000000	85.273	162.6330
4060.000000	85.487	164.0844
4120.000000	85.795	165.2087
4180.000000	86.183	165.8573
4250.000000	86.706	165.7137
4310.000000	87.194	164.6873
4370.000000	87.691	162.8629
4440.000000	88.202	159.4792
4500.000000	88.539	155.6657
4550.000000	88.703	152.0965
4620.000000	88.750	146.8941
4680.000000	88.604	142.5176
4750.000000	88.259	138.1895
4820.000000	87.793	134.8497
4870.000000	87.418	133.0198
4940.000000	86.870	131.3699
5000.000000	86.422	130.7491
5080.000000	85.821	130.7105
5150.000000	85.343	131.2469
5220.000000	84.928	132.2869
5300.000000	84.517	133.8906
5380.000000	84.178	135.9565
5450.000000	83.941	137.9488
5520.000000	83.753	140.1196
5600.000000	83.597	142.7502
5700.000000	83.475	146.1397
5800.000000	83.429	149.7747
5900.000000	83.450	153.5208
6000.000000	83.546	157.2542
6080.000000	83.652	160.3381
6150.000000	83.794	163.0785
6220.000000	83.963	165.8117
6300.000000	84.172	168.8499
6400.000000	84.556	172.6491
6500.000000	84.996	176.4527
6600.000000	85.490	-179.7917
6700.000000	86.070	-176.0600
6800.000000	86.715	-172.5942
6900.000000	87.445	-169.2790
7000.000000	88.258	-166.3695
7100.000000	89.176	-163.7959
7200.000000	90.202	-161.9552
7300.000000	91.361	-160.9999
7400.000000	92.594	-161.4092
7500.000000	93.936	-163.5278
7620.000000	95.521	-169.5305
7750.000000	96.789	179.1374
7880.000000	97.048	165.3441
8000.000000	96.448	154.7106
8120.000000	95.380	148.3778
8250.000000	94.203	145.6968
8380.000000	93.256	145.5314
8500.000000	92.589	146.7014
8620.000000	92.114	148.2020
8750.000000	91.760	149.8039
8850.000000	91.519	150.8220
9000.000000	91.212	152.0479
9120.000000	90.948	152.9842
9250.000000	90.633	154.1470
9380.000000	90.297	155.6555
9500.000000	90.002	157.3413
9620.000000	89.735	159.4869
9750.000000	89.472	162.0537
9880.000000	89.266	164.9862
10000.000000	89.132	167.8864
10150.000000	89.123	171.3990
10300.000000	89.164	174.7190
10440.000000	89.242	177.5571
10600.000000	89.341	-179.4612
10750.000000	89.446	-176.6243
10900.000000	89.562	-174.0343
11060.000000	89.685	-171.3393
11200.000000	89.890	-169.0059
11380.000000	90.118	-167.1980
11500.000000	90.201	-166.1517
11720.000000	90.267	-164.6484
11800.000000	90.249	-164.2476
12060.000000	90.095	-162.2994
12200.000000	89.959	-161.1627
12410.000000	89.688	-158.6698
12500.000000	89.564	-157.3657
12650.000000	89.350	-154.9149
12800.000000	89.152	-152.1530
13150.000000	89.008	-144.4331
13200.000000	89.028	-143.2892
13400.000000	89.285	-138.7087
13600.000000	89.884	-134.9743
13800.000000	90.894	-132.7255
14000.000000	92.400	-134.6676
14300.000000	95.108	-155.6101
14500.000000	94.495	174.7042
14750.000000	90.060	152.5755
15000.000000	85.813	149.0295
15250.000000	82.366	152.6674
15500.000000	79.574	159.5508
15750.000000	77.319	167.9649
16000.000000	75.453	177.3519
16250.000000	74.074	-172.6743
16500.000000	73.017	-162.1872
16750.000000	72.111	-151.5900
17000.000000	71.372	-140.9159
17250.000000	70.704	-130.2228
17500.000000	70.028	-119.4773
17750.000000	69.412	-108.9065
18000.000000	68.627	-97.6466
18250.000000	67.659	-85.3378
18500.000000	66.569	-69.8706
18750.000000	65.814	-48.8297
19000.000000	66.309	-24.1686
19250.000000	69.134	-5.0278
19500.000000	71.495	-15.9443
19750.000000	71.423	-18.1381
