* Measurement data measured by REW V5.30.9
* Source: Microphone (Realtek USB2.0 Audio), MICROPHONE (Master Volume), L, volume: 0.500
* Format: 512k Log Swept Sine, 1 sweep at -12.0 dBFS with no timing reference
* Dated: 02 26, 24 10:55:58 PM
* REW Settings:
*  C-weighting compensation: Off
*  Target level: 75.0 dB
* Note: ; 
* Measurement: quatro uu L
* Smoothing: None
* Frequency Step: 1/48 octave
* Start Frequency: 1.000 Hz
*
* Freq(Hz)	SPL(dB)	Phase(degrees)
1.000000	49.158	-79.9664
1.015000	49.012	-80.9044
1.030000	48.870	-81.8538
1.044000	48.741	-82.7510
1.060000	48.597	-83.7856
1.075000	48.465	-84.7605
1.090000	48.332	-85.7364
1.106000	48.189	-86.7743
1.120000	48.062	-87.6763
1.138000	47.894	-88.8225
1.150000	47.777	-89.5752
1.172000	47.551	-90.9244
1.180000	47.465	-91.4033
1.206000	47.164	-92.9071
1.220000	46.987	-93.6786
1.241000	46.700	-94.7774
1.250000	46.569	-95.2247
1.265000	46.336	-95.9356
1.280000	46.086	-96.6000
1.315000	45.426	-97.9487
1.320000	45.322	-98.1163
1.340000	44.881	-98.7185
1.360000	44.379	-99.3035
1.380000	43.772	-100.1137
1.400000	43.075	-101.1029
1.430000	41.893	-102.7834
1.450000	41.041	-103.9423
1.475000	39.931	-105.3226
1.500000	38.803	-106.5111
1.525000	37.690	-107.3837
1.550000	36.623	-107.8165
1.575000	35.637	-107.6852
1.600000	34.764	-106.8658
1.625000	34.036	-105.2343
1.650000	33.486	-102.6665
1.675000	33.147	-99.0383
1.700000	33.039	-94.0431
1.725000	33.127	-87.2538
1.750000	33.387	-78.9426
1.775000	33.796	-69.4183
1.800000	34.330	-58.9899
1.825000	34.964	-47.9662
1.850000	35.676	-36.6565
1.875000	36.442	-25.3696
1.900000	37.238	-14.4145
1.925000	38.040	-4.1001
1.950000	38.826	5.2646
1.975000	39.570	13.3706
2.000000	40.250	19.9090
2.030000	40.961	25.3257
2.060000	41.664	28.6182
2.090000	42.385	30.2178
2.120000	43.117	30.4008
2.140000	43.608	29.8722
2.180000	44.583	27.6225
2.200000	45.064	26.0651
2.240000	46.001	22.4945
2.270000	46.673	19.7404
2.300000	47.310	17.2279
2.330000	47.905	15.2336
2.360000	48.450	14.0197
2.400000	49.104	12.7976
2.430000	49.549	11.8398
2.470000	50.089	10.5310
2.500000	50.462	9.5413
2.540000	50.925	8.2341
2.580000	51.359	6.9676
2.620000	51.775	5.7706
2.650000	52.083	4.9358
2.690000	52.497	3.9300
2.720000	52.805	3.2409
2.760000	53.194	2.3586
2.800000	53.562	1.5303
2.850000	53.996	0.5921
2.900000	54.410	-0.2133
2.950000	54.811	-0.8589
3.000000	55.207	-1.3179
3.040000	55.523	-1.5359
3.070000	55.755	-1.6345
3.110000	56.055	-1.6876
3.150000	56.346	-1.6414
3.200000	56.702	-1.4270
3.250000	57.052	-1.0190
3.300000	57.400	-0.3959
3.350000	57.751	0.4636
3.400000	58.105	1.5755
3.450000	58.455	2.9288
3.500000	58.803	4.5067
3.550000	59.150	6.2931
3.600000	59.498	8.2719
3.650000	59.850	10.4267
3.700000	60.207	12.7414
3.750000	60.570	15.3034
3.820000	61.083	19.3649
3.870000	61.453	22.4812
3.950000	62.050	27.5881
4.000000	62.425	30.7134
4.060000	62.877	34.2806
4.120000	63.335	37.8895
4.180000	63.797	41.5212
4.250000	64.337	45.6304
4.310000	64.798	48.9086
4.370000	65.254	51.8377
4.440000	65.782	54.8050
4.500000	66.234	57.0612
4.550000	66.608	58.7484
4.620000	67.125	60.8302
4.680000	67.560	62.3677
4.750000	68.057	63.8645
4.820000	68.545	64.9699
4.870000	68.887	65.5590
4.940000	69.358	66.1734
5.000000	69.753	66.5663
5.080000	70.264	66.9733
5.150000	70.698	67.1143
5.220000	71.121	67.0767
5.300000	71.591	66.8955
5.380000	72.048	66.6566
5.450000	72.435	66.3939
5.520000	72.811	66.0333
5.600000	73.230	65.5565
5.700000	73.739	64.9584
5.800000	74.234	64.4067
5.900000	74.712	63.8427
6.000000	75.180	63.3089
6.080000	75.551	62.9335
6.150000	75.871	62.6453
6.220000	76.187	62.3842
6.300000	76.546	62.1073
6.400000	76.993	61.7741
6.500000	77.439	61.4751
6.600000	77.883	61.1996
6.700000	78.325	60.8960
6.800000	78.767	60.5344
6.900000	79.208	60.1401
7.000000	79.646	59.6983
7.100000	80.078	59.1921
7.200000	80.506	58.6222
7.300000	80.928	57.9967
7.400000	81.340	57.3214
7.500000	81.742	56.5825
7.620000	82.211	55.6254
7.750000	82.701	54.5797
7.880000	83.169	53.5264
8.000000	83.583	52.5620
8.120000	83.980	51.6608
8.250000	84.390	50.7398
8.380000	84.785	49.8980
8.500000	85.138	49.2170
8.620000	85.479	48.6185
8.750000	85.843	48.0558
8.850000	86.119	47.6932
9.000000	86.529	47.2439
9.120000	86.858	46.9144
9.250000	87.216	46.5996
9.380000	87.575	46.2967
9.500000	87.908	45.9944
9.620000	88.243	45.6851
9.750000	88.604	45.3080
9.880000	88.961	44.8677
10.000000	89.287	44.4161
10.150000	89.683	43.7882
10.300000	90.066	43.0809
10.440000	90.408	42.3962
10.600000	90.779	41.5920
10.750000	91.107	40.8459
10.900000	91.417	40.1405
11.060000	91.729	39.4354
11.200000	91.990	38.8943
11.380000	92.312	38.2931
11.500000	92.524	37.9599
11.720000	92.906	37.4870
11.800000	93.047	37.3388
12.060000	93.510	36.9521
12.200000	93.765	36.7384
12.410000	94.154	36.3994
12.500000	94.321	36.2296
12.650000	94.600	35.9193
12.800000	94.874	35.5600
13.150000	95.470	34.5131
13.200000	95.519	34.3432
13.400000	95.636	33.6332
13.600000	95.687	32.9656
13.800000	95.692	32.3459
14.000000	95.696	31.7977
14.300000	95.706	31.0996
14.500000	95.717	30.7218
14.750000	95.733	30.3633
15.000000	95.764	30.0140
15.250000	95.812	29.6143
15.500000	95.870	29.1406
15.750000	95.918	28.6291
16.000000	95.962	28.0654
16.250000	96.004	27.4707
16.500000	96.043	26.8774
16.750000	96.067	26.3533
17.000000	96.092	25.8704
17.250000	96.121	25.4145
17.500000	96.156	24.9759
17.750000	96.186	24.5662
18.000000	96.218	24.1491
18.250000	96.252	23.7206
18.500000	96.287	23.2857
18.750000	96.314	22.8761
19.000000	96.342	22.4710
19.250000	96.371	22.0650
19.500000	96.402	21.6564
19.750000	96.425	21.2589
20.000000	96.448	20.8531
20.299999	96.472	20.3605
20.600000	96.491	19.8916
20.900000	96.502	19.4766
21.200001	96.517	19.0936
21.400000	96.530	18.8531
21.799999	96.559	18.3952
22.000000	96.576	18.1471
22.400000	96.612	17.5913
22.700001	96.632	17.1577
23.000000	96.645	16.7288
23.299999	96.657	16.3097
23.600000	96.667	15.9290
24.000000	96.681	15.4777
24.299999	96.698	15.1287
24.700001	96.720	14.6561
25.000000	96.731	14.3071
25.400000	96.747	13.8587
25.799999	96.762	13.4932
26.200001	96.791	13.1400
26.500000	96.820	12.8305
26.900000	96.852	12.3342
27.200001	96.867	11.8903
27.600000	96.861	11.3265
28.000000	96.835	10.9233
28.500000	96.816	10.6569
29.000000	96.834	10.4525
29.500000	96.876	9.9714
30.000000	96.879	9.2412
30.400000	96.840	8.6612
30.700001	96.792	8.3790
31.100000	96.728	8.2728
31.500000	96.700	8.3908
32.000000	96.733	8.5749
32.500000	96.828	8.3985
33.000000	96.925	7.7514
33.500000	96.983	6.7297
34.000000	96.976	5.6938
34.500000	96.931	4.9028
35.000000	96.887	4.4599
35.500000	96.883	4.1346
36.000000	96.896	3.7167
36.500000	96.896	3.1587
37.000000	96.868	2.7281
37.500000	96.848	2.5299
38.200001	96.875	2.2690
38.700001	96.897	1.7852
39.500000	96.839	0.9997
40.000000	96.791	0.9125
40.599998	96.804	0.8831
41.200001	96.844	0.4049
41.799999	96.824	-0.3337
42.500000	96.756	-0.7407
43.099998	96.759	-0.8094
43.700001	96.812	-1.2325
44.400002	96.829	-2.1098
45.000000	96.795	-2.7019
45.500000	96.767	-2.9885
46.200001	96.752	-3.2146
46.799999	96.762	-3.3659
47.500000	96.795	-3.6025
48.200001	96.829	-4.0010
48.700001	96.842	-4.3310
49.400002	96.857	-4.7984
50.000000	96.865	-5.3115
50.799999	96.829	-6.0974
51.500000	96.761	-6.5156
52.200001	96.720	-6.6551
53.000000	96.721	-6.9057
53.799999	96.725	-7.3938
54.500000	96.709	-7.8333
55.200001	96.691	-8.2015
56.000000	96.672	-8.6264
57.000000	96.640	-9.0595
58.000000	96.647	-9.5960
59.000000	96.571	-10.5028
60.000000	96.470	-10.4769
60.799999	96.511	-10.5717
61.500000	96.523	-11.1773
62.200001	96.479	-11.6238
63.000000	96.457	-11.8401
64.000000	96.456	-12.3474
65.000000	96.417	-12.7962
66.000000	96.386	-13.0678
67.000000	96.371	-13.3711
68.000000	96.336	-13.8605
69.000000	96.292	-14.1614
70.000000	96.270	-14.6734
71.000000	96.198	-15.1573
72.000000	96.174	-15.2440
73.000000	96.196	-15.7106
74.000000	96.168	-16.3214
75.000000	96.125	-16.6358
76.199997	96.110	-16.9291
77.500000	96.088	-17.3696
78.800003	96.059	-17.9102
80.000000	95.995	-18.3647
81.199997	95.960	-18.6020
82.500000	95.928	-19.1486
83.800003	95.872	-19.4587
85.000000	95.853	-19.8086
86.199997	95.815	-20.2709
87.500000	95.746	-20.6927
88.500000	95.714	-20.8622
90.000000	95.662	-21.3960
91.199997	95.626	-21.6610
92.500000	95.587	-22.0856
93.800003	95.544	-22.4781
95.000000	95.486	-22.6841
96.199997	95.468	-22.9178
97.500000	95.404	-23.2790
98.800003	95.362	-23.5184
100.000000	95.308	-23.7349
101.500000	95.273	-24.0809
103.000000	95.224	-24.2918
104.400002	95.194	-24.6552
106.000000	95.149	-25.0871
107.500000	95.073	-25.3689
109.000000	95.031	-25.5560
110.599998	94.994	-25.9695
112.000000	94.971	-26.2027
113.800003	94.915	-26.7625
115.000000	94.882	-26.8196
117.199997	94.806	-27.3904
118.000000	94.793	-27.3320
120.599998	94.700	-28.0896
122.000000	94.681	-28.5224
124.099998	94.612	-28.9047
125.000000	94.584	-29.0696
126.500000	94.541	-29.3128
128.000000	94.495	-29.6378
131.500000	94.399	-30.3742
132.000000	94.386	-30.5135
134.000000	94.319	-30.8199
136.000000	94.253	-31.0870
138.000000	94.183	-31.3877
140.000000	94.105	-31.7768
143.000000	94.005	-32.1631
145.000000	93.960	-32.3952
147.500000	93.878	-32.7356
150.000000	93.787	-33.0740
152.500000	93.705	-33.3498
155.000000	93.645	-33.6517
157.500000	93.557	-33.9372
160.000000	93.474	-34.1826
162.500000	93.368	-34.5110
165.000000	93.265	-34.5950
167.500000	93.159	-34.7575
170.000000	93.072	-34.9330
172.500000	92.968	-34.9813
175.000000	92.870	-34.8750
177.500000	92.824	-34.6989
180.000000	92.811	-34.6573
182.500000	92.796	-34.9620
185.000000	92.762	-35.4418
187.500000	92.689	-35.9260
190.000000	92.601	-36.3546
192.500000	92.508	-36.6999
195.000000	92.423	-37.0032
197.500000	92.337	-37.2640
200.000000	92.241	-37.4840
203.000000	92.142	-37.7308
206.000000	92.039	-37.9437
209.000000	91.956	-38.1537
212.000000	91.872	-38.2640
214.000000	91.806	-38.3703
218.000000	91.680	-38.5975
220.000000	91.621	-38.7026
224.000000	91.506	-38.8593
227.000000	91.422	-38.9660
230.000000	91.336	-39.0481
233.000000	91.250	-39.1352
236.000000	91.163	-39.2473
240.000000	91.050	-39.3006
243.000000	90.965	-39.3933
247.000000	90.855	-39.4226
250.000000	90.772	-39.4635
254.000000	90.656	-39.5056
258.000000	90.540	-39.5548
262.000000	90.421	-39.5709
265.000000	90.336	-39.6002
269.000000	90.227	-39.4916
272.000000	90.142	-39.4390
276.000000	90.030	-39.4049
280.000000	89.918	-39.3548
285.000000	89.780	-39.2927
290.000000	89.648	-39.0551
295.000000	89.511	-38.8861
300.000000	89.375	-38.7291
304.000000	89.271	-38.5583
307.000000	89.194	-38.4671
311.000000	89.095	-38.2097
315.000000	88.992	-37.9805
320.000000	88.873	-37.6719
325.000000	88.747	-37.3667
330.000000	88.646	-36.9903
335.000000	88.516	-36.5609
340.000000	88.411	-36.2310
345.000000	88.302	-35.7374
350.000000	88.212	-35.3669
355.000000	88.124	-34.7369
360.000000	88.026	-34.4863
365.000000	87.935	-33.9196
370.000000	87.849	-33.5021
375.000000	87.755	-32.9653
382.000000	87.648	-32.1847
387.000000	87.577	-31.6488
395.000000	87.462	-30.7122
400.000000	87.405	-30.0999
406.000000	87.347	-29.2382
412.000000	87.305	-28.4846
418.000000	87.250	-27.8374
425.000000	87.259	-26.9982
431.000000	87.239	-26.4055
437.000000	87.219	-25.8336
444.000000	87.203	-25.2458
450.000000	87.191	-24.7544
455.000000	87.188	-24.3278
462.000000	87.180	-23.8412
468.000000	87.167	-23.3691
475.000000	87.149	-22.8804
482.000000	87.167	-22.3794
487.000000	87.158	-22.1095
494.000000	87.160	-21.6426
500.000000	87.164	-21.3530
508.000000	87.157	-20.8782
515.000000	87.163	-20.5468
522.000000	87.155	-20.1862
530.000000	87.157	-19.8648
538.000000	87.152	-19.5471
545.000000	87.152	-19.2286
552.000000	87.147	-18.9167
560.000000	87.147	-18.6261
570.000000	87.140	-18.2940
580.000000	87.122	-17.9137
590.000000	87.118	-17.5402
600.000000	87.095	-17.1813
608.000000	87.087	-16.8622
615.000000	87.077	-16.6250
622.000000	87.070	-16.3836
630.000000	87.056	-16.0711
640.000000	87.051	-15.6801
650.000000	87.031	-15.3225
660.000000	87.011	-14.8692
670.000000	87.003	-14.4917
680.000000	86.991	-14.0995
690.000000	86.986	-13.6365
700.000000	86.975	-13.2277
710.000000	86.969	-12.8098
720.000000	86.958	-12.3675
730.000000	86.942	-11.8552
740.000000	86.930	-11.4085
750.000000	86.913	-10.9890
762.000000	86.894	-10.3749
775.000000	86.843	-9.6407
788.000000	86.782	-8.6573
800.000000	86.765	-6.7178
812.000000	87.029	-5.1910
825.000000	87.216	-5.4970
838.000000	87.204	-5.5947
850.000000	87.206	-5.0111
862.000000	87.245	-4.3274
875.000000	87.309	-3.7370
885.000000	87.351	-3.2108
900.000000	87.423	-2.5038
912.000000	87.491	-1.9691
925.000000	87.566	-1.3916
938.000000	87.646	-0.7585
950.000000	87.722	-0.2598
962.000000	87.798	0.2377
975.000000	87.893	0.7709
988.000000	87.990	1.2634
1000.000000	88.087	1.6949
1015.000000	88.202	2.2251
1030.000000	88.328	2.6921
1044.000000	88.451	3.0687
1060.000000	88.586	3.4852
1075.000000	88.721	3.8164
1090.000000	88.861	4.0965
1106.000000	89.013	4.3262
1120.000000	89.141	4.5449
1138.000000	89.308	4.6757
1150.000000	89.418	4.7581
1172.000000	89.621	4.8234
1180.000000	89.694	4.8075
1206.000000	89.931	4.7418
1220.000000	90.044	4.6616
1241.000000	90.219	4.5536
1250.000000	90.287	4.4431
1265.000000	90.420	4.3106
1280.000000	90.542	4.1189
1315.000000	90.816	3.6780
1320.000000	90.848	3.6177
1340.000000	90.998	3.3266
1360.000000	91.154	3.0445
1380.000000	91.307	2.6617
1400.000000	91.450	2.2534
1430.000000	91.664	1.5881
1450.000000	91.794	1.0506
1475.000000	91.944	0.3898
1500.000000	92.083	-0.2925
1525.000000	92.210	-0.9368
1550.000000	92.340	-1.5651
1575.000000	92.462	-2.2080
1600.000000	92.578	-2.9002
1625.000000	92.695	-3.5662
1650.000000	92.806	-4.3424
1675.000000	92.908	-5.0286
1700.000000	92.988	-5.8106
1725.000000	93.067	-6.6296
1750.000000	93.137	-7.3774
1775.000000	93.196	-8.1701
1800.000000	93.237	-8.8769
1825.000000	93.251	-9.4752
1850.000000	93.280	-9.8301
1875.000000	93.327	-10.2000
1900.000000	93.402	-10.5979
1925.000000	93.482	-11.0459
1950.000000	93.566	-11.5577
1975.000000	93.638	-12.1924
2000.000000	93.705	-12.7493
2030.000000	93.793	-13.5516
2060.000000	93.887	-14.3688
2090.000000	93.966	-15.2983
2120.000000	94.029	-16.1914
2140.000000	94.061	-16.8174
2180.000000	94.125	-17.9764
2200.000000	94.159	-18.6042
2240.000000	94.227	-19.8897
2270.000000	94.256	-20.9327
2300.000000	94.277	-22.0020
2330.000000	94.234	-23.1955
2360.000000	94.173	-23.9592
2400.000000	94.139	-25.1928
2430.000000	94.110	-26.0602
2470.000000	94.037	-27.3758
2500.000000	93.953	-28.1520
2540.000000	93.868	-28.9655
2580.000000	93.769	-29.8676
2620.000000	93.664	-30.4212
2650.000000	93.576	-30.6361
2690.000000	93.527	-30.6503
2720.000000	93.516	-31.0054
2760.000000	93.459	-31.4470
2800.000000	93.427	-31.9384
2850.000000	93.454	-32.5304
2900.000000	93.407	-34.0848
2950.000000	93.329	-35.0696
3000.000000	93.152	-36.3720
3040.000000	93.008	-36.7602
3070.000000	92.961	-37.3369
3110.000000	92.830	-37.5992
3150.000000	92.718	-38.3462
3200.000000	92.498	-38.5328
3250.000000	92.396	-38.8924
3300.000000	92.306	-38.5557
3350.000000	92.129	-38.8917
3400.000000	92.031	-39.4793
3450.000000	91.946	-39.8495
3500.000000	91.887	-39.2377
3550.000000	91.822	-40.0863
3600.000000	91.701	-39.4058
3650.000000	91.556	-40.3462
3700.000000	91.524	-40.8294
3750.000000	91.343	-40.1014
3820.000000	91.213	-40.7568
3870.000000	91.102	-40.2189
3950.000000	90.920	-40.3824
4000.000000	90.560	-40.5575
4060.000000	90.276	-39.8710
4120.000000	90.254	-39.9345
4180.000000	90.024	-38.8671
4250.000000	89.707	-37.9536
4310.000000	89.404	-36.2070
4370.000000	88.988	-35.8322
4440.000000	88.528	-32.7598
4500.000000	88.180	-29.4704
4550.000000	87.969	-26.3408
4620.000000	87.894	-20.4709
4680.000000	87.778	-15.8410
4750.000000	88.035	-9.0955
4820.000000	88.409	-4.5289
4870.000000	88.924	-1.2049
4940.000000	89.674	2.4143
5000.000000	90.383	3.4817
5080.000000	90.991	4.2327
5150.000000	91.472	3.5617
5220.000000	91.803	1.6694
5300.000000	91.875	-0.1207
5380.000000	91.720	-1.8909
5450.000000	91.738	-2.4999
5520.000000	91.430	-2.7977
5600.000000	91.151	-2.9649
5700.000000	90.498	-2.2796
5800.000000	89.925	0.5870
5900.000000	89.512	3.8798
6000.000000	89.114	7.2450
6080.000000	88.679	10.4222
6150.000000	88.285	14.2327
6220.000000	88.048	17.2252
6300.000000	87.919	21.9032
6400.000000	87.846	26.8388
6500.000000	87.608	31.7078
6600.000000	87.623	39.0083
6700.000000	87.763	43.9619
6800.000000	87.964	49.8971
6900.000000	88.140	56.4351
7000.000000	88.362	61.3176
7100.000000	88.895	66.4659
7200.000000	89.547	71.6023
7300.000000	90.267	75.0518
7400.000000	90.780	79.8810
7500.000000	91.702	82.9083
7620.000000	93.153	87.3913
7750.000000	94.830	86.9913
7880.000000	96.783	81.1384
8000.000000	98.409	71.3446
8120.000000	98.422	57.3400
8250.000000	97.374	45.3548
8380.000000	95.945	39.4516
8500.000000	94.875	37.2589
8620.000000	93.719	38.0474
8750.000000	93.100	39.7317
8850.000000	92.527	40.7869
9000.000000	91.808	41.7438
9120.000000	91.423	43.2785
9250.000000	90.772	44.5312
9380.000000	90.040	46.2102
9500.000000	89.411	47.5487
9620.000000	88.490	50.9749
9750.000000	87.771	54.2683
9880.000000	87.033	58.3532
10000.000000	86.430	64.0709
10150.000000	85.819	70.7313
10300.000000	85.183	74.3297
10440.000000	84.567	77.0533
10600.000000	82.963	75.0800
10750.000000	78.979	85.5855
10900.000000	77.366	119.8684
11060.000000	78.586	143.0098
11200.000000	79.824	154.9083
11380.000000	80.585	166.1384
11500.000000	80.962	171.5694
11720.000000	81.717	-177.5385
11800.000000	81.910	-173.9378
12060.000000	82.253	-163.2785
12200.000000	82.542	-158.0456
12410.000000	82.944	-148.7617
12500.000000	83.025	-146.8966
12650.000000	83.227	-144.4776
12800.000000	83.230	-142.7856
13150.000000	82.674	-136.6071
13200.000000	82.585	-134.6906
13400.000000	82.008	-128.6460
13600.000000	81.724	-120.4624
13800.000000	82.149	-109.9825
14000.000000	82.982	-102.5136
14300.000000	85.218	-99.9044
14500.000000	85.282	-101.7512
14750.000000	84.987	-97.9320
15000.000000	85.214	-88.5628
15250.000000	85.961	-76.3714
15500.000000	87.690	-68.6714
15750.000000	89.922	-69.4765
16000.000000	90.889	-87.3475
16250.000000	88.759	-102.6767
16500.000000	85.232	-101.8657
16750.000000	82.303	-89.6958
17000.000000	80.007	-74.1811
17250.000000	77.718	-57.1482
17500.000000	76.053	-35.8137
17750.000000	74.665	-12.3289
18000.000000	74.410	16.0585
18250.000000	76.693	39.5701
18500.000000	78.137	45.2445
18750.000000	79.000	51.2913
19000.000000	80.110	53.5390
19250.000000	81.003	51.1907
19500.000000	81.743	49.8809
19750.000000	82.310	48.0084
