* Measurement data measured by REW V5.30.9
* Source: Headset (Odo By VECLAN.COM), MICROPHONE (Master Volume), L, volume: 0.250
* Format: 512k Log Swept Sine, 1 sweep at -12.0 dBFS with no timing reference
* Dated: 09 25, 24 3:46:56 AM
* REW Settings:
*  C-weighting compensation: Off
*  Target level: 75.0 dB
* Note: ; 
* Measurement: reference 2019 dsp R
* Smoothing: None
* Frequency Step: 1/48 octave
* Start Frequency: 1.000 Hz
*
* Freq(Hz)	SPL(dB)	Phase(degrees)
1.000000	50.193	-124.2795
1.015000	50.444	-124.5760
1.030000	50.693	-124.8744
1.044000	50.925	-125.1531
1.060000	51.187	-125.4700
1.075000	51.431	-125.7636
1.090000	51.674	-126.0521
1.106000	51.930	-126.3543
1.120000	52.153	-126.6261
1.138000	52.437	-126.9884
1.150000	52.625	-127.2376
1.172000	52.965	-127.7093
1.180000	53.088	-127.8853
1.206000	53.483	-128.4727
1.220000	53.694	-128.7980
1.241000	54.007	-129.2964
1.250000	54.140	-129.5136
1.265000	54.360	-129.8800
1.280000	54.579	-130.2513
1.315000	55.082	-131.1340
1.320000	55.154	-131.2617
1.340000	55.437	-131.7755
1.360000	55.718	-132.2934
1.380000	55.996	-132.8141
1.400000	56.272	-133.3364
1.430000	56.681	-134.1198
1.450000	56.951	-134.6404
1.475000	57.285	-135.2882
1.500000	57.615	-135.9430
1.525000	57.940	-136.6069
1.550000	58.261	-137.2790
1.575000	58.578	-137.9584
1.600000	58.890	-138.6443
1.625000	59.198	-139.3358
1.650000	59.502	-140.0321
1.675000	59.803	-140.7324
1.700000	60.100	-141.4358
1.725000	60.394	-142.1415
1.750000	60.684	-142.8485
1.775000	60.972	-143.5562
1.800000	61.256	-144.2636
1.825000	61.538	-144.9698
1.850000	61.817	-145.6758
1.875000	62.092	-146.3849
1.900000	62.364	-147.0970
1.925000	62.632	-147.8118
1.950000	62.896	-148.5288
1.975000	63.157	-149.2479
2.000000	63.415	-149.9686
2.030000	63.721	-150.8353
2.060000	64.022	-151.7033
2.090000	64.319	-152.5722
2.120000	64.613	-153.4414
2.140000	64.807	-154.0207
2.180000	65.189	-155.1783
2.200000	65.379	-155.7563
2.240000	65.752	-156.9133
2.270000	66.026	-157.7825
2.300000	66.297	-158.6528
2.330000	66.563	-159.5239
2.360000	66.826	-160.3953
2.400000	67.171	-161.5576
2.430000	67.425	-162.4290
2.470000	67.759	-163.5901
2.500000	68.006	-164.4600
2.540000	68.330	-165.6181
2.580000	68.649	-166.7737
2.620000	68.963	-167.9291
2.650000	69.193	-168.7956
2.690000	69.496	-169.9503
2.720000	69.719	-170.8157
2.760000	70.011	-171.9682
2.800000	70.298	-173.1186
2.850000	70.650	-174.5528
2.900000	70.994	-175.9820
2.950000	71.331	-177.4053
3.000000	71.660	-178.8259
3.040000	71.917	-179.9602
3.070000	72.106	179.1907
3.110000	72.355	178.0612
3.150000	72.598	176.9353
3.200000	72.896	175.5339
3.250000	73.188	174.1401
3.300000	73.473	172.7553
3.350000	73.751	171.3770
3.400000	74.022	170.0041
3.450000	74.286	168.6378
3.500000	74.543	167.2794
3.550000	74.794	165.9302
3.600000	75.039	164.5916
3.650000	75.278	163.2647
3.700000	75.512	161.9492
3.750000	75.739	160.6420
3.820000	76.047	158.8281
3.870000	76.259	157.5456
3.950000	76.589	155.5198
4.000000	76.789	154.2721
4.060000	77.022	152.7944
4.120000	77.248	151.3344
4.180000	77.466	149.8927
4.250000	77.711	148.2360
4.310000	77.915	146.8392
4.370000	78.113	145.4655
4.440000	78.338	143.8928
4.500000	78.524	142.5686
4.550000	78.674	141.4820
4.620000	78.877	139.9867
4.680000	79.047	138.7295
4.750000	79.240	137.2917
4.820000	79.428	135.8861
4.870000	79.558	134.9022
4.940000	79.735	133.5513
5.000000	79.882	132.4168
5.080000	80.074	130.9354
5.150000	80.239	129.6671
5.220000	80.399	128.4291
5.300000	80.577	127.0496
5.380000	80.750	125.7025
5.450000	80.898	124.5460
5.520000	81.045	123.4073
5.600000	81.208	122.1351
5.700000	81.408	120.5843
5.800000	81.602	119.0668
5.900000	81.792	117.5732
6.000000	81.978	116.1106
6.080000	82.123	114.9609
6.150000	82.247	113.9666
6.220000	82.369	112.9805
6.300000	82.505	111.8640
6.400000	82.672	110.4871
6.500000	82.834	109.1296
6.600000	82.990	107.7902
6.700000	83.141	106.4676
6.800000	83.288	105.1632
6.900000	83.429	103.8787
7.000000	83.566	102.6157
7.100000	83.698	101.3730
7.200000	83.825	100.1512
7.300000	83.948	98.9509
7.400000	84.068	97.7737
7.500000	84.184	96.6194
7.620000	84.318	95.2606
7.750000	84.461	93.8172
7.880000	84.599	92.4081
8.000000	84.723	91.1287
8.120000	84.844	89.8618
8.250000	84.972	88.5093
8.380000	85.097	87.1682
8.500000	85.209	85.9325
8.620000	85.317	84.7024
8.750000	85.430	83.3746
8.850000	85.513	82.3546
9.000000	85.631	80.8260
9.120000	85.720	79.6125
9.250000	85.809	78.3107
9.380000	85.891	77.0194
9.500000	85.961	75.8491
9.620000	86.027	74.7047
9.750000	86.093	73.4896
9.880000	86.149	72.3110
10.000000	86.188	71.2600
10.150000	86.225	69.9916
10.300000	86.257	68.7728
10.440000	86.281	67.6844
10.600000	86.307	66.4828
10.750000	86.335	65.3898
10.900000	86.365	64.3278
11.060000	86.398	63.2037
11.200000	86.428	62.2312
11.380000	86.468	60.9804
11.500000	86.493	60.1415
11.720000	86.538	58.6009
11.800000	86.552	58.0392
12.060000	86.593	56.2162
12.200000	86.608	55.2493
12.410000	86.626	53.8219
12.500000	86.636	53.2269
12.650000	86.656	52.2547
12.800000	86.677	51.3104
13.150000	86.721	49.2260
13.200000	86.728	48.9388
13.400000	86.753	47.8196
13.600000	86.780	46.7262
13.800000	86.807	45.6524
14.000000	86.835	44.5844
14.300000	86.874	42.9886
14.500000	86.896	41.9271
14.750000	86.918	40.6168
15.000000	86.932	39.3327
15.250000	86.939	38.0928
15.500000	86.941	36.9030
15.750000	86.939	35.7648
16.000000	86.937	34.6741
16.250000	86.936	33.6196
16.500000	86.936	32.5948
16.750000	86.934	31.5916
17.000000	86.930	30.6087
17.250000	86.923	29.6477
17.500000	86.913	28.7117
17.750000	86.900	27.8054
18.000000	86.886	26.9282
18.250000	86.870	26.0800
18.500000	86.855	25.2531
18.750000	86.840	24.4410
19.000000	86.825	23.6379
19.250000	86.809	22.8372
19.500000	86.791	22.0405
19.750000	86.771	21.2497
20.000000	86.747	20.4739
20.299999	86.714	19.5744
20.600000	86.680	18.7182
20.900000	86.646	17.9073
21.200001	86.615	17.1320
21.400000	86.597	16.6221
21.799999	86.566	15.5955
22.000000	86.551	15.0698
22.400000	86.517	13.9911
22.700001	86.484	13.1793
23.000000	86.443	12.3970
23.299999	86.398	11.6691
23.600000	86.352	11.0024
24.000000	86.297	10.1925
24.299999	86.261	9.6113
24.700001	86.219	8.8281
25.000000	86.187	8.2230
25.400000	86.138	7.4106
25.799999	86.080	6.6371
26.200001	86.017	5.9362
26.500000	85.970	5.4574
26.900000	85.910	4.8643
27.200001	85.866	4.4420
27.600000	85.809	3.9064
28.000000	85.754	3.4061
28.500000	85.694	2.8065
29.000000	85.641	2.1592
29.500000	85.582	1.4232
30.000000	85.500	0.6859
30.400000	85.423	0.1948
30.700001	85.365	-0.0929
31.100000	85.298	-0.4075
31.500000	85.246	-0.7191
32.000000	85.188	-1.1870
32.500000	85.122	-1.6993
33.000000	85.048	-2.1437
33.500000	84.983	-2.5188
34.000000	84.931	-2.9453
34.500000	84.870	-3.4775
35.000000	84.785	-4.0010
35.500000	84.687	-4.3544
36.000000	84.602	-4.5345
36.500000	84.542	-4.6924
37.000000	84.494	-4.9562
37.500000	84.436	-5.2983
38.200001	84.339	-5.7098
38.700001	84.273	-5.9095
39.500000	84.191	-6.2281
40.000000	84.145	-6.4899
40.599998	84.086	-6.8422
41.200001	84.022	-7.1948
41.799999	83.954	-7.5497
42.500000	83.858	-7.9257
43.099998	83.766	-8.0723
43.700001	83.698	-8.0406
44.400002	83.662	-8.1187
45.000000	83.621	-8.4806
45.500000	83.546	-8.7786
46.200001	83.418	-8.7865
46.799999	83.352	-8.5332
47.500000	83.320	-8.4777
48.200001	83.265	-8.6533
48.700001	83.211	-8.7227
49.400002	83.147	-8.7668
50.000000	83.093	-8.8784
50.799999	83.004	-8.9714
51.500000	82.940	-8.9237
52.200001	82.895	-8.9643
53.000000	82.830	-9.1042
53.799999	82.760	-9.1183
54.500000	82.718	-9.1184
55.200001	82.674	-9.2256
56.000000	82.600	-9.3193
57.000000	82.517	-9.1533
58.000000	82.476	-9.1364
59.000000	82.395	-9.2997
60.000000	82.304	-9.1792
60.799999	82.257	-9.1115
61.500000	82.212	-9.1500
62.200001	82.156	-9.1741
63.000000	82.096	-9.1296
64.000000	82.039	-9.1827
65.000000	81.954	-9.2894
66.000000	81.890	-9.2277
67.000000	81.823	-9.4366
68.000000	81.737	-9.3173
69.000000	81.717	-9.4684
70.000000	81.605	-9.8036
71.000000	81.530	-9.5464
72.000000	81.477	-9.7884
73.000000	81.371	-9.6942
74.000000	81.338	-9.6324
75.000000	81.259	-9.8303
76.199997	81.173	-9.8035
77.500000	81.060	-9.8065
78.800003	80.983	-9.5706
80.000000	80.908	-9.4417
81.199997	80.858	-9.2524
82.500000	80.792	-9.1978
83.800003	80.751	-9.2292
85.000000	80.648	-9.4551
86.199997	80.581	-9.2289
87.500000	80.508	-9.4866
88.500000	80.440	-9.3898
90.000000	80.349	-9.4919
91.199997	80.288	-9.3467
92.500000	80.192	-9.4359
93.800003	80.129	-9.1666
95.000000	80.056	-9.3666
96.199997	79.944	-9.2325
97.500000	79.879	-8.9885
98.800003	79.811	-9.1304
100.000000	79.706	-9.0933
101.500000	79.603	-8.8312
103.000000	79.528	-8.7520
104.400002	79.405	-8.6001
106.000000	79.327	-8.3878
107.500000	79.221	-8.2932
109.000000	79.108	-8.0631
110.599998	79.055	-7.7452
112.000000	78.947	-7.6898
113.800003	78.808	-7.3187
115.000000	78.731	-6.9319
117.199997	78.599	-6.5966
118.000000	78.563	-6.4823
120.599998	78.374	-6.1758
122.000000	78.306	-5.7118
124.099998	78.184	-5.4438
125.000000	78.102	-5.1218
126.500000	78.040	-4.8279
128.000000	77.942	-4.5403
131.500000	77.761	-3.6611
132.000000	77.736	-3.4761
134.000000	77.658	-2.8676
136.000000	77.544	-2.4094
138.000000	77.426	-1.7192
140.000000	77.337	-1.1310
143.000000	77.206	-0.4662
145.000000	77.069	0.3125
147.500000	76.965	1.2078
150.000000	76.873	1.7661
152.500000	76.749	2.6196
155.000000	76.635	3.3226
157.500000	76.541	4.1671
160.000000	76.430	5.0970
162.500000	76.316	5.9301
165.000000	76.230	6.8338
167.500000	76.088	7.6485
170.000000	75.978	8.6002
172.500000	75.871	9.4276
175.000000	75.789	10.2828
177.500000	75.692	11.3372
180.000000	75.619	12.1783
182.500000	75.515	13.2396
185.000000	75.449	14.1113
187.500000	75.388	15.0974
190.000000	75.273	16.0132
192.500000	75.253	17.1011
195.000000	75.130	17.8069
197.500000	75.052	18.5197
200.000000	75.010	19.6660
203.000000	74.965	21.0598
206.000000	74.992	21.9642
209.000000	74.953	23.4890
212.000000	74.867	24.3064
214.000000	74.829	25.0542
218.000000	74.780	26.2501
220.000000	74.753	26.9004
224.000000	74.723	28.4156
227.000000	74.673	29.5207
230.000000	74.672	30.4075
233.000000	74.641	31.5904
236.000000	74.619	32.5161
240.000000	74.597	34.2608
243.000000	74.582	34.7791
247.000000	74.552	36.1245
250.000000	74.549	37.0101
254.000000	74.537	38.2414
258.000000	74.523	39.4384
262.000000	74.568	40.6765
265.000000	74.518	41.4839
269.000000	74.498	42.6914
272.000000	74.484	43.4297
276.000000	74.522	44.5793
280.000000	74.475	45.6821
285.000000	74.470	47.0266
290.000000	74.471	48.5203
295.000000	74.458	49.8349
300.000000	74.462	51.1019
304.000000	74.469	52.1805
307.000000	74.469	52.8878
311.000000	74.471	53.9359
315.000000	74.478	54.9629
320.000000	74.482	56.0626
325.000000	74.502	57.3635
330.000000	74.492	58.3541
335.000000	74.490	59.3828
340.000000	74.495	60.5970
345.000000	74.528	61.5800
350.000000	74.532	62.8153
355.000000	74.512	63.8021
360.000000	74.527	64.9318
365.000000	74.499	66.0438
370.000000	74.511	66.9824
375.000000	74.518	68.0840
382.000000	74.532	69.5446
387.000000	74.532	70.6313
395.000000	74.549	72.2227
400.000000	74.532	73.3134
406.000000	74.557	74.4814
412.000000	74.558	75.6241
418.000000	74.577	76.8497
425.000000	74.570	78.1095
431.000000	74.584	79.2848
437.000000	74.588	80.4648
444.000000	74.594	81.7592
450.000000	74.597	82.8633
455.000000	74.615	83.8437
462.000000	74.609	85.0622
468.000000	74.622	86.1887
475.000000	74.624	87.4768
482.000000	74.647	88.7543
487.000000	74.633	89.5813
494.000000	74.657	90.8827
500.000000	74.669	91.9808
508.000000	74.670	93.3708
515.000000	74.681	94.5816
522.000000	74.708	95.7278
530.000000	74.707	97.1613
538.000000	74.744	98.4639
545.000000	74.763	99.6537
552.000000	74.770	100.6924
560.000000	74.794	102.0346
570.000000	74.819	103.5655
580.000000	74.842	104.9685
590.000000	74.869	106.4126
600.000000	74.902	107.7163
608.000000	74.906	108.6797
615.000000	74.904	109.4788
622.000000	74.893	110.2221
630.000000	74.871	111.0937
640.000000	74.793	112.2032
650.000000	74.707	113.4597
660.000000	74.592	114.9914
670.000000	74.492	116.6987
680.000000	74.421	118.6038
690.000000	74.362	120.6049
700.000000	74.325	122.5748
710.000000	74.308	124.5672
720.000000	74.292	126.4294
730.000000	74.291	128.2335
740.000000	74.291	130.0536
750.000000	74.287	131.8629
762.000000	74.294	133.9915
775.000000	74.288	136.2594
788.000000	74.299	138.5949
800.000000	74.299	140.6278
812.000000	74.328	142.7284
825.000000	74.334	145.0678
838.000000	74.360	147.3663
850.000000	74.370	149.4433
862.000000	74.406	151.6218
875.000000	74.447	153.8307
885.000000	74.474	155.6252
900.000000	74.519	158.2248
912.000000	74.578	160.2172
925.000000	74.628	162.5153
938.000000	74.690	164.7215
950.000000	74.749	166.6103
962.000000	74.812	168.6028
975.000000	74.901	170.6833
988.000000	74.991	172.7551
1000.000000	75.067	174.5878
1015.000000	75.179	176.8989
1030.000000	75.301	179.1333
1044.000000	75.388	-178.8611
1060.000000	75.512	-176.6081
1075.000000	75.640	-174.4966
1090.000000	75.752	-172.4711
1106.000000	75.875	-170.4068
1120.000000	76.006	-168.7064
1138.000000	76.140	-166.4790
1150.000000	76.238	-164.9845
1172.000000	76.402	-162.4767
1180.000000	76.468	-161.5557
1206.000000	76.663	-158.6781
1220.000000	76.761	-157.1591
1241.000000	76.914	-154.9936
1250.000000	76.971	-154.0457
1265.000000	77.088	-152.4642
1280.000000	77.184	-150.9760
1315.000000	77.408	-147.4673
1320.000000	77.445	-146.9994
1340.000000	77.565	-145.0161
1360.000000	77.687	-143.1403
1380.000000	77.807	-141.2253
1400.000000	77.920	-139.3509
1430.000000	78.088	-136.5554
1450.000000	78.202	-134.7190
1475.000000	78.331	-132.4076
1500.000000	78.470	-130.1238
1525.000000	78.600	-127.8716
1550.000000	78.741	-125.6534
1575.000000	78.877	-123.4816
1600.000000	79.013	-121.2845
1625.000000	79.146	-119.0912
1650.000000	79.280	-116.9776
1675.000000	79.419	-114.8495
1700.000000	79.551	-112.7746
1725.000000	79.692	-110.7260
1750.000000	79.836	-108.6992
1775.000000	79.971	-106.7197
1800.000000	80.114	-104.7571
1825.000000	80.256	-102.8773
1850.000000	80.398	-100.9306
1875.000000	80.541	-99.1247
1900.000000	80.679	-97.3380
1925.000000	80.828	-95.4643
1950.000000	80.968	-93.7671
1975.000000	81.115	-92.0257
2000.000000	81.259	-90.3368
2030.000000	81.438	-88.3063
2060.000000	81.619	-86.3466
2090.000000	81.801	-84.4104
2120.000000	81.998	-82.4210
2140.000000	82.133	-81.2462
2180.000000	82.404	-78.9655
2200.000000	82.536	-77.9958
2240.000000	82.782	-76.0207
2270.000000	82.942	-74.5153
2300.000000	83.101	-72.9313
2330.000000	83.257	-71.3190
2360.000000	83.436	-69.5963
2400.000000	83.727	-67.2728
2430.000000	83.984	-65.6101
2470.000000	84.382	-63.9614
2500.000000	84.679	-63.1381
2540.000000	85.057	-62.7534
2580.000000	85.355	-62.6542
2620.000000	85.583	-62.7123
2650.000000	85.720	-62.7475
2690.000000	85.864	-62.9009
2720.000000	85.938	-62.9101
2760.000000	86.010	-62.8833
2800.000000	86.055	-62.8164
2850.000000	86.070	-62.5973
2900.000000	86.059	-62.2558
2950.000000	86.017	-61.7575
3000.000000	85.958	-61.1424
3040.000000	85.899	-60.4805
3070.000000	85.850	-59.8942
3110.000000	85.783	-59.0585
3150.000000	85.723	-58.1470
3200.000000	85.640	-56.8891
3250.000000	85.564	-55.6042
3300.000000	85.486	-54.3162
3350.000000	85.415	-53.0207
3400.000000	85.344	-51.7313
3450.000000	85.282	-50.4550
3500.000000	85.218	-49.2211
3550.000000	85.159	-47.9565
3600.000000	85.105	-46.7707
3650.000000	85.045	-45.6412
3700.000000	84.991	-44.5891
3750.000000	84.934	-43.6161
3820.000000	84.843	-42.3729
3870.000000	84.766	-41.5774
3950.000000	84.607	-40.5000
4000.000000	84.481	-39.9197
4060.000000	84.306	-39.2683
4120.000000	84.089	-38.6195
4180.000000	83.818	-37.8976
4250.000000	83.441	-36.7326
4310.000000	83.064	-35.3348
4370.000000	82.669	-33.4607
4440.000000	82.207	-30.5217
4500.000000	81.855	-27.4382
4550.000000	81.613	-24.5745
4620.000000	81.368	-20.2392
4680.000000	81.253	-16.5709
4750.000000	81.199	-12.4565
4820.000000	81.209	-8.7679
4870.000000	81.234	-6.3622
4940.000000	81.284	-3.2642
5000.000000	81.334	-0.8523
5080.000000	81.352	2.1414
5150.000000	81.358	4.6132
5220.000000	81.364	6.9878
5300.000000	81.378	9.6210
5380.000000	81.393	12.2057
5450.000000	81.416	14.3845
5520.000000	81.450	16.4765
5600.000000	81.496	18.7644
5700.000000	81.582	21.4260
5800.000000	81.679	23.8124
5900.000000	81.780	25.8233
6000.000000	81.868	27.5238
6080.000000	81.909	28.6809
6150.000000	81.916	29.6006
6220.000000	81.861	30.5977
6300.000000	81.683	33.0163
6400.000000	82.542	36.1626
6500.000000	82.537	34.1119
6600.000000	82.450	34.4811
6700.000000	82.391	35.4430
6800.000000	82.363	36.6687
6900.000000	82.363	38.1074
7000.000000	82.406	39.6045
7100.000000	82.496	41.1799
7200.000000	82.632	42.6397
7300.000000	82.840	44.0217
7400.000000	83.109	45.0643
7500.000000	83.447	45.7440
7620.000000	83.957	45.8248
7750.000000	84.642	44.2513
7880.000000	85.363	39.6243
8000.000000	85.704	31.9896
8120.000000	85.275	23.2903
8250.000000	84.215	16.6550
8380.000000	83.022	13.5380
8500.000000	82.020	12.6872
8620.000000	81.139	12.9128
8750.000000	80.303	13.8171
8850.000000	79.735	14.7669
9000.000000	78.984	16.5078
9120.000000	78.466	18.0108
9250.000000	77.984	19.6252
9380.000000	77.548	21.0447
9500.000000	77.183	22.2874
9620.000000	76.846	23.2633
9750.000000	76.492	24.2114
9880.000000	76.144	25.1366
10000.000000	75.813	25.8381
10150.000000	75.458	26.8206
10300.000000	75.108	27.9126
10440.000000	74.753	29.1304
10600.000000	74.395	31.0003
10750.000000	74.077	33.0200
10900.000000	73.852	35.2856
11060.000000	73.681	38.0771
11200.000000	73.632	40.7189
11380.000000	73.718	44.1955
11500.000000	73.898	46.5472
11720.000000	74.486	50.7138
11800.000000	74.806	52.0642
12060.000000	76.324	55.6262
12200.000000	77.539	56.0275
12410.000000	80.098	52.7593
12500.000000	81.517	48.2707
12650.000000	84.076	31.9748
12800.000000	85.136	0.7440
13150.000000	78.807	-43.7648
13200.000000	77.900	-45.4032
13400.000000	74.864	-47.8033
13600.000000	72.550	-46.6694
13800.000000	70.742	-44.1037
14000.000000	69.312	-40.8254
14300.000000	67.745	-35.2221
14500.000000	66.968	-31.4992
14750.000000	66.301	-26.5720
15000.000000	65.958	-22.0776
15250.000000	65.829	-18.0541
15500.000000	66.101	-14.2336
15750.000000	66.628	-10.9691
16000.000000	67.533	-8.8625
16250.000000	69.103	-8.2812
16500.000000	71.261	-10.6315
16750.000000	74.052	-18.9630
17000.000000	76.981	-40.6838
17250.000000	77.420	-75.4545
17500.000000	75.145	-99.5430
17750.000000	72.880	-111.0933
18000.000000	71.155	-116.9947
18250.000000	69.973	-120.1913
18500.000000	69.295	-122.2272
18750.000000	69.164	-124.2770
19000.000000	69.463	-127.6628
19250.000000	70.192	-133.3236
19500.000000	71.376	-143.9019
19750.000000	72.478	-162.1187
