* Measurement data measured by REW V5.30.9
* Source: Headset (Odo By VECLAN.COM), MICROPHONE (Master Volume), L, volume: 0.250
* Format: 512k Log Swept Sine, 1 sweep at -12.0 dBFS with no timing reference
* Dated: 09 25, 24 3:48:20 AM
* REW Settings:
*  C-weighting compensation: Off
*  Target level: 75.0 dB
* Note: ; 
* Measurement: reference 2019 dsp L
* Smoothing: None
* Frequency Step: 1/48 octave
* Start Frequency: 1.000 Hz
*
* Freq(Hz)	SPL(dB)	Phase(degrees)
1.000000	48.916	-139.4385
1.015000	49.188	-138.7787
1.030000	49.458	-138.1613
1.044000	49.707	-137.6261
1.060000	49.988	-137.0663
1.075000	50.246	-136.5952
1.090000	50.497	-136.1793
1.106000	50.759	-135.7995
1.120000	50.990	-135.5190
1.138000	51.289	-135.2252
1.150000	51.490	-135.0689
1.172000	51.861	-134.8595
1.180000	51.996	-134.8068
1.206000	52.439	-134.7149
1.220000	52.678	-134.7121
1.241000	53.038	-134.7633
1.250000	53.192	-134.8040
1.265000	53.448	-134.8946
1.280000	53.704	-135.0114
1.315000	54.298	-135.3701
1.320000	54.382	-135.4298
1.340000	54.717	-135.6854
1.360000	55.049	-135.9633
1.380000	55.376	-136.2570
1.400000	55.699	-136.5602
1.430000	56.173	-137.0184
1.450000	56.480	-137.3169
1.475000	56.855	-137.6779
1.500000	57.222	-138.0797
1.525000	57.583	-138.5321
1.550000	57.938	-139.0303
1.575000	58.287	-139.5693
1.600000	58.630	-140.1441
1.625000	58.968	-140.7498
1.650000	59.301	-141.3813
1.675000	59.628	-142.0338
1.700000	59.951	-142.7023
1.725000	60.269	-143.3818
1.750000	60.583	-144.0674
1.775000	60.893	-144.7541
1.800000	61.198	-145.4370
1.825000	61.500	-146.1110
1.850000	61.798	-146.7807
1.875000	62.090	-147.4650
1.900000	62.378	-148.1635
1.925000	62.660	-148.8745
1.950000	62.937	-149.5964
1.975000	63.210	-150.3278
2.000000	63.478	-151.0671
2.030000	63.795	-151.9625
2.060000	64.106	-152.8644
2.090000	64.412	-153.7701
2.120000	64.714	-154.6769
2.140000	64.912	-155.2808
2.180000	65.304	-156.4833
2.200000	65.498	-157.0804
2.240000	65.878	-158.2780
2.270000	66.156	-159.1822
2.300000	66.430	-160.0903
2.330000	66.698	-161.0016
2.360000	66.961	-161.9150
2.400000	67.305	-163.1345
2.430000	67.559	-164.0490
2.470000	67.890	-165.2665
2.500000	68.135	-166.1770
2.540000	68.456	-167.3856
2.580000	68.772	-168.5868
2.620000	69.081	-169.7863
2.650000	69.308	-170.6853
2.690000	69.604	-171.8823
2.720000	69.821	-172.7784
2.760000	70.106	-173.9700
2.800000	70.385	-175.1573
2.850000	70.726	-176.6336
2.900000	71.059	-178.0996
2.950000	71.386	-179.5539
3.000000	71.704	178.9998
3.040000	71.951	177.8483
3.070000	72.133	176.9882
3.110000	72.372	175.8464
3.150000	72.606	174.7110
3.200000	72.892	173.3014
3.250000	73.171	171.9032
3.300000	73.445	170.5175
3.350000	73.712	169.1431
3.400000	73.972	167.7791
3.450000	74.225	166.4259
3.500000	74.472	165.0840
3.550000	74.713	163.7541
3.600000	74.949	162.4364
3.650000	75.180	161.1317
3.700000	75.406	159.8398
3.750000	75.626	158.5599
3.820000	75.924	156.7885
3.870000	76.131	155.5380
3.950000	76.453	153.5636
4.000000	76.649	152.3463
4.060000	76.879	150.9028
4.120000	77.102	149.4780
4.180000	77.319	148.0716
4.250000	77.564	146.4539
4.310000	77.768	145.0868
4.370000	77.968	143.7375
4.440000	78.196	142.1861
4.500000	78.385	140.8766
4.550000	78.539	139.7992
4.620000	78.749	138.3113
4.680000	78.925	137.0540
4.750000	79.125	135.6073
4.820000	79.320	134.1829
4.870000	79.456	133.1802
4.940000	79.642	131.7957
5.000000	79.797	130.6257
5.080000	79.999	129.0880
5.150000	80.172	127.7616
5.220000	80.341	126.4558
5.300000	80.528	124.9880
5.380000	80.709	123.5440
5.450000	80.865	122.2979
5.520000	81.017	121.0667
5.600000	81.186	119.6806
5.700000	81.391	117.9784
5.800000	81.589	116.3068
5.900000	81.781	114.6629
6.000000	81.967	113.0485
6.080000	82.110	111.7780
6.150000	82.233	110.6812
6.220000	82.353	109.5978
6.300000	82.486	108.3759
6.400000	82.647	106.8737
6.500000	82.803	105.3994
6.600000	82.954	103.9535
6.700000	83.100	102.5359
6.800000	83.240	101.1465
6.900000	83.376	99.7850
7.000000	83.509	98.4512
7.100000	83.638	97.1466
7.200000	83.762	95.8691
7.300000	83.884	94.6159
7.400000	84.004	93.3870
7.500000	84.121	92.1846
7.620000	84.258	90.7694
7.750000	84.403	89.2623
7.880000	84.546	87.7881
8.000000	84.675	86.4471
8.120000	84.802	85.1164
8.250000	84.937	83.6922
8.380000	85.068	82.2780
8.500000	85.186	80.9745
8.620000	85.301	79.6762
8.750000	85.422	78.2739
8.850000	85.510	77.1963
9.000000	85.638	75.5818
9.120000	85.734	74.2972
9.250000	85.831	72.9145
9.380000	85.923	71.5393
9.500000	86.001	70.2856
9.620000	86.075	69.0499
9.750000	86.150	67.7288
9.880000	86.213	66.4357
10.000000	86.258	65.2700
10.150000	86.299	63.8482
10.300000	86.333	62.4731
10.440000	86.355	61.2328
10.600000	86.376	59.8636
10.750000	86.394	58.6278
10.900000	86.410	57.4362
11.060000	86.426	56.2050
11.200000	86.440	55.1638
11.380000	86.458	53.8602
11.500000	86.471	53.0122
11.720000	86.495	51.4910
11.800000	86.504	50.9449
12.060000	86.534	49.1962
12.200000	86.549	48.2614
12.410000	86.573	46.8677
12.500000	86.587	46.2702
12.650000	86.617	45.2750
12.800000	86.648	44.2799
13.150000	86.711	41.9551
13.200000	86.718	41.6241
13.400000	86.746	40.3007
13.600000	86.767	38.9911
13.800000	86.782	37.6984
14.000000	86.790	36.4366
14.300000	86.792	34.6111
14.500000	86.788	33.4507
14.750000	86.781	32.0654
15.000000	86.771	30.7515
15.250000	86.764	29.4979
15.500000	86.760	28.2857
15.750000	86.759	27.1023
16.000000	86.761	25.9293
16.250000	86.765	24.7593
16.500000	86.770	23.5913
16.750000	86.772	22.4276
17.000000	86.770	21.2783
17.250000	86.764	20.1490
17.500000	86.754	19.0463
17.750000	86.742	17.9728
18.000000	86.728	16.9269
18.250000	86.713	15.9070
18.500000	86.696	14.9091
18.750000	86.677	13.9327
19.000000	86.656	12.9776
19.250000	86.634	12.0461
19.500000	86.610	11.1394
19.750000	86.586	10.2579
20.000000	86.561	9.3998
20.299999	86.531	8.3940
20.600000	86.501	7.4070
20.900000	86.471	6.4322
21.200001	86.438	5.4669
21.400000	86.415	4.8314
21.799999	86.364	3.5893
22.000000	86.336	2.9875
22.400000	86.279	1.8297
22.700001	86.236	0.9998
23.000000	86.194	0.1964
23.299999	86.152	-0.5883
23.600000	86.112	-1.3599
24.000000	86.059	-2.3731
24.299999	86.019	-3.1224
24.700001	85.964	-4.1066
25.000000	85.922	-4.8323
25.400000	85.864	-5.7804
25.799999	85.804	-6.6987
26.200001	85.743	-7.5789
26.500000	85.697	-8.2130
26.900000	85.638	-9.0312
27.200001	85.596	-9.6348
27.600000	85.541	-10.4385
28.000000	85.484	-11.2448
28.500000	85.408	-12.2383
29.000000	85.326	-13.1843
29.500000	85.243	-14.0695
30.000000	85.161	-14.9047
30.400000	85.097	-15.5460
30.700001	85.049	-16.0129
31.100000	84.987	-16.6171
31.500000	84.927	-17.2037
32.000000	84.855	-17.9217
32.500000	84.784	-18.6298
33.000000	84.712	-19.3209
33.500000	84.639	-19.9807
34.000000	84.568	-20.6014
34.500000	84.501	-21.1954
35.000000	84.439	-21.7890
35.500000	84.378	-22.4033
36.000000	84.311	-23.0252
36.500000	84.236	-23.6073
37.000000	84.162	-24.1108
37.500000	84.097	-24.5612
38.200001	84.021	-25.2450
38.700001	83.963	-25.8076
39.500000	83.847	-26.6415
40.000000	83.777	-27.0514
40.599998	83.709	-27.5231
41.200001	83.646	-28.0764
41.799999	83.572	-28.6510
42.500000	83.478	-29.2123
43.099998	83.407	-29.6251
43.700001	83.342	-30.0394
44.400002	83.267	-30.4961
45.000000	83.211	-30.8620
45.500000	83.172	-31.2153
46.200001	83.107	-31.8126
46.799999	83.031	-32.2932
47.500000	82.942	-32.6855
48.200001	82.880	-33.0628
48.700001	82.839	-33.4422
49.400002	82.756	-34.0404
50.000000	82.668	-34.4070
50.799999	82.577	-34.6561
51.500000	82.537	-34.9456
52.200001	82.497	-35.4299
53.000000	82.426	-36.0115
53.799999	82.352	-36.4625
54.500000	82.297	-36.8212
55.200001	82.246	-37.2171
56.000000	82.181	-37.6862
57.000000	82.091	-38.1981
58.000000	82.008	-38.6301
59.000000	81.936	-39.0667
60.000000	81.863	-39.5637
60.799999	81.801	-39.9426
61.500000	81.752	-40.2769
62.200001	81.698	-40.6620
63.000000	81.621	-41.0583
64.000000	81.538	-41.3415
65.000000	81.491	-41.7792
66.000000	81.412	-42.3785
67.000000	81.341	-42.7532
68.000000	81.286	-43.4841
69.000000	81.147	-44.0132
70.000000	81.083	-43.9729
71.000000	81.065	-44.5081
72.000000	80.985	-44.9893
73.000000	80.928	-45.3328
74.000000	80.864	-45.7438
75.000000	80.799	-46.1682
76.199997	80.704	-46.5934
77.500000	80.619	-47.1342
78.800003	80.523	-47.5081
80.000000	80.446	-48.0742
81.199997	80.368	-48.3052
82.500000	80.296	-49.0377
83.800003	80.189	-49.2427
85.000000	80.131	-49.7476
86.199997	80.049	-50.0901
87.500000	79.970	-50.6864
88.500000	79.890	-50.9557
90.000000	79.801	-51.4722
91.199997	79.721	-51.7519
92.500000	79.657	-52.2527
93.800003	79.547	-52.6625
95.000000	79.475	-52.9060
96.199997	79.399	-53.3383
97.500000	79.296	-53.6249
98.800003	79.235	-54.0100
100.000000	79.120	-54.4236
101.500000	79.053	-54.5762
103.000000	78.923	-55.1536
104.400002	78.851	-55.3527
106.000000	78.763	-55.6137
107.500000	78.635	-56.4751
109.000000	78.544	-56.2857
110.599998	78.417	-56.7861
112.000000	78.346	-56.9719
113.800003	78.259	-57.2721
115.000000	78.136	-57.6130
117.199997	78.042	-58.0308
118.000000	77.934	-58.1986
120.599998	77.838	-58.6376
122.000000	77.604	-58.6686
124.099998	77.620	-58.8979
125.000000	77.490	-59.1898
126.500000	77.389	-58.8672
128.000000	77.339	-58.8965
131.500000	77.082	-59.5670
132.000000	77.048	-59.4889
134.000000	76.984	-59.4672
136.000000	76.875	-59.7134
138.000000	76.725	-59.9133
140.000000	76.640	-59.5673
143.000000	76.449	-59.9615
145.000000	76.378	-59.8159
147.500000	76.255	-59.5885
150.000000	76.094	-59.6805
152.500000	75.976	-59.7737
155.000000	75.855	-59.2726
157.500000	75.791	-59.0781
160.000000	75.669	-58.7471
162.500000	75.532	-58.4926
165.000000	75.438	-58.4755
167.500000	75.320	-58.3446
170.000000	75.256	-58.0430
172.500000	75.143	-57.9708
175.000000	75.038	-57.5923
177.500000	74.974	-57.2588
180.000000	74.918	-56.9023
182.500000	74.824	-56.5243
185.000000	74.805	-56.2899
187.500000	74.750	-55.9374
190.000000	74.706	-55.4655
192.500000	74.704	-55.5718
195.000000	74.652	-55.6128
197.500000	74.628	-55.6143
200.000000	74.622	-55.6190
203.000000	74.548	-55.6953
206.000000	74.510	-55.5911
209.000000	74.441	-55.5643
212.000000	74.383	-55.1581
214.000000	74.372	-55.2375
218.000000	74.345	-54.9519
220.000000	74.289	-55.1593
224.000000	74.268	-54.7442
227.000000	74.209	-54.6741
230.000000	74.193	-54.5690
233.000000	74.130	-54.4413
236.000000	74.140	-54.4372
240.000000	74.083	-54.0889
243.000000	74.063	-54.0417
247.000000	74.055	-54.0087
250.000000	74.062	-54.0485
254.000000	74.059	-53.5714
258.000000	73.986	-53.5522
262.000000	73.976	-53.4074
265.000000	73.995	-53.3470
269.000000	73.952	-53.1285
272.000000	73.959	-53.1471
276.000000	73.960	-53.1115
280.000000	73.960	-53.1022
285.000000	73.932	-53.1838
290.000000	73.924	-53.1898
295.000000	73.925	-53.1436
300.000000	73.945	-53.0474
304.000000	73.886	-53.2501
307.000000	73.904	-53.0916
311.000000	73.908	-53.4005
315.000000	73.927	-53.2863
320.000000	73.897	-53.5142
325.000000	73.927	-53.8001
330.000000	73.903	-53.4846
335.000000	73.895	-53.8970
340.000000	73.916	-53.5995
345.000000	73.911	-54.1617
350.000000	73.942	-54.1859
355.000000	73.921	-54.3781
360.000000	73.904	-54.5289
365.000000	73.910	-54.5793
370.000000	73.900	-54.6919
375.000000	73.918	-55.0469
382.000000	73.893	-55.1763
387.000000	73.920	-55.4103
395.000000	73.948	-55.5925
400.000000	73.945	-55.7217
406.000000	73.942	-55.9077
412.000000	73.934	-56.0552
418.000000	73.968	-56.3867
425.000000	73.964	-56.4670
431.000000	73.987	-56.7579
437.000000	73.997	-57.0032
444.000000	74.013	-57.2583
450.000000	74.019	-57.5020
455.000000	74.010	-57.7137
462.000000	74.031	-57.9769
468.000000	74.023	-58.2981
475.000000	74.027	-58.5558
482.000000	74.055	-58.7196
487.000000	74.057	-59.1477
494.000000	74.055	-59.1388
500.000000	74.077	-59.4129
508.000000	74.070	-59.7021
515.000000	74.092	-60.0883
522.000000	74.119	-60.4227
530.000000	74.141	-60.7324
538.000000	74.154	-61.3091
545.000000	74.113	-61.8041
552.000000	74.097	-61.8396
560.000000	74.087	-62.0919
570.000000	74.112	-62.4110
580.000000	74.145	-62.6917
590.000000	74.169	-63.0311
600.000000	74.190	-63.4785
608.000000	74.210	-63.7958
615.000000	74.230	-64.0503
622.000000	74.221	-64.4027
630.000000	74.253	-64.7380
640.000000	74.263	-65.1575
650.000000	74.281	-65.6929
660.000000	74.297	-66.1583
670.000000	74.292	-66.4900
680.000000	74.291	-67.0698
690.000000	74.291	-67.3843
700.000000	74.296	-67.8221
710.000000	74.285	-68.2002
720.000000	74.287	-68.6016
730.000000	74.280	-68.9437
740.000000	74.277	-69.1810
750.000000	74.276	-69.4811
762.000000	74.254	-69.8141
775.000000	74.247	-70.0704
788.000000	74.255	-70.2797
800.000000	74.254	-70.4410
812.000000	74.269	-70.5344
825.000000	74.259	-70.7379
838.000000	74.281	-70.8372
850.000000	74.306	-70.8566
862.000000	74.337	-70.9308
875.000000	74.358	-71.0076
885.000000	74.395	-71.0005
900.000000	74.444	-71.1036
912.000000	74.509	-71.1475
925.000000	74.564	-71.1653
938.000000	74.618	-71.2647
950.000000	74.685	-71.3381
962.000000	74.767	-71.4052
975.000000	74.843	-71.5171
988.000000	74.920	-71.6636
1000.000000	75.012	-71.7742
1015.000000	75.120	-72.0137
1030.000000	75.242	-72.2401
1044.000000	75.340	-72.4501
1060.000000	75.476	-72.8461
1075.000000	75.583	-73.2166
1090.000000	75.708	-73.5470
1106.000000	75.832	-74.0421
1120.000000	75.953	-74.4554
1138.000000	76.083	-75.0013
1150.000000	76.183	-75.4908
1172.000000	76.359	-76.2725
1180.000000	76.417	-76.5905
1206.000000	76.612	-77.6279
1220.000000	76.715	-78.1926
1241.000000	76.866	-79.0748
1250.000000	76.926	-79.4458
1265.000000	77.032	-80.1189
1280.000000	77.130	-80.7606
1315.000000	77.366	-82.3567
1320.000000	77.401	-82.5555
1340.000000	77.521	-83.4834
1360.000000	77.646	-84.3154
1380.000000	77.766	-85.2075
1400.000000	77.886	-86.0336
1430.000000	78.060	-87.3076
1450.000000	78.174	-88.1755
1475.000000	78.314	-89.2161
1500.000000	78.453	-90.2574
1525.000000	78.593	-91.2460
1550.000000	78.728	-92.2277
1575.000000	78.865	-93.2281
1600.000000	79.005	-94.2087
1625.000000	79.140	-95.1653
1650.000000	79.279	-96.1363
1675.000000	79.422	-97.0490
1700.000000	79.555	-98.0616
1725.000000	79.696	-98.9935
1750.000000	79.843	-99.9656
1775.000000	79.984	-100.9222
1800.000000	80.134	-101.8816
1825.000000	80.277	-102.8241
1850.000000	80.416	-103.7733
1875.000000	80.563	-104.7153
1900.000000	80.706	-105.6570
1925.000000	80.850	-106.5679
1950.000000	80.997	-107.5468
1975.000000	81.151	-108.4515
2000.000000	81.319	-109.3915
2030.000000	81.522	-110.6141
2060.000000	81.733	-111.9883
2090.000000	81.926	-113.4025
2120.000000	82.099	-114.8714
2140.000000	82.211	-115.7520
2180.000000	82.412	-117.4976
2200.000000	82.517	-118.3533
2240.000000	82.727	-119.6834
2270.000000	82.903	-120.4565
2300.000000	83.143	-121.1950
2330.000000	83.429	-121.9758
2360.000000	83.798	-123.1455
2400.000000	84.275	-125.8402
2430.000000	84.582	-128.2582
2470.000000	84.904	-131.7783
2500.000000	85.092	-134.4689
2540.000000	85.292	-137.9482
2580.000000	85.451	-141.3453
2620.000000	85.580	-144.7083
2650.000000	85.660	-147.1429
2690.000000	85.737	-150.3773
2720.000000	85.768	-152.7807
2760.000000	85.786	-155.8312
2800.000000	85.775	-158.8083
2850.000000	85.722	-162.2307
2900.000000	85.638	-165.3875
2950.000000	85.535	-168.1661
3000.000000	85.432	-170.5891
3040.000000	85.363	-172.3948
3070.000000	85.316	-173.6357
3110.000000	85.261	-175.2654
3150.000000	85.210	-176.8728
3200.000000	85.122	-178.7780
3250.000000	85.038	179.4337
3300.000000	84.954	177.7472
3350.000000	84.877	176.2092
3400.000000	84.805	174.6992
3450.000000	84.738	173.3401
3500.000000	84.682	172.0225
3550.000000	84.632	170.7656
3600.000000	84.592	169.5486
3650.000000	84.556	168.3706
3700.000000	84.527	167.1922
3750.000000	84.507	166.0105
3820.000000	84.479	164.3796
3870.000000	84.463	163.1835
3950.000000	84.429	161.2071
4000.000000	84.403	159.9659
4060.000000	84.378	158.4349
4120.000000	84.334	156.8483
4180.000000	84.266	155.3523
4250.000000	84.164	153.7209
4310.000000	84.059	152.4938
4370.000000	83.949	151.4349
4440.000000	83.815	150.4014
4500.000000	83.706	149.7133
4550.000000	83.622	149.2461
4620.000000	83.531	148.6741
4680.000000	83.466	148.2148
4750.000000	83.398	147.6723
4820.000000	83.333	147.0725
4870.000000	83.281	146.6766
4940.000000	83.196	146.1539
5000.000000	83.119	145.7823
5080.000000	82.964	145.4703
5150.000000	82.830	145.3679
5220.000000	82.702	145.4099
5300.000000	82.572	145.6097
5380.000000	82.453	146.0292
5450.000000	82.373	146.4664
5520.000000	82.309	146.9250
5600.000000	82.261	147.4984
5700.000000	82.234	148.1815
5800.000000	82.232	148.8005
5900.000000	82.252	149.2658
6000.000000	82.278	149.6117
6080.000000	82.295	149.7722
6150.000000	82.302	149.8218
6220.000000	82.293	149.7868
6300.000000	82.258	149.9432
6400.000000	82.262	149.9758
6500.000000	82.223	150.1946
6600.000000	82.168	150.6702
6700.000000	82.108	151.4357
6800.000000	82.059	152.4990
6900.000000	82.038	153.9177
7000.000000	82.057	155.5422
7100.000000	82.129	157.2999
7200.000000	82.263	159.1059
7300.000000	82.474	160.9402
7400.000000	82.763	162.5908
7500.000000	83.141	163.9488
7620.000000	83.724	164.9056
7750.000000	84.547	164.1846
7880.000000	85.442	159.7316
8000.000000	85.817	151.1920
8120.000000	85.179	142.1923
8250.000000	83.839	136.9037
8380.000000	82.464	135.9935
8500.000000	81.351	137.4711
8620.000000	80.414	140.1365
8750.000000	79.541	143.7979
8850.000000	78.949	146.9891
9000.000000	78.199	152.1219
9120.000000	77.695	156.3914
9250.000000	77.185	161.0773
9380.000000	76.803	165.6035
9500.000000	76.342	170.1044
9620.000000	76.140	174.0449
9750.000000	75.753	178.8755
9880.000000	75.438	-176.8432
10000.000000	75.121	-172.5066
10150.000000	74.825	-167.1225
10300.000000	74.406	-161.0495
10440.000000	74.172	-155.4717
10600.000000	73.808	-148.2731
10750.000000	73.568	-141.1545
10900.000000	73.358	-133.5581
11060.000000	73.270	-124.9338
11200.000000	73.239	-117.0795
11380.000000	73.401	-106.7303
11500.000000	73.642	-99.5135
11720.000000	74.331	-86.5297
11800.000000	74.716	-81.9211
12060.000000	76.467	-67.9398
12200.000000	77.868	-61.9114
12410.000000	80.768	-58.1764
12500.000000	82.340	-60.8403
12650.000000	84.709	-76.8406
12800.000000	84.298	-104.0701
13150.000000	77.299	-119.6475
13200.000000	76.455	-118.0828
13400.000000	73.649	-108.4819
13600.000000	71.481	-96.2263
13800.000000	69.786	-82.3707
14000.000000	68.431	-67.7411
14300.000000	66.919	-44.6133
14500.000000	66.174	-29.1364
14750.000000	65.595	-9.1290
15000.000000	65.271	10.9314
15250.000000	65.174	30.9595
15500.000000	65.495	51.0056
15750.000000	66.050	70.6320
16000.000000	66.964	89.4470
16250.000000	68.630	107.1289
16500.000000	70.793	122.1767
16750.000000	73.600	131.5453
17000.000000	76.564	128.4044
17250.000000	77.229	112.2674
17500.000000	75.030	105.7624
17750.000000	72.694	113.2183
18000.000000	71.010	127.5191
18250.000000	70.052	144.6604
18500.000000	69.671	162.4621
18750.000000	69.748	-179.7961
19000.000000	70.544	-163.7281
19250.000000	71.828	-151.3062
19500.000000	73.484	-147.2842
19750.000000	74.237	-154.5937
