* Measurement data measured by REW V5.30.9
* Source: Microphone (Realtek USB2.0 Audio), MICROPHONE (Master Volume), L, volume: 0.500
* Format: 512k Log Swept Sine, 1 sweep at -12.0 dBFS with no timing reference
* Dated: 02 23, 24 7:06:06 PM
* REW Settings:
*  C-weighting compensation: Off
*  Target level: 75.0 dB
* Note: ; 
* Measurement: rhap UUUU L
* Smoothing: None
* Frequency Step: 1/48 octave
* Start Frequency: 1.000 Hz
*
* Freq(Hz)	SPL(dB)	Phase(degrees)
1.000000	48.454	-70.4380
1.015000	48.260	-70.7965
1.030000	48.051	-71.1506
1.044000	47.841	-71.4838
1.060000	47.586	-71.8600
1.075000	47.334	-72.2009
1.090000	47.071	-72.5229
1.106000	46.782	-72.8376
1.120000	46.523	-73.0817
1.138000	46.183	-73.3430
1.150000	45.955	-73.4788
1.172000	45.536	-73.6337
1.180000	45.385	-73.6564
1.206000	44.900	-73.5883
1.220000	44.647	-73.4523
1.241000	44.281	-73.1020
1.250000	44.130	-72.8938
1.265000	43.889	-72.4639
1.280000	43.662	-71.9238
1.315000	43.199	-70.1951
1.320000	43.141	-69.8907
1.340000	42.935	-68.5186
1.360000	42.763	-66.8361
1.380000	42.605	-64.7194
1.400000	42.460	-62.2149
1.430000	42.270	-57.8539
1.450000	42.164	-54.6256
1.475000	42.055	-50.3276
1.500000	41.977	-45.8403
1.525000	41.930	-41.2732
1.550000	41.917	-36.7359
1.575000	41.941	-32.3380
1.600000	42.004	-28.1891
1.625000	42.108	-24.3988
1.650000	42.255	-21.0768
1.675000	42.448	-18.3325
1.700000	42.697	-16.1736
1.725000	43.024	-14.3567
1.750000	43.419	-12.8404
1.775000	43.872	-11.5982
1.800000	44.372	-10.6041
1.825000	44.907	-9.8319
1.850000	45.468	-9.2552
1.875000	46.043	-8.8479
1.900000	46.622	-8.5838
1.925000	47.193	-8.4365
1.950000	47.746	-8.3800
1.975000	48.271	-8.3880
2.000000	48.756	-8.4342
2.030000	49.275	-8.5263
2.060000	49.763	-8.8537
2.090000	50.232	-9.4380
2.120000	50.685	-10.2377
2.140000	50.979	-10.8698
2.180000	51.548	-12.3159
2.200000	51.824	-13.1053
2.240000	52.362	-14.7549
2.270000	52.756	-16.0053
2.300000	53.142	-17.2209
2.330000	53.523	-18.3598
2.360000	53.899	-19.3828
2.400000	54.386	-20.7178
2.430000	54.739	-21.7491
2.470000	55.193	-23.1458
2.500000	55.524	-24.1964
2.540000	55.954	-25.5828
2.580000	56.373	-26.9310
2.620000	56.784	-28.2175
2.650000	57.088	-29.1279
2.690000	57.491	-30.2500
2.720000	57.789	-31.0361
2.760000	58.177	-32.0523
2.800000	58.556	-33.0210
2.850000	59.017	-34.1457
2.900000	59.468	-35.1520
2.950000	59.910	-36.0154
3.000000	60.346	-36.7114
3.040000	60.691	-37.1344
3.070000	60.947	-37.3957
3.110000	61.282	-37.6769
3.150000	61.612	-37.8706
3.200000	62.017	-37.9717
3.250000	62.416	-37.8947
3.300000	62.810	-37.6166
3.350000	63.200	-37.1146
3.400000	63.586	-36.3763
3.450000	63.966	-35.4235
3.500000	64.341	-34.2648
3.550000	64.711	-32.9072
3.600000	65.077	-31.3580
3.650000	65.439	-29.6242
3.700000	65.799	-27.7130
3.750000	66.155	-25.5484
3.820000	66.647	-22.0516
3.870000	66.994	-19.3309
3.950000	67.542	-14.8156
4.000000	67.880	-12.0184
4.060000	68.282	-8.7888
4.120000	68.679	-5.4748
4.180000	69.071	-2.0982
4.250000	69.523	1.7691
4.310000	69.904	4.8929
4.370000	70.281	7.7208
4.440000	70.714	10.6441
4.500000	71.079	12.9230
4.550000	71.380	14.6663
4.620000	71.795	16.8747
4.680000	72.146	18.5574
4.750000	72.549	20.2639
4.820000	72.944	21.6427
4.870000	73.222	22.4588
4.940000	73.606	23.4208
5.000000	73.930	24.1270
5.080000	74.355	24.9591
5.150000	74.720	25.5038
5.220000	75.078	25.8917
5.300000	75.480	26.2018
5.380000	75.875	26.4350
5.450000	76.215	26.5713
5.520000	76.549	26.6091
5.600000	76.925	26.5730
5.700000	77.386	26.4787
5.800000	77.838	26.3641
5.900000	78.280	26.1856
6.000000	78.713	25.9811
6.080000	79.053	25.8251
6.150000	79.346	25.6902
6.220000	79.635	25.5517
6.300000	79.961	25.3879
6.400000	80.359	25.1735
6.500000	80.750	24.9543
6.600000	81.132	24.7256
6.700000	81.505	24.4732
6.800000	81.870	24.1860
6.900000	82.226	23.8690
7.000000	82.574	23.5311
7.100000	82.915	23.1800
7.200000	83.247	22.8105
7.300000	83.572	22.4266
7.400000	83.891	22.0361
7.500000	84.203	21.6338
7.620000	84.570	21.1394
7.750000	84.959	20.6274
7.880000	85.340	20.1493
8.000000	85.686	19.7322
8.120000	86.027	19.3449
8.250000	86.391	18.9614
8.380000	86.749	18.6039
8.500000	87.075	18.2910
8.620000	87.397	17.9977
8.750000	87.739	17.6886
8.850000	87.998	17.4562
9.000000	88.380	17.1151
9.120000	88.677	16.8330
9.250000	88.992	16.5145
9.380000	89.299	16.1927
9.500000	89.575	15.8988
9.620000	89.844	15.6052
9.750000	90.128	15.2927
9.880000	90.405	14.9879
10.000000	90.655	14.7127
10.150000	90.961	14.3808
10.300000	91.259	14.0612
10.440000	91.533	13.7780
10.600000	91.840	13.4777
10.750000	92.123	13.2085
10.900000	92.402	12.9433
11.060000	92.693	12.6659
11.200000	92.942	12.4218
11.380000	93.253	12.1102
11.500000	93.455	11.9138
11.720000	93.811	11.5760
11.800000	93.937	11.4690
12.060000	94.329	11.1785
12.200000	94.535	11.0747
12.410000	94.835	10.9916
12.500000	94.964	10.9911
12.650000	95.178	11.0404
12.800000	95.395	11.1220
13.150000	95.904	11.3885
13.200000	95.947	11.4208
13.400000	96.062	11.5322
13.600000	96.139	11.5987
13.800000	96.191	11.6003
14.000000	96.258	11.4957
14.300000	96.361	11.1412
14.500000	96.423	10.8103
14.750000	96.478	10.3650
15.000000	96.519	9.8902
15.250000	96.553	9.3991
15.500000	96.581	8.9156
15.750000	96.593	8.4937
16.000000	96.605	8.0825
16.250000	96.619	7.6674
16.500000	96.633	7.2505
16.750000	96.632	6.8782
17.000000	96.628	6.5354
17.250000	96.623	6.2290
17.500000	96.619	5.9708
17.750000	96.609	5.7927
18.000000	96.605	5.6521
18.250000	96.611	5.5269
18.500000	96.627	5.4006
18.750000	96.641	5.2759
19.000000	96.660	5.1210
19.250000	96.684	4.9317
19.500000	96.709	4.7126
19.750000	96.727	4.4910
20.000000	96.745	4.2515
20.299999	96.768	3.9398
20.600000	96.789	3.6145
20.900000	96.804	3.2877
21.200001	96.819	2.9358
21.400000	96.828	2.6957
21.799999	96.834	2.2505
22.000000	96.836	2.0397
22.400000	96.842	1.6438
22.700001	96.847	1.3879
23.000000	96.855	1.1421
23.299999	96.871	0.8686
23.600000	96.889	0.5705
24.000000	96.907	0.1444
24.299999	96.919	-0.2076
24.700001	96.926	-0.6547
25.000000	96.925	-0.9522
25.400000	96.929	-1.3157
25.799999	96.934	-1.6207
26.200001	96.949	-1.9331
26.500000	96.963	-2.1893
26.900000	96.977	-2.5404
27.200001	96.986	-2.8233
27.600000	96.993	-3.1779
28.000000	96.996	-3.4849
28.500000	97.011	-3.8687
29.000000	97.026	-4.2793
29.500000	97.038	-4.7582
30.000000	97.032	-5.1975
30.400000	97.027	-5.5048
30.700001	97.026	-5.6951
31.100000	97.031	-5.9419
31.500000	97.046	-6.2495
32.000000	97.059	-6.7146
32.500000	97.059	-7.2438
33.000000	97.043	-7.6894
33.500000	97.033	-8.0702
34.000000	97.030	-8.4201
34.500000	97.035	-8.8365
35.000000	97.031	-9.2687
35.500000	97.026	-9.6968
36.000000	97.019	-10.0806
36.500000	97.018	-10.5098
37.000000	97.009	-10.9548
37.500000	96.994	-11.3751
38.200001	96.976	-11.8098
38.700001	96.984	-12.1191
39.500000	97.001	-12.8776
40.000000	96.986	-13.4337
40.599998	96.949	-13.9751
41.200001	96.918	-14.3309
41.799999	96.908	-14.6628
42.500000	96.907	-15.1468
43.099998	96.900	-15.6040
43.700001	96.892	-16.0908
44.400002	96.875	-16.6683
45.000000	96.850	-17.1293
45.500000	96.829	-17.4788
46.200001	96.804	-17.9198
46.799999	96.790	-18.3094
47.500000	96.773	-18.8120
48.200001	96.748	-19.3630
48.700001	96.722	-19.7453
49.400002	96.682	-20.1691
50.000000	96.662	-20.4679
50.799999	96.655	-21.0122
51.500000	96.630	-21.6244
52.200001	96.582	-22.1200
53.000000	96.542	-22.5345
53.799999	96.518	-23.0505
54.500000	96.482	-23.5382
55.200001	96.441	-23.9331
56.000000	96.408	-24.3928
57.000000	96.355	-25.0612
58.000000	96.295	-25.6327
59.000000	96.241	-26.2414
60.000000	96.179	-26.8232
60.799999	96.133	-27.2749
61.500000	96.092	-27.6531
62.200001	96.053	-28.0064
63.000000	96.011	-28.4449
64.000000	95.940	-28.9414
65.000000	95.875	-29.2614
66.000000	95.819	-29.6006
67.000000	95.765	-29.8061
68.000000	95.752	-30.1625
69.000000	95.707	-30.7642
70.000000	95.667	-31.1556
71.000000	95.644	-31.9461
72.000000	95.540	-32.4474
73.000000	95.535	-32.5291
74.000000	95.532	-33.2966
75.000000	95.475	-33.6943
76.199997	95.449	-34.4519
77.500000	95.337	-34.7834
78.800003	95.312	-35.6056
80.000000	95.177	-35.9261
81.199997	95.175	-36.3910
82.500000	95.098	-37.0468
83.800003	95.067	-37.8547
85.000000	94.966	-38.4601
86.199997	94.893	-38.9319
87.500000	94.803	-39.4291
88.500000	94.735	-39.9067
90.000000	94.599	-40.5846
91.199997	94.512	-40.9989
92.500000	94.414	-41.5064
93.800003	94.363	-42.0046
95.000000	94.239	-42.5727
96.199997	94.192	-42.6661
97.500000	94.099	-43.2951
98.800003	94.020	-43.7898
100.000000	93.937	-43.9949
101.500000	93.865	-45.5283
103.000000	93.676	-45.3949
104.400002	93.565	-45.9573
106.000000	93.544	-45.9714
107.500000	93.398	-46.2433
109.000000	93.325	-46.8215
110.599998	93.185	-46.9558
112.000000	93.074	-47.9083
113.800003	92.935	-48.1618
115.000000	92.895	-48.4631
117.199997	92.754	-48.7222
118.000000	92.698	-49.0212
120.599998	92.802	-48.5601
122.000000	92.384	-50.0214
124.099998	92.256	-50.2696
125.000000	92.204	-50.4858
126.500000	92.087	-51.0854
128.000000	91.994	-50.9709
131.500000	91.765	-51.5366
132.000000	91.710	-51.5317
134.000000	91.550	-52.0755
136.000000	91.460	-52.3878
138.000000	91.355	-52.4161
140.000000	91.181	-52.3232
143.000000	90.992	-52.5405
145.000000	90.848	-53.1424
147.500000	90.723	-53.3825
150.000000	90.563	-52.7965
152.500000	90.276	-53.3751
155.000000	90.127	-54.0842
157.500000	90.062	-54.0342
160.000000	89.920	-54.2744
162.500000	89.736	-53.7974
165.000000	89.500	-54.1268
167.500000	89.343	-54.2314
170.000000	89.192	-54.3411
172.500000	88.995	-54.0859
175.000000	88.857	-54.0565
177.500000	88.697	-53.9217
180.000000	88.521	-53.7025
182.500000	88.324	-53.6974
185.000000	88.162	-53.5695
187.500000	88.009	-53.4971
190.000000	87.853	-53.2613
192.500000	87.685	-53.0301
195.000000	87.526	-52.8627
197.500000	87.381	-52.6393
200.000000	87.235	-52.4052
203.000000	87.071	-52.1693
206.000000	86.891	-51.6860
209.000000	86.737	-51.2846
212.000000	86.563	-50.8776
214.000000	86.468	-50.5644
218.000000	86.270	-49.9755
220.000000	86.167	-49.6663
224.000000	85.987	-48.9532
227.000000	85.835	-48.4343
230.000000	85.713	-47.9009
233.000000	85.567	-47.3490
236.000000	85.451	-46.8017
240.000000	85.299	-46.0245
243.000000	85.163	-45.4729
247.000000	85.015	-44.6124
250.000000	84.889	-43.9835
254.000000	84.758	-43.0418
258.000000	84.624	-42.3026
262.000000	84.497	-41.3670
265.000000	84.410	-40.6900
269.000000	84.283	-39.8025
272.000000	84.188	-39.1079
276.000000	84.082	-38.2983
280.000000	83.967	-37.3203
285.000000	83.860	-36.1016
290.000000	83.742	-35.0778
295.000000	83.648	-33.9755
300.000000	83.560	-32.8196
304.000000	83.480	-32.0718
307.000000	83.436	-31.4218
311.000000	83.383	-30.4617
315.000000	83.319	-29.6192
320.000000	83.269	-28.5764
325.000000	83.207	-27.5104
330.000000	83.165	-26.5792
335.000000	83.115	-25.4765
340.000000	83.072	-24.5874
345.000000	83.046	-23.6824
350.000000	83.029	-22.7046
355.000000	82.973	-21.9195
360.000000	82.948	-20.5094
365.000000	82.942	-20.1176
370.000000	82.942	-19.2996
375.000000	82.914	-18.5610
382.000000	82.905	-17.5067
387.000000	82.899	-16.7317
395.000000	82.881	-15.5630
400.000000	82.877	-14.8131
406.000000	82.876	-14.0273
412.000000	82.880	-13.2632
418.000000	82.876	-12.4454
425.000000	82.875	-11.6014
431.000000	82.888	-10.9016
437.000000	82.879	-10.1109
444.000000	82.897	-9.3082
450.000000	82.919	-8.6703
455.000000	82.903	-8.1680
462.000000	82.901	-7.4275
468.000000	82.935	-6.8565
475.000000	82.926	-6.0168
482.000000	82.957	-5.3559
487.000000	82.946	-4.8047
494.000000	82.959	-4.2088
500.000000	82.974	-3.7022
508.000000	82.982	-3.0403
515.000000	83.005	-2.3722
522.000000	83.015	-1.7103
530.000000	83.021	-0.9688
538.000000	83.033	-0.3035
545.000000	83.053	0.3519
552.000000	83.069	0.8238
560.000000	83.077	1.4962
570.000000	83.094	2.3243
580.000000	83.126	3.0741
590.000000	83.143	3.9219
600.000000	83.162	4.7030
608.000000	83.186	5.2716
615.000000	83.195	5.8419
622.000000	83.207	6.4164
630.000000	83.232	6.9576
640.000000	83.255	7.7239
650.000000	83.285	8.5017
660.000000	83.302	9.2751
670.000000	83.339	9.9810
680.000000	83.361	10.7794
690.000000	83.394	11.4866
700.000000	83.429	12.2900
710.000000	83.468	12.9831
720.000000	83.511	13.7836
730.000000	83.538	14.5340
740.000000	83.585	15.2363
750.000000	83.634	15.9849
762.000000	83.675	16.8634
775.000000	83.737	17.8101
788.000000	83.806	18.7887
800.000000	83.875	19.6439
812.000000	83.939	20.4631
825.000000	84.013	21.4771
838.000000	84.093	22.4515
850.000000	84.177	23.3208
862.000000	84.272	24.0325
875.000000	84.363	24.8359
885.000000	84.417	25.5003
900.000000	84.519	26.6161
912.000000	84.630	27.5074
925.000000	84.769	28.3922
938.000000	84.904	29.1936
950.000000	85.033	29.8632
962.000000	85.176	30.4606
975.000000	85.329	31.0227
988.000000	85.489	31.4421
1000.000000	85.636	31.6903
1015.000000	85.794	31.7983
1030.000000	85.895	31.6278
1044.000000	85.933	31.7335
1060.000000	85.941	32.4731
1075.000000	86.020	33.6037
1090.000000	86.158	34.7072
1106.000000	86.345	35.6314
1120.000000	86.522	36.1444
1138.000000	86.740	36.7130
1150.000000	86.889	37.0112
1172.000000	87.147	37.3615
1180.000000	87.232	37.5092
1206.000000	87.521	37.7370
1220.000000	87.662	37.8097
1241.000000	87.864	37.8858
1250.000000	87.945	37.8883
1265.000000	88.085	37.8768
1280.000000	88.222	37.8715
1315.000000	88.526	37.8155
1320.000000	88.563	37.8006
1340.000000	88.722	37.7443
1360.000000	88.874	37.6656
1380.000000	89.017	37.6434
1400.000000	89.165	37.5694
1430.000000	89.366	37.4778
1450.000000	89.499	37.4145
1475.000000	89.660	37.3867
1500.000000	89.815	37.3406
1525.000000	89.967	37.3002
1550.000000	90.113	37.2985
1575.000000	90.264	37.3091
1600.000000	90.406	37.2755
1625.000000	90.545	37.2902
1650.000000	90.684	37.3220
1675.000000	90.831	37.3224
1700.000000	90.972	37.3545
1725.000000	91.113	37.4291
1750.000000	91.256	37.4661
1775.000000	91.402	37.4676
1800.000000	91.550	37.4779
1825.000000	91.691	37.5184
1850.000000	91.839	37.5336
1875.000000	91.991	37.5304
1900.000000	92.143	37.4870
1925.000000	92.294	37.4764
1950.000000	92.437	37.4143
1975.000000	92.583	37.3358
2000.000000	92.736	37.2659
2030.000000	92.920	37.1461
2060.000000	93.104	37.0153
2090.000000	93.287	36.8837
2120.000000	93.473	36.6783
2140.000000	93.596	36.5555
2180.000000	93.840	36.2592
2200.000000	93.960	36.0522
2240.000000	94.211	35.6496
2270.000000	94.392	35.3104
2300.000000	94.573	34.9134
2330.000000	94.754	34.4965
2360.000000	94.930	34.0285
2400.000000	95.160	33.3447
2430.000000	95.325	32.7634
2470.000000	95.544	31.9316
2500.000000	95.695	31.2858
2540.000000	95.900	30.4108
2580.000000	96.091	29.4252
2620.000000	96.285	28.5085
2650.000000	96.408	27.7865
2690.000000	96.577	26.8421
2720.000000	96.720	25.9203
2760.000000	96.880	24.9114
2800.000000	97.032	23.5828
2850.000000	97.169	22.2397
2900.000000	97.295	20.5288
2950.000000	97.450	19.2299
3000.000000	97.507	17.4264
3040.000000	97.543	16.3957
3070.000000	97.627	15.3448
3110.000000	97.642	14.2789
3150.000000	97.657	12.6440
3200.000000	97.557	11.3797
3250.000000	97.542	10.0189
3300.000000	97.528	9.4331
3350.000000	97.427	8.2340
3400.000000	97.383	6.6605
3450.000000	97.324	5.4106
3500.000000	97.282	5.1019
3550.000000	97.213	3.5460
3600.000000	97.085	3.5316
3650.000000	96.923	2.0013
3700.000000	96.873	0.9053
3750.000000	96.681	1.2074
3820.000000	96.543	-0.0402
3870.000000	96.441	0.1535
3950.000000	96.299	-0.5298
4000.000000	95.993	-1.1821
4060.000000	95.779	-1.1003
4120.000000	95.826	-2.0253
4180.000000	95.683	-1.6862
4250.000000	95.538	-1.8006
4310.000000	95.429	-1.3607
4370.000000	95.202	-2.8975
4440.000000	95.014	-2.7819
4500.000000	94.845	-2.7875
4550.000000	94.732	-3.0878
4620.000000	94.663	-2.5110
4680.000000	94.408	-2.9581
4750.000000	94.296	-2.2035
4820.000000	94.047	-3.1889
4870.000000	93.992	-2.9369
4940.000000	93.862	-2.4754
5000.000000	93.803	-2.7432
5080.000000	93.480	-2.2583
5150.000000	93.276	-1.8860
5220.000000	93.099	-2.1802
5300.000000	92.798	-1.7791
5380.000000	92.475	-1.5725
5450.000000	92.486	-0.8460
5520.000000	92.253	-0.3603
5600.000000	92.137	-0.2091
5700.000000	91.748	-0.1822
5800.000000	91.479	1.0500
5900.000000	91.351	1.9370
6000.000000	91.233	2.2637
6080.000000	90.999	2.7102
6150.000000	90.772	3.7857
6220.000000	90.673	3.9111
6300.000000	90.698	5.0742
6400.000000	90.766	5.4591
6500.000000	90.615	5.5664
6600.000000	90.703	7.9800
6700.000000	90.860	7.9666
6800.000000	91.059	8.9542
6900.000000	91.184	10.5868
7000.000000	91.306	10.7371
7100.000000	91.742	10.9737
7200.000000	92.250	11.5122
7300.000000	92.785	10.7256
7400.000000	93.222	11.2035
7500.000000	93.923	8.5205
7620.000000	94.771	7.2453
7750.000000	95.513	2.3138
7880.000000	96.373	-4.8561
8000.000000	97.166	-11.4400
8120.000000	97.060	-20.2465
8250.000000	96.666	-29.3271
8380.000000	95.903	-37.2480
8500.000000	95.146	-43.1427
8620.000000	93.985	-46.3630
8750.000000	93.125	-48.3364
8850.000000	92.282	-49.0871
9000.000000	91.195	-49.4044
9120.000000	90.460	-47.2103
9250.000000	89.655	-45.8100
9380.000000	88.901	-43.2374
9500.000000	88.349	-41.5277
9620.000000	87.607	-38.2089
9750.000000	87.045	-35.3119
9880.000000	86.531	-32.1921
10000.000000	86.168	-27.8816
10150.000000	85.659	-22.8049
10300.000000	85.096	-18.7127
10440.000000	84.865	-13.0302
10600.000000	84.433	-7.2876
10750.000000	84.097	-3.0020
10900.000000	83.926	3.0741
11060.000000	83.572	8.3302
11200.000000	83.609	13.4990
11380.000000	83.350	20.3274
11500.000000	83.199	23.4782
11720.000000	83.242	31.3625
11800.000000	83.233	33.9007
12060.000000	83.216	41.4259
12200.000000	83.141	45.8858
12410.000000	83.291	52.0015
12500.000000	83.382	54.9453
12650.000000	83.537	58.2850
12800.000000	83.781	61.1319
13150.000000	84.574	67.4013
13200.000000	84.792	68.7368
13400.000000	85.536	70.5738
13600.000000	86.603	71.0225
13800.000000	88.106	68.9266
14000.000000	89.493	63.7866
14300.000000	92.074	46.5025
14500.000000	93.015	30.4338
14750.000000	93.190	8.2463
15000.000000	92.301	-7.1929
15250.000000	91.321	-15.6149
15500.000000	90.738	-21.9419
15750.000000	90.137	-27.5661
16000.000000	89.459	-33.2385
16250.000000	89.173	-37.3845
16500.000000	88.145	-41.7217
16750.000000	87.004	-41.8479
17000.000000	85.741	-40.0025
17250.000000	84.421	-35.3712
17500.000000	83.179	-29.5673
17750.000000	82.125	-24.3305
18000.000000	80.862	-18.7232
18250.000000	78.831	-12.8091
18500.000000	76.366	-0.3955
18750.000000	74.300	18.4489
19000.000000	72.629	41.7340
19250.000000	72.249	68.8104
19500.000000	72.990	90.8946
19750.000000	73.651	108.7181
