* Measurement data measured by REW V5.30.9
* Source: Microphone (Realtek USB2.0 Audio), MICROPHONE (Master Volume), L, volume: 0.500
* Format: 1M Log Swept Sine, 1 sweep at -12.0 dBFS with no timing reference
* Dated: 06 29, 24 3:22:24 PM
* REW Settings:
*  C-weighting compensation: Off
*  Target level: 75.0 dB
* Note: ; 
* Measurement: s08 R
* Smoothing: None
* Frequency Step: 1/48 octave
* Start Frequency: 1.000 Hz
*
* Freq(Hz)	SPL(dB)	Phase(degrees)
1.000000	46.428	-108.6266
1.015000	46.314	-109.4578
1.030000	46.193	-110.2466
1.044000	46.073	-110.9436
1.060000	45.928	-111.6926
1.075000	45.783	-112.3479
1.090000	45.629	-112.9565
1.106000	45.453	-113.5653
1.120000	45.281	-114.1271
1.138000	45.036	-114.8944
1.150000	44.859	-115.4252
1.172000	44.509	-116.4165
1.180000	44.375	-116.7771
1.206000	43.919	-117.9225
1.220000	43.662	-118.5071
1.241000	43.268	-119.3169
1.250000	43.096	-119.6327
1.265000	42.809	-120.1081
1.280000	42.521	-120.5103
1.315000	41.858	-121.0999
1.320000	41.765	-121.1381
1.340000	41.403	-121.1592
1.360000	41.057	-120.9494
1.380000	40.731	-120.4817
1.400000	40.432	-119.7294
1.430000	40.040	-118.0086
1.450000	39.824	-116.4273
1.475000	39.608	-113.8837
1.500000	39.418	-110.4441
1.525000	39.248	-106.1659
1.550000	39.099	-101.1849
1.575000	38.974	-95.6367
1.600000	38.873	-89.6571
1.625000	38.801	-83.3819
1.650000	38.758	-76.9468
1.675000	38.747	-70.4874
1.700000	38.770	-64.1396
1.725000	38.829	-58.0391
1.750000	38.926	-52.3216
1.775000	39.063	-47.1228
1.800000	39.242	-42.5784
1.825000	39.466	-38.8243
1.850000	39.748	-35.8598
1.875000	40.110	-33.4016
1.900000	40.543	-31.3895
1.925000	41.036	-29.7756
1.950000	41.578	-28.5117
1.975000	42.158	-27.5498
2.000000	42.765	-26.8420
2.030000	43.515	-26.2603
2.060000	44.268	-25.8923
2.090000	45.008	-25.6549
2.120000	45.714	-25.4653
2.140000	46.157	-25.3243
2.180000	46.952	-24.8971
2.200000	47.292	-24.5635
2.240000	47.902	-24.0182
2.270000	48.318	-23.8112
2.300000	48.703	-23.7433
2.330000	49.061	-23.7838
2.360000	49.397	-23.9021
2.400000	49.818	-24.1277
2.430000	50.118	-24.3081
2.470000	50.506	-24.5052
2.500000	50.793	-24.5808
2.540000	51.178	-24.5268
2.580000	51.572	-24.2497
2.620000	51.948	-23.8770
2.650000	52.217	-23.5578
2.690000	52.561	-23.0774
2.720000	52.811	-22.6749
2.760000	53.138	-22.0803
2.800000	53.462	-21.4174
2.850000	53.870	-20.4896
2.900000	54.290	-19.4476
2.950000	54.731	-18.2854
3.000000	55.180	-16.9888
3.040000	55.542	-15.8607
3.070000	55.815	-14.9663
3.110000	56.182	-13.7153
3.150000	56.552	-12.4041
3.200000	57.019	-10.6913
3.250000	57.490	-8.9099
3.300000	57.966	-7.0739
3.350000	58.451	-5.1744
3.400000	58.946	-3.1988
3.450000	59.447	-1.1470
3.500000	59.950	0.9807
3.550000	60.451	3.1845
3.600000	60.947	5.4641
3.650000	61.433	7.8195
3.700000	61.910	10.2827
3.750000	62.385	12.9035
3.820000	63.043	16.7472
3.870000	63.506	19.5482
3.950000	64.229	23.9853
4.000000	64.667	26.6513
4.060000	65.176	29.7033
4.120000	65.670	32.7626
4.180000	66.151	35.7908
4.250000	66.695	39.1838
4.310000	67.146	41.8864
4.370000	67.584	44.3196
4.440000	68.077	46.7532
4.500000	68.483	48.5533
4.550000	68.810	49.8768
4.620000	69.254	51.4913
4.680000	69.623	52.6833
4.750000	70.042	53.8879
4.820000	70.448	54.8638
4.870000	70.728	55.3787
4.940000	71.107	55.8991
5.000000	71.424	56.2086
5.080000	71.838	56.5086
5.150000	72.196	56.7327
5.220000	72.546	56.8386
5.300000	72.935	56.8171
5.380000	73.318	56.7062
5.450000	73.653	56.5876
5.520000	73.990	56.4879
5.600000	74.373	56.3515
5.700000	74.849	56.1359
5.800000	75.327	55.8888
5.900000	75.809	55.6301
6.000000	76.296	55.3649
6.080000	76.687	55.1333
6.150000	77.028	54.9058
6.220000	77.368	54.6462
6.300000	77.755	54.3132
6.400000	78.239	53.8535
6.500000	78.717	53.3324
6.600000	79.183	52.7359
6.700000	79.639	52.0521
6.800000	80.085	51.2942
6.900000	80.517	50.4837
7.000000	80.931	49.6353
7.100000	81.328	48.7220
7.200000	81.711	47.7722
7.300000	82.077	46.8276
7.400000	82.428	45.8988
7.500000	82.761	44.9567
7.620000	83.144	43.8737
7.750000	83.543	42.8379
7.880000	83.922	41.9173
8.000000	84.262	41.1803
8.120000	84.602	40.5772
8.250000	84.965	40.0788
8.380000	85.329	39.6884
8.500000	85.675	39.3981
8.620000	86.027	39.2019
8.750000	86.416	39.0115
8.850000	86.721	38.8371
9.000000	87.190	38.5812
9.120000	87.568	38.3196
9.250000	87.975	37.9260
9.380000	88.384	37.4443
9.500000	88.753	36.9233
9.620000	89.111	36.3208
9.750000	89.489	35.5798
9.880000	89.851	34.7862
10.000000	90.167	34.0076
10.150000	90.542	32.9776
10.300000	90.893	31.9707
10.440000	91.198	31.0432
10.600000	91.527	30.0360
10.750000	91.817	29.1834
10.900000	92.092	28.4045
11.060000	92.378	27.6651
11.200000	92.621	27.0993
11.380000	92.930	26.4472
11.500000	93.137	26.0619
11.720000	93.515	25.4133
11.800000	93.654	25.1812
12.060000	94.102	24.4454
12.200000	94.341	24.0259
12.410000	94.693	23.3794
12.500000	94.840	23.1054
12.650000	95.081	22.6500
12.800000	95.316	22.1998
13.150000	95.859	21.1796
13.200000	95.906	21.0399
13.400000	95.974	20.4972
13.600000	95.994	19.9828
13.800000	96.013	19.5094
14.000000	96.038	18.9919
14.300000	96.089	18.1200
14.500000	96.115	17.4982
14.750000	96.128	16.7329
15.000000	96.120	16.0041
15.250000	96.113	15.3026
15.500000	96.099	14.7395
15.750000	96.080	14.3345
16.000000	96.077	14.0325
16.250000	96.099	13.7092
16.500000	96.142	13.3236
16.750000	96.180	12.8522
17.000000	96.212	12.2762
17.250000	96.232	11.6408
17.500000	96.234	11.0190
17.750000	96.219	10.5247
18.000000	96.203	10.1358
18.250000	96.210	9.8204
18.500000	96.235	9.4880
18.750000	96.271	9.0499
19.000000	96.311	8.4244
19.250000	96.339	7.5529
19.500000	96.331	6.5646
19.750000	96.271	5.5639
20.000000	96.164	4.7570
20.299999	96.009	4.2218
20.600000	95.866	4.2442
20.900000	95.784	4.7272
21.200001	95.807	5.2752
21.400000	95.870	5.4290
21.799999	96.039	5.0421
22.000000	96.110	4.4891
22.400000	96.173	2.9133
22.700001	96.127	1.7796
23.000000	96.027	1.0456
23.299999	95.930	0.7976
23.600000	95.872	0.9635
24.000000	95.900	1.4392
24.299999	95.994	1.6059
24.700001	96.162	1.3343
25.000000	96.280	0.7911
25.400000	96.405	-0.2242
25.799999	96.481	-1.3135
26.200001	96.527	-2.3859
26.500000	96.549	-3.1730
26.900000	96.556	-4.1819
27.200001	96.549	-4.9377
27.600000	96.522	-5.9684
28.000000	96.459	-7.0104
28.500000	96.311	-8.2141
29.000000	96.085	-8.8486
29.500000	95.868	-8.5714
30.000000	95.777	-7.7009
30.400000	95.818	-7.2954
30.700001	95.874	-7.4003
31.100000	95.914	-8.0319
31.500000	95.880	-8.8553
32.000000	95.760	-9.4521
32.500000	95.673	-9.4211
33.000000	95.684	-9.3556
33.500000	95.741	-9.8534
34.000000	95.747	-10.7384
34.500000	95.694	-11.5141
35.000000	95.628	-11.9312
35.500000	95.594	-12.1816
36.000000	95.582	-12.4702
36.500000	95.574	-12.8558
37.000000	95.560	-13.2797
37.500000	95.539	-13.7612
38.200001	95.475	-14.4097
38.700001	95.417	-14.7336
39.500000	95.350	-15.1358
40.000000	95.315	-15.5059
40.599998	95.251	-16.0072
41.200001	95.176	-16.3134
41.799999	95.135	-16.5082
42.500000	95.126	-16.9867
43.099998	95.098	-17.6587
43.700001	95.033	-18.3037
44.400002	94.942	-18.7562
45.000000	94.886	-18.9329
45.500000	94.865	-19.0850
46.200001	94.855	-19.4371
46.799999	94.842	-19.9103
47.500000	94.799	-20.5418
48.200001	94.727	-21.0402
48.700001	94.679	-21.2631
49.400002	94.638	-21.5244
50.000000	94.615	-21.8789
50.799999	94.558	-22.4937
51.500000	94.477	-22.8760
52.200001	94.405	-22.9983
53.000000	94.366	-23.0834
53.799999	94.345	-23.4374
54.500000	94.296	-23.8584
55.200001	94.236	-24.1913
56.000000	94.171	-24.6744
57.000000	94.028	-25.2445
58.000000	93.944	-25.2752
59.000000	93.909	-26.0378
60.000000	93.765	-26.4973
60.799999	93.730	-26.4271
61.500000	93.731	-26.7161
62.200001	93.688	-27.0817
63.000000	93.633	-27.2095
64.000000	93.613	-27.4322
65.000000	93.542	-28.0750
66.000000	93.398	-28.1144
67.000000	93.412	-27.9198
68.000000	93.388	-29.1113
69.000000	93.190	-29.4293
70.000000	93.174	-29.0745
71.000000	93.162	-29.7546
72.000000	93.056	-30.0408
73.000000	92.978	-30.1999
74.000000	92.863	-30.2908
75.000000	92.800	-30.2070
76.199997	92.722	-30.7807
77.500000	92.605	-31.1581
78.800003	92.517	-31.7993
80.000000	92.425	-31.8982
81.199997	92.410	-31.9961
82.500000	92.365	-32.2037
83.800003	92.295	-32.3571
85.000000	92.182	-32.4313
86.199997	92.107	-32.1786
87.500000	92.021	-32.7646
88.500000	91.878	-32.5040
90.000000	91.888	-32.7147
91.199997	91.777	-33.0380
92.500000	91.652	-33.6057
93.800003	91.551	-32.3842
95.000000	91.720	-33.4247
96.199997	91.490	-34.0545
97.500000	91.519	-33.5944
98.800003	91.478	-34.1272
100.000000	91.384	-34.2788
101.500000	91.309	-33.7869
103.000000	91.232	-33.9714
104.400002	91.224	-33.9803
106.000000	91.029	-34.4073
107.500000	91.070	-33.8838
109.000000	90.980	-34.5933
110.599998	90.882	-34.4772
112.000000	90.856	-34.4860
113.800003	90.618	-35.5404
115.000000	90.631	-34.5334
117.199997	90.388	-35.0043
118.000000	90.544	-34.7263
120.599998	90.315	-35.9309
122.000000	90.175	-36.2779
124.099998	90.197	-35.9739
125.000000	90.217	-36.0267
126.500000	90.091	-36.6163
128.000000	90.057	-36.1187
131.500000	89.773	-36.4274
132.000000	89.897	-36.0922
134.000000	89.372	-38.4061
136.000000	89.745	-36.8020
138.000000	89.676	-36.0218
140.000000	89.555	-36.0547
143.000000	89.424	-36.4583
145.000000	89.317	-36.1265
147.500000	89.232	-36.4051
150.000000	89.104	-35.7629
152.500000	88.971	-34.5451
155.000000	88.845	-35.2929
157.500000	88.830	-34.8044
160.000000	88.642	-34.2046
162.500000	88.802	-33.4636
165.000000	88.750	-32.9006
167.500000	88.632	-32.1642
170.000000	88.634	-31.7131
172.500000	88.458	-33.9195
175.000000	88.385	-34.4412
177.500000	88.354	-33.6521
180.000000	88.157	-37.9418
182.500000	88.151	-33.3465
185.000000	88.118	-32.7876
187.500000	87.905	-32.8066
190.000000	87.728	-34.2322
192.500000	87.797	-33.6557
195.000000	87.624	-34.4574
197.500000	87.472	-33.8310
200.000000	87.635	-34.2276
203.000000	87.538	-33.0503
206.000000	87.373	-32.4107
209.000000	87.214	-33.2834
212.000000	87.085	-33.2821
214.000000	87.307	-34.2532
218.000000	87.194	-33.5795
220.000000	87.022	-30.8475
224.000000	86.806	-32.7188
227.000000	86.833	-31.4553
230.000000	86.900	-30.9976
233.000000	86.904	-30.6504
236.000000	86.814	-30.5668
240.000000	86.709	-29.0533
243.000000	86.544	-30.1561
247.000000	86.611	-29.6741
250.000000	86.511	-29.4244
254.000000	86.428	-30.2478
258.000000	86.378	-29.0868
262.000000	86.249	-30.1341
265.000000	86.106	-28.3945
269.000000	86.098	-28.5135
272.000000	86.079	-27.8664
276.000000	85.918	-27.8290
280.000000	85.874	-28.5254
285.000000	85.815	-27.6233
290.000000	85.748	-26.5225
295.000000	85.606	-25.9940
300.000000	85.674	-25.4828
304.000000	85.587	-25.7849
307.000000	85.482	-24.9382
311.000000	85.520	-23.7742
315.000000	85.472	-25.7649
320.000000	85.473	-24.1174
325.000000	85.306	-23.5215
330.000000	85.223	-23.7153
335.000000	85.264	-23.2949
340.000000	85.314	-22.2278
345.000000	85.174	-22.0632
350.000000	84.872	-22.5937
355.000000	85.017	-22.5295
360.000000	85.113	-21.3051
365.000000	85.026	-20.9369
370.000000	84.906	-21.2364
375.000000	84.871	-19.9279
382.000000	84.925	-20.0101
387.000000	84.667	-18.8008
395.000000	84.546	-18.1118
400.000000	84.675	-18.7186
406.000000	84.645	-18.2220
412.000000	84.554	-17.0369
418.000000	84.402	-16.6126
425.000000	84.415	-16.8635
431.000000	84.368	-16.0091
437.000000	84.229	-15.6523
444.000000	84.324	-14.8894
450.000000	84.260	-14.1437
455.000000	84.177	-13.8193
462.000000	84.144	-14.2334
468.000000	84.066	-13.0513
475.000000	84.070	-12.6148
482.000000	84.204	-11.4433
487.000000	84.056	-11.5113
494.000000	84.086	-11.4411
500.000000	83.994	-10.5944
508.000000	83.909	-9.7049
515.000000	83.987	-9.8673
522.000000	83.987	-8.3330
530.000000	83.758	-7.2035
538.000000	83.867	-8.6151
545.000000	83.907	-7.6321
552.000000	83.753	-7.2231
560.000000	83.885	-6.8209
570.000000	83.824	-5.4371
580.000000	83.794	-4.7779
590.000000	83.771	-4.1501
600.000000	83.718	-3.6528
608.000000	83.779	-2.7866
615.000000	83.728	-1.6703
622.000000	83.543	-2.3337
630.000000	83.805	-2.1825
640.000000	84.142	-1.6760
650.000000	83.575	-7.0950
660.000000	83.330	1.1128
670.000000	83.990	3.4155
680.000000	83.345	3.3000
690.000000	83.764	2.4388
700.000000	83.772	2.8879
710.000000	83.850	3.9366
720.000000	83.754	5.0750
730.000000	83.840	6.0214
740.000000	83.779	6.7955
750.000000	83.813	7.2024
762.000000	83.837	8.1127
775.000000	83.857	8.9606
788.000000	83.938	9.6424
800.000000	83.949	10.7217
812.000000	83.979	11.4745
825.000000	84.463	12.8427
838.000000	84.343	13.5534
850.000000	84.152	14.3233
862.000000	84.205	14.7579
875.000000	84.316	15.9178
885.000000	84.344	16.0646
900.000000	84.369	16.7224
912.000000	84.578	18.0868
925.000000	84.617	18.4064
938.000000	84.824	19.1945
950.000000	84.884	23.6403
962.000000	84.639	21.8115
975.000000	84.921	21.0695
988.000000	85.073	21.7132
1000.000000	85.212	23.1498
1015.000000	85.432	22.7651
1030.000000	85.552	23.6739
1044.000000	85.540	24.3770
1060.000000	85.750	24.9249
1075.000000	85.854	25.1571
1090.000000	85.965	25.7202
1106.000000	86.156	26.0273
1120.000000	86.251	26.4109
1138.000000	86.473	26.8820
1150.000000	86.595	27.4505
1172.000000	86.756	27.2535
1180.000000	86.903	27.4125
1206.000000	87.232	28.2520
1220.000000	87.115	27.9209
1241.000000	87.375	28.5486
1250.000000	87.468	28.3578
1265.000000	87.602	28.6705
1280.000000	87.749	28.9746
1315.000000	88.114	29.0796
1320.000000	88.219	28.9267
1340.000000	88.391	28.9509
1360.000000	88.667	28.8809
1380.000000	88.812	28.8926
1400.000000	89.085	28.1336
1430.000000	89.379	27.7490
1450.000000	89.586	26.7681
1475.000000	89.788	25.7988
1500.000000	89.959	24.7070
1525.000000	90.078	23.7249
1550.000000	90.202	23.1017
1575.000000	90.302	22.2337
1600.000000	90.425	21.2427
1625.000000	90.528	20.6343
1650.000000	90.632	19.9019
1675.000000	90.733	19.3691
1700.000000	90.853	18.6348
1725.000000	90.945	18.0672
1750.000000	90.996	17.4058
1775.000000	91.091	16.7451
1800.000000	91.212	16.0759
1825.000000	91.311	15.4856
1850.000000	91.368	14.8027
1875.000000	91.474	13.9144
1900.000000	91.574	13.1364
1925.000000	91.657	12.3427
1950.000000	91.777	11.3776
1975.000000	91.872	10.4332
2000.000000	91.925	9.4685
2030.000000	91.964	7.9914
2060.000000	92.033	6.3019
2090.000000	92.008	4.8519
2120.000000	91.975	3.4891
2140.000000	91.931	2.6910
2180.000000	91.819	1.3124
2200.000000	91.754	0.8062
2240.000000	91.640	-0.1902
2270.000000	91.588	-0.7459
2300.000000	91.528	-1.2687
2330.000000	91.461	-1.7890
2360.000000	91.428	-2.2174
2400.000000	91.362	-2.7245
2430.000000	91.319	-3.0368
2470.000000	91.252	-3.5820
2500.000000	91.232	-4.0354
2540.000000	91.205	-4.4246
2580.000000	91.183	-5.0150
2620.000000	91.177	-5.6444
2650.000000	91.148	-6.1371
2690.000000	91.130	-6.9271
2720.000000	91.127	-7.6257
2760.000000	91.097	-8.5884
2800.000000	91.086	-10.0460
2850.000000	90.931	-11.6038
2900.000000	90.723	-13.7958
2950.000000	90.449	-15.7202
3000.000000	89.930	-17.6471
3040.000000	89.456	-17.8590
3070.000000	89.144	-17.9954
3110.000000	88.625	-17.0180
3150.000000	88.185	-15.7592
3200.000000	87.694	-12.8649
3250.000000	87.445	-10.1263
3300.000000	87.312	-6.6477
3350.000000	87.176	-4.1784
3400.000000	87.140	-2.4118
3450.000000	87.156	-0.5123
3500.000000	87.255	2.2512
3550.000000	87.297	3.5073
3600.000000	87.364	5.8074
3650.000000	87.410	6.2657
3700.000000	87.553	7.2628
3750.000000	87.572	9.1850
3820.000000	87.756	9.9064
3870.000000	87.869	11.4086
3950.000000	88.055	12.1912
4000.000000	87.997	12.3141
4060.000000	88.064	13.1769
4120.000000	88.333	13.1082
4180.000000	88.463	14.0254
4250.000000	88.593	14.2853
4310.000000	88.742	14.8702
4370.000000	88.784	13.4583
4440.000000	88.880	13.5189
4500.000000	88.893	13.1736
4550.000000	88.982	12.6371
4620.000000	89.124	12.9236
4680.000000	89.082	11.8488
4750.000000	89.191	11.7990
4820.000000	89.130	9.8637
4870.000000	89.207	9.1591
4940.000000	89.199	8.5716
5000.000000	89.218	7.4794
5080.000000	88.983	6.6523
5150.000000	88.810	6.0282
5220.000000	88.638	4.7100
5300.000000	88.335	4.3202
5380.000000	87.979	3.7911
5450.000000	87.971	4.1971
5520.000000	87.700	4.4232
5600.000000	87.531	4.3428
5700.000000	87.177	4.2629
5800.000000	86.845	5.7216
5900.000000	86.723	6.9757
6000.000000	86.642	7.6774
6080.000000	86.418	8.5914
6150.000000	86.226	10.0266
6220.000000	86.183	10.5214
6300.000000	86.280	12.2277
6400.000000	86.427	13.2739
6500.000000	86.393	14.1389
6600.000000	86.617	16.7456
6700.000000	86.893	17.2273
6800.000000	87.218	18.3122
6900.000000	87.506	19.8104
7000.000000	87.773	19.8130
7100.000000	88.280	19.5958
7200.000000	88.822	19.5488
7300.000000	89.350	17.7826
7400.000000	89.706	17.2966
7500.000000	90.239	13.5919
7620.000000	90.732	11.7147
7750.000000	90.987	6.9200
7880.000000	91.239	1.4986
8000.000000	91.492	-1.4157
8120.000000	91.158	-5.0277
8250.000000	90.874	-7.9174
8380.000000	90.601	-10.9746
8500.000000	90.533	-14.5217
8620.000000	90.075	-17.1992
8750.000000	89.809	-20.1980
8850.000000	89.376	-22.5449
9000.000000	88.769	-26.1832
9120.000000	88.309	-27.2426
9250.000000	87.723	-29.8504
9380.000000	87.074	-32.1854
9500.000000	86.373	-35.6004
9620.000000	85.281	-38.1416
9750.000000	84.020	-41.4259
9880.000000	82.332	-42.9476
10000.000000	80.626	-39.3429
10150.000000	78.662	-29.5320
10300.000000	77.405	-17.4538
10440.000000	77.215	-5.1496
10600.000000	77.287	4.7473
10750.000000	77.540	10.4164
10900.000000	77.903	15.9728
11060.000000	78.020	19.2946
11200.000000	78.403	22.1745
11380.000000	78.509	24.9940
11500.000000	78.608	24.7957
11720.000000	78.948	26.2738
11800.000000	78.984	26.2557
12060.000000	79.020	25.2417
12200.000000	78.903	24.9738
12410.000000	78.981	24.7311
12500.000000	79.030	24.9800
12650.000000	79.121	24.2347
12800.000000	79.286	23.3254
13150.000000	79.956	21.4589
13200.000000	80.128	21.8079
13400.000000	80.675	19.3860
13600.000000	81.339	16.3893
13800.000000	82.097	11.8457
14000.000000	82.317	6.6141
14300.000000	82.601	-2.3422
14500.000000	82.311	-6.5816
14750.000000	81.994	-11.6340
15000.000000	81.323	-14.1942
15250.000000	80.469	-14.1118
15500.000000	79.724	-13.9274
15750.000000	78.868	-13.2148
16000.000000	78.034	-12.9384
16250.000000	77.864	-12.1590
16500.000000	77.252	-14.9411
16750.000000	76.517	-18.7007
17000.000000	75.168	-26.0251
17250.000000	73.288	-33.7682
17500.000000	70.847	-43.1595
17750.000000	68.493	-55.1346
18000.000000	66.388	-67.3106
18250.000000	65.787	-83.1034
18500.000000	65.835	-93.6911
18750.000000	66.488	-99.2042
19000.000000	67.232	-102.6241
19250.000000	67.664	-101.0967
19500.000000	68.192	-97.7332
19750.000000	68.248	-93.4106
