* Measurement data measured by REW V5.30.9
* Source: Headset (Odo By VECLAN.COM), MICROPHONE (Master Volume), L, volume: 0.250
* Format: 512k Log Swept Sine, 1 sweep at -12.0 dBFS with no timing reference
* Dated: 10 3, 24 1:53:32 AM
* REW Settings:
*  C-weighting compensation: Off
*  Target level: 75.0 dB
* Note: ; 
* Measurement: saga bass L
* Smoothing: None
* Frequency Step: 1/48 octave
* Start Frequency: 1.000 Hz
*
* Freq(Hz)	SPL(dB)	Phase(degrees)
1.000000	64.401	-55.2347
1.015000	64.904	-55.9406
1.030000	65.391	-56.6152
1.044000	65.829	-57.2006
1.060000	66.305	-57.7980
1.075000	66.727	-58.2700
1.090000	67.120	-58.6382
1.106000	67.509	-58.9163
1.120000	67.837	-59.1648
1.138000	68.245	-59.5208
1.150000	68.509	-59.7793
1.172000	68.976	-60.2933
1.180000	69.140	-60.4921
1.206000	69.656	-61.1770
1.220000	69.922	-61.5676
1.241000	70.307	-62.1779
1.250000	70.466	-62.4472
1.265000	70.725	-62.9048
1.280000	70.975	-63.3715
1.315000	71.526	-64.4848
1.320000	71.601	-64.6455
1.340000	71.892	-65.2897
1.360000	72.170	-65.9322
1.380000	72.435	-66.5683
1.400000	72.687	-67.1932
1.430000	73.041	-68.0993
1.450000	73.263	-68.6755
1.475000	73.522	-69.3601
1.500000	73.747	-70.0357
1.525000	73.935	-70.7098
1.550000	74.093	-71.3818
1.575000	74.223	-72.0512
1.600000	74.330	-72.7174
1.625000	74.418	-73.3796
1.650000	74.491	-74.0374
1.675000	74.553	-74.6901
1.700000	74.607	-75.3370
1.725000	74.659	-75.9776
1.750000	74.712	-76.6113
1.775000	74.769	-77.2374
1.800000	74.836	-77.8554
1.825000	74.917	-78.4646
1.850000	75.008	-79.0653
1.875000	75.097	-79.6592
1.900000	75.185	-80.2464
1.925000	75.271	-80.8270
1.950000	75.355	-81.4009
1.975000	75.438	-81.9684
2.000000	75.519	-82.5293
2.030000	75.615	-83.1939
2.060000	75.709	-83.8492
2.090000	75.802	-84.4953
2.120000	75.893	-85.1324
2.140000	75.954	-85.5521
2.180000	76.075	-86.3794
2.200000	76.135	-86.7872
2.240000	76.253	-87.5885
2.270000	76.340	-88.1770
2.300000	76.425	-88.7553
2.330000	76.510	-89.3242
2.360000	76.593	-89.8842
2.400000	76.702	-90.6179
2.430000	76.783	-91.1592
2.470000	76.889	-91.8701
2.500000	76.968	-92.3959
2.540000	77.073	-93.0882
2.580000	77.177	-93.7712
2.620000	77.280	-94.4415
2.650000	77.356	-94.9355
2.690000	77.457	-95.5833
2.720000	77.531	-96.0612
2.760000	77.630	-96.6882
2.800000	77.727	-97.3043
2.850000	77.846	-98.0598
2.900000	77.964	-98.8002
2.950000	78.081	-99.5262
3.000000	78.195	-100.2341
3.040000	78.284	-100.7876
3.070000	78.351	-101.1958
3.110000	78.438	-101.7314
3.150000	78.525	-102.2579
3.200000	78.632	-102.9045
3.250000	78.738	-103.5397
3.300000	78.843	-104.1651
3.350000	78.947	-104.7777
3.400000	79.050	-105.3757
3.450000	79.151	-105.9608
3.500000	79.251	-106.5349
3.550000	79.350	-107.0997
3.600000	79.447	-107.6568
3.650000	79.544	-108.2080
3.700000	79.639	-108.7533
3.750000	79.733	-109.2895
3.820000	79.863	-110.0262
3.870000	79.954	-110.5433
3.950000	80.098	-111.3572
4.000000	80.185	-111.8586
4.060000	80.289	-112.4536
4.120000	80.390	-113.0402
4.180000	80.490	-113.6180
4.250000	80.604	-114.2808
4.310000	80.699	-114.8394
4.370000	80.792	-115.3889
4.440000	80.898	-116.0192
4.500000	80.986	-116.5511
4.550000	81.058	-116.9877
4.620000	81.156	-117.5878
4.680000	81.237	-118.0907
4.750000	81.331	-118.6628
4.820000	81.421	-119.2195
4.870000	81.484	-119.6090
4.940000	81.570	-120.1415
5.000000	81.641	-120.5853
5.080000	81.734	-121.1571
5.150000	81.814	-121.6371
5.220000	81.892	-122.0983
5.300000	81.978	-122.6035
5.380000	82.061	-123.0869
5.450000	82.134	-123.4932
5.520000	82.205	-123.8845
5.600000	82.286	-124.3100
5.700000	82.384	-124.8124
5.800000	82.481	-125.2892
5.900000	82.579	-125.7457
6.000000	82.676	-126.1749
6.080000	82.753	-126.5025
6.150000	82.820	-126.7822
6.220000	82.888	-127.0590
6.300000	82.966	-127.3697
6.400000	83.063	-127.7450
6.500000	83.160	-128.1148
6.600000	83.257	-128.4883
6.700000	83.355	-128.8636
6.800000	83.452	-129.2390
6.900000	83.548	-129.6206
7.000000	83.643	-130.0136
7.100000	83.738	-130.4154
7.200000	83.832	-130.8257
7.300000	83.923	-131.2455
7.400000	84.012	-131.6757
7.500000	84.099	-132.1161
7.620000	84.200	-132.6559
7.750000	84.304	-133.2531
7.880000	84.404	-133.8658
8.000000	84.492	-134.4394
8.120000	84.575	-135.0154
8.250000	84.659	-135.6450
8.380000	84.738	-136.2776
8.500000	84.808	-136.8624
8.620000	84.873	-137.4496
8.750000	84.939	-138.0840
8.850000	84.986	-138.5687
9.000000	85.051	-139.2933
9.120000	85.099	-139.8663
9.250000	85.147	-140.4770
9.380000	85.192	-141.0793
9.500000	85.230	-141.6246
9.620000	85.267	-142.1575
9.750000	85.303	-142.7222
9.880000	85.332	-143.2758
10.000000	85.350	-143.7801
10.150000	85.363	-144.3972
10.300000	85.372	-144.9857
10.440000	85.376	-145.5072
10.600000	85.379	-146.0762
10.750000	85.382	-146.5753
10.900000	85.386	-147.0536
11.060000	85.394	-147.5960
11.200000	85.405	-148.0986
11.380000	85.419	-148.7458
11.500000	85.428	-149.1704
11.720000	85.441	-149.9465
11.800000	85.445	-150.2286
12.060000	85.453	-151.1453
12.200000	85.455	-151.6482
12.410000	85.456	-152.3981
12.500000	85.460	-152.6963
12.650000	85.470	-153.1652
12.800000	85.483	-153.6085
13.150000	85.520	-154.5575
13.200000	85.527	-154.6870
13.400000	85.558	-155.1884
13.600000	85.595	-155.6780
13.800000	85.638	-156.1532
14.000000	85.685	-156.6756
14.300000	85.762	-157.5608
14.500000	85.809	-158.2081
14.750000	85.856	-159.0481
15.000000	85.888	-159.9076
15.250000	85.906	-160.7879
15.500000	85.909	-161.6009
15.750000	85.900	-162.3134
16.000000	85.887	-162.9154
16.250000	85.879	-163.4379
16.500000	85.879	-163.8954
16.750000	85.885	-164.2996
17.000000	85.898	-164.7122
17.250000	85.916	-165.1488
17.500000	85.936	-165.6229
17.750000	85.952	-166.1131
18.000000	85.964	-166.6214
18.250000	85.973	-167.1527
18.500000	85.979	-167.6703
18.750000	85.982	-168.1744
19.000000	85.985	-168.6654
19.250000	85.988	-169.1734
19.500000	85.991	-169.6930
19.750000	85.992	-170.2227
20.000000	85.990	-170.7704
20.299999	85.981	-171.4368
20.600000	85.966	-172.0817
20.900000	85.946	-172.6679
21.200001	85.926	-173.1953
21.400000	85.917	-173.5140
21.799999	85.911	-174.1014
22.000000	85.916	-174.3980
22.400000	85.937	-175.0700
22.700001	85.955	-175.6443
23.000000	85.967	-176.2693
23.299999	85.969	-176.9170
23.600000	85.961	-177.5352
24.000000	85.944	-178.2671
24.299999	85.934	-178.7536
24.700001	85.928	-179.3572
25.000000	85.928	-179.8149
25.400000	85.928	179.5302
25.799999	85.919	178.8583
26.200001	85.899	178.2129
26.500000	85.881	177.7654
26.900000	85.856	177.2241
27.200001	85.839	176.8352
27.600000	85.815	176.3215
28.000000	85.788	175.8306
28.500000	85.754	175.2804
29.000000	85.733	174.7821
29.500000	85.725	174.2004
30.000000	85.710	173.4844
30.400000	85.680	172.8874
30.700001	85.648	172.4987
31.100000	85.607	172.0933
31.500000	85.580	171.7615
32.000000	85.569	171.2905
32.500000	85.558	170.6430
33.000000	85.518	169.9670
33.500000	85.459	169.4807
34.000000	85.423	169.2017
34.500000	85.427	168.8440
35.000000	85.440	168.1825
35.500000	85.408	167.3028
36.000000	85.318	166.5746
36.500000	85.213	166.2716
37.000000	85.157	166.2989
37.500000	85.170	166.2409
38.200001	85.219	165.4716
38.700001	85.202	164.5745
39.500000	85.071	163.4496
40.000000	84.982	163.1512
40.599998	84.918	163.0184
41.200001	84.901	162.8324
41.799999	84.905	162.4188
42.500000	84.889	161.6524
43.099998	84.835	160.9639
43.700001	84.761	160.4669
44.400002	84.691	160.1101
45.000000	84.659	159.7827
45.500000	84.634	159.4023
46.200001	84.582	158.8031
46.799999	84.523	158.3581
47.500000	84.455	157.9814
48.200001	84.408	157.6950
48.700001	84.389	157.4521
49.400002	84.362	156.9545
50.000000	84.312	156.4887
50.799999	84.225	156.1906
51.500000	84.199	156.1158
52.200001	84.207	155.6774
53.000000	84.148	154.8125
53.799999	84.029	154.2690
54.500000	83.945	153.9970
55.200001	83.863	153.6855
56.000000	83.768	153.4937
57.000000	83.713	153.2942
58.000000	83.661	152.7062
59.000000	83.574	152.2470
60.000000	83.531	151.9061
60.799999	83.498	151.2370
61.500000	83.397	150.6415
62.200001	83.280	150.5741
63.000000	83.239	150.6716
64.000000	83.194	150.0931
65.000000	83.090	149.8160
66.000000	83.053	149.5591
67.000000	82.991	149.0205
68.000000	82.889	148.6165
69.000000	82.788	148.6215
70.000000	82.758	148.6395
71.000000	82.717	148.2318
72.000000	82.642	147.8654
73.000000	82.578	147.4747
74.000000	82.482	146.9179
75.000000	82.363	146.8486
76.199997	82.354	146.6097
77.500000	82.208	146.1448
78.800003	82.204	146.2193
80.000000	82.096	145.6664
81.199997	82.034	145.6516
82.500000	81.901	144.9897
83.800003	81.757	145.2427
85.000000	81.764	145.0321
86.199997	81.669	144.0353
87.500000	81.467	144.2914
88.500000	81.486	144.5255
90.000000	81.348	144.7452
91.199997	81.459	144.7227
92.500000	81.295	144.2853
93.800003	81.282	143.8931
95.000000	81.101	144.4326
96.199997	81.230	144.0629
97.500000	81.117	143.5925
98.800003	81.063	142.5508
100.000000	80.917	143.2273
101.500000	80.938	142.2999
103.000000	80.776	142.7337
104.400002	80.765	142.3340
106.000000	80.592	142.0652
107.500000	80.552	142.1156
109.000000	80.471	141.4698
110.599998	80.352	141.6112
112.000000	80.338	141.1350
113.800003	80.207	141.2153
115.000000	80.143	141.0891
117.199997	80.054	140.9268
118.000000	79.988	140.8837
120.599998	79.853	140.6756
122.000000	79.800	140.6068
124.099998	79.698	140.2257
125.000000	79.635	140.2618
126.500000	79.564	140.2735
128.000000	79.502	140.4276
131.500000	79.344	140.2361
132.000000	79.323	140.2578
134.000000	79.237	140.2465
136.000000	79.164	140.0794
138.000000	79.065	140.0885
140.000000	78.998	140.0078
143.000000	78.876	139.9720
145.000000	78.786	140.0398
147.500000	78.683	139.9896
150.000000	78.581	140.0939
152.500000	78.472	140.1164
155.000000	78.403	140.2201
157.500000	78.316	140.1230
160.000000	78.239	140.1493
162.500000	78.127	140.1540
165.000000	78.001	140.3716
167.500000	77.909	140.2699
170.000000	77.811	140.3066
172.500000	77.709	140.3381
175.000000	77.628	140.4556
177.500000	77.541	140.4704
180.000000	77.430	140.5545
182.500000	77.337	140.6722
185.000000	77.250	140.7972
187.500000	77.159	140.9230
190.000000	77.069	140.9686
192.500000	76.978	141.0348
195.000000	76.881	141.1714
197.500000	76.808	141.3490
200.000000	76.725	141.3984
203.000000	76.639	141.6712
206.000000	76.549	142.0325
209.000000	76.460	142.1174
212.000000	76.385	142.1094
214.000000	76.318	142.2247
218.000000	76.249	142.5535
220.000000	76.183	142.5707
224.000000	76.101	142.8040
227.000000	76.020	142.9972
230.000000	75.945	143.2137
233.000000	75.871	143.3374
236.000000	75.800	143.5464
240.000000	75.722	143.8022
243.000000	75.648	143.9946
247.000000	75.544	144.2520
250.000000	75.492	144.4897
254.000000	75.374	144.7288
258.000000	75.301	145.0568
262.000000	75.196	145.4474
265.000000	75.158	146.2418
269.000000	75.021	145.8410
272.000000	74.985	146.1840
276.000000	74.903	146.5714
280.000000	74.807	147.0457
285.000000	74.720	147.6046
290.000000	74.648	148.0448
295.000000	74.612	148.3441
300.000000	74.552	148.7568
304.000000	74.494	148.8865
307.000000	74.462	148.9495
311.000000	74.395	149.1663
315.000000	74.331	149.4572
320.000000	74.241	149.7397
325.000000	74.167	150.0753
330.000000	74.075	150.4642
335.000000	73.989	150.8553
340.000000	73.939	151.2144
345.000000	73.870	151.4851
350.000000	73.782	152.0891
355.000000	73.738	152.2169
360.000000	73.668	152.5861
365.000000	73.618	152.9754
370.000000	73.530	153.5000
375.000000	73.458	153.7394
382.000000	73.386	154.3654
387.000000	73.324	154.7492
395.000000	73.242	155.3732
400.000000	73.190	155.6729
406.000000	73.127	156.2141
412.000000	73.054	156.6398
418.000000	72.989	157.1222
425.000000	72.925	157.6654
431.000000	72.874	158.0763
437.000000	72.801	158.5291
444.000000	72.757	159.0575
450.000000	72.697	159.5425
455.000000	72.659	159.8396
462.000000	72.603	160.3846
468.000000	72.561	160.8866
475.000000	72.503	161.3427
482.000000	72.461	161.9304
487.000000	72.424	162.3514
494.000000	72.374	162.8307
500.000000	72.326	163.2589
508.000000	72.278	163.9007
515.000000	72.235	164.4347
522.000000	72.196	164.9473
530.000000	72.144	165.5364
538.000000	72.102	166.0351
545.000000	72.073	166.6753
552.000000	72.039	167.2338
560.000000	71.984	167.7778
570.000000	71.942	168.4869
580.000000	71.896	169.2000
590.000000	71.862	170.0184
600.000000	71.808	170.7169
608.000000	71.781	171.3316
615.000000	71.759	171.8254
622.000000	71.734	172.2930
630.000000	71.709	172.8550
640.000000	71.679	173.6851
650.000000	71.648	174.3426
660.000000	71.624	175.0272
670.000000	71.605	175.8204
680.000000	71.590	176.5595
690.000000	71.560	177.3255
700.000000	71.545	178.0328
710.000000	71.539	178.8033
720.000000	71.534	179.4800
730.000000	71.523	-179.7457
740.000000	71.521	-179.0467
750.000000	71.525	-178.3303
762.000000	71.523	-177.4749
775.000000	71.529	-176.5164
788.000000	71.542	-175.6292
800.000000	71.561	-174.8788
812.000000	71.590	-174.1859
825.000000	71.629	-173.5056
838.000000	71.662	-173.0833
850.000000	71.657	-173.5594
862.000000	71.210	-173.0878
875.000000	71.229	-169.3389
885.000000	71.366	-168.2015
900.000000	71.514	-166.9686
912.000000	71.603	-166.1552
925.000000	71.683	-165.3650
938.000000	71.748	-164.5054
950.000000	71.822	-163.7763
962.000000	71.905	-163.1141
975.000000	71.977	-162.3934
988.000000	72.055	-161.6264
1000.000000	72.123	-161.0818
1015.000000	72.230	-160.3234
1030.000000	72.321	-159.5643
1044.000000	72.410	-158.9710
1060.000000	72.526	-158.3078
1075.000000	72.618	-157.7493
1090.000000	72.727	-157.2060
1106.000000	72.837	-156.6948
1120.000000	72.924	-156.2202
1138.000000	73.047	-155.7436
1150.000000	73.116	-155.4809
1172.000000	73.263	-154.9518
1180.000000	73.313	-154.7755
1206.000000	73.470	-154.2280
1220.000000	73.544	-153.9455
1241.000000	73.663	-153.6627
1250.000000	73.716	-153.5031
1265.000000	73.798	-153.3146
1280.000000	73.874	-153.1266
1315.000000	74.044	-152.6934
1320.000000	74.071	-152.5802
1340.000000	74.165	-152.3541
1360.000000	74.265	-152.1353
1380.000000	74.349	-151.8550
1400.000000	74.430	-151.6301
1430.000000	74.560	-151.2886
1450.000000	74.647	-150.9973
1475.000000	74.746	-150.6521
1500.000000	74.844	-150.3747
1525.000000	74.935	-150.0569
1550.000000	75.049	-149.7661
1575.000000	75.149	-149.4708
1600.000000	75.250	-149.1740
1625.000000	75.346	-148.9061
1650.000000	75.443	-148.6052
1675.000000	75.544	-148.3239
1700.000000	75.640	-148.0183
1725.000000	75.750	-147.7588
1750.000000	75.851	-147.4447
1775.000000	75.961	-147.2035
1800.000000	76.056	-146.9726
1825.000000	76.168	-146.7271
1850.000000	76.277	-146.4434
1875.000000	76.389	-146.2598
1900.000000	76.500	-146.0396
1925.000000	76.620	-145.8602
1950.000000	76.733	-145.7001
1975.000000	76.851	-145.5167
2000.000000	76.978	-145.4239
2030.000000	77.125	-145.2886
2060.000000	77.276	-145.2006
2090.000000	77.430	-145.1488
2120.000000	77.577	-145.1000
2140.000000	77.685	-145.1385
2180.000000	77.883	-145.1662
2200.000000	77.985	-145.2365
2240.000000	78.191	-145.3923
2270.000000	78.341	-145.5331
2300.000000	78.484	-145.7343
2330.000000	78.629	-145.9461
2360.000000	78.772	-146.1780
2400.000000	78.959	-146.5156
2430.000000	79.093	-146.7773
2470.000000	79.274	-147.1390
2500.000000	79.418	-147.3392
2540.000000	79.635	-147.7101
2580.000000	79.872	-148.2417
2620.000000	80.103	-149.0414
2650.000000	80.267	-149.7118
2690.000000	80.463	-150.6887
2720.000000	80.606	-151.4721
2760.000000	80.785	-152.5810
2800.000000	80.957	-153.7588
2850.000000	81.153	-155.3566
2900.000000	81.328	-157.1656
2950.000000	81.462	-159.0999
3000.000000	81.560	-161.0560
3040.000000	81.611	-162.5438
3070.000000	81.636	-163.6619
3110.000000	81.655	-165.1750
3150.000000	81.658	-166.6372
3200.000000	81.620	-168.3825
3250.000000	81.552	-170.0654
3300.000000	81.465	-171.6220
3350.000000	81.365	-173.0993
3400.000000	81.244	-174.4352
3450.000000	81.110	-175.6597
3500.000000	80.965	-176.7390
3550.000000	80.811	-177.6636
3600.000000	80.661	-178.4264
3650.000000	80.516	-179.0391
3700.000000	80.378	-179.6135
3750.000000	80.240	179.8475
3820.000000	80.065	179.1371
3870.000000	79.934	178.6964
3950.000000	79.712	178.0103
4000.000000	79.568	177.6954
4060.000000	79.411	177.4364
4120.000000	79.253	177.2436
4180.000000	79.098	177.2067
4250.000000	78.936	177.2176
4310.000000	78.799	177.2755
4370.000000	78.667	177.3814
4440.000000	78.523	177.5930
4500.000000	78.407	177.8388
4550.000000	78.308	178.0780
4620.000000	78.183	178.4112
4680.000000	78.085	178.7990
4750.000000	77.977	179.2795
4820.000000	77.881	179.7736
4870.000000	77.819	-179.8579
4940.000000	77.732	-179.3274
5000.000000	77.671	-178.8463
5080.000000	77.551	-178.1750
5150.000000	77.452	-177.5883
5220.000000	77.367	-177.0010
5300.000000	77.284	-176.3201
5380.000000	77.201	-175.6349
5450.000000	77.142	-174.9890
5520.000000	77.093	-174.4078
5600.000000	77.038	-173.7248
5700.000000	76.987	-172.8857
5800.000000	76.954	-172.0880
5900.000000	76.929	-171.2193
6000.000000	76.920	-170.5032
6080.000000	76.915	-169.8234
6150.000000	76.942	-169.2627
6220.000000	76.959	-168.7598
6300.000000	77.002	-168.1449
6400.000000	77.124	-167.5313
6500.000000	77.266	-167.0187
6600.000000	77.400	-166.5926
6700.000000	77.554	-166.2076
6800.000000	77.712	-165.9532
6900.000000	77.897	-165.6878
7000.000000	78.105	-165.5464
7100.000000	78.320	-165.5136
7200.000000	78.582	-165.6072
7300.000000	78.862	-165.9280
7400.000000	79.176	-166.5079
7500.000000	79.518	-167.5282
7620.000000	79.951	-169.3245
7750.000000	80.421	-172.2029
7880.000000	80.865	-176.3210
8000.000000	81.154	178.7651
8120.000000	81.219	172.9113
8250.000000	81.005	166.0148
8380.000000	80.491	159.2766
8500.000000	79.776	153.9195
8620.000000	78.909	149.7922
8750.000000	77.888	146.8097
8850.000000	77.085	145.4818
9000.000000	75.925	144.8282
9120.000000	75.046	145.2383
9250.000000	74.158	146.4315
9380.000000	73.352	148.1104
9500.000000	72.655	150.1659
9620.000000	72.055	152.4124
9750.000000	71.444	155.2856
9880.000000	70.907	158.1882
10000.000000	70.482	161.1739
10150.000000	70.076	164.9290
10300.000000	69.773	168.8193
10440.000000	69.512	172.4704
10600.000000	69.298	176.6164
10750.000000	69.198	-179.6629
10900.000000	69.156	-175.8706
11060.000000	69.200	-172.2316
11200.000000	69.327	-169.0927
11380.000000	69.518	-165.6176
11500.000000	69.727	-163.3132
11720.000000	70.227	-160.2081
11800.000000	70.432	-159.2905
12060.000000	71.263	-158.0423
12200.000000	71.721	-158.7461
12410.000000	72.315	-161.1729
12500.000000	72.539	-162.7002
12650.000000	72.805	-166.1863
12800.000000	72.909	-170.3403
13150.000000	72.422	179.7547
13200.000000	72.257	178.6154
13400.000000	71.600	174.8428
13600.000000	70.825	172.1604
13800.000000	69.984	172.4151
14000.000000	69.450	172.4576
14300.000000	68.733	173.4934
14500.000000	68.428	174.6873
14750.000000	68.283	175.5478
15000.000000	68.301	174.8823
15250.000000	68.344	171.8762
15500.000000	68.280	166.2534
15750.000000	67.698	158.7977
16000.000000	66.442	151.5295
16250.000000	64.963	147.0878
16500.000000	63.276	146.1455
16750.000000	61.580	147.9185
17000.000000	60.035	152.1204
17250.000000	58.641	157.8773
17500.000000	57.394	164.5406
17750.000000	56.295	172.2390
18000.000000	55.472	-179.4308
18250.000000	54.788	-170.1182
18500.000000	54.219	-161.6128
18750.000000	53.844	-153.7698
19000.000000	53.417	-144.2286
19250.000000	53.298	-136.5575
19500.000000	53.310	-127.6972
19750.000000	53.605	-119.9738
