* Measurement data measured by REW V5.31.3
* Source: Headset (Odo By VECLAN.COM), MICROPHONE (Master Volume), L, volume: 0.720. Timing signal peak level -14.8 dBFS, measurement signal peak level -11.7 dBFS
* Format: 2M Log Swept Sine, 1 sweep at -24.2 dBFS using an acoustic timing reference
* Dated: 11 17, 24 11:31:03 AM
* REW Settings:
*  C-weighting compensation: Off
*  Target level: 85.0 dB
* Note: ; Delay -0.0659 ms (-23 mm, -0.89 in) using estimated IR delay relative to Acoustic reference played from SPEAKER L with no timing offset
* Measurement: SalZero 2 L
* Smoothing: 1/24 octave
* Frequency Step: 96 ppo
* Start Frequency: 0.36621094 Hz
*
* Freq(Hz) SPL(dB) Phase(degrees)
0.366211 81.856 -3.5305
0.368865 81.869 -3.7318
0.371538 81.888 -4.0076
0.374230 81.909 -4.3185
0.376942 81.931 -4.6467
0.379673 81.954 -4.9860
0.382424 81.976 -5.3342
0.385196 81.999 -5.6909
0.387987 82.022 -6.0561
0.390798 82.046 -6.4299
0.393630 82.069 -6.8123
0.396483 82.093 -7.2035
0.399356 82.116 -7.6036
0.402250 82.140 -8.0128
0.405165 82.164 -8.4312
0.408101 82.189 -8.8590
0.411058 82.213 -9.2962
0.414037 82.238 -9.7430
0.417037 82.263 -10.1995
0.420059 82.288 -10.6659
0.423103 82.313 -11.1422
0.426169 82.338 -11.6287
0.429257 82.364 -12.1253
0.432368 82.389 -12.6324
0.435501 82.415 -13.1498
0.438656 82.441 -13.6779
0.441835 82.468 -14.2167
0.445037 82.494 -14.7662
0.448262 82.521 -15.3267
0.451510 82.548 -15.8981
0.454782 82.575 -16.4807
0.458077 82.602 -17.0744
0.461397 82.630 -17.6794
0.464740 82.657 -18.2957
0.468108 82.685 -18.9235
0.471500 82.713 -19.5627
0.474917 82.741 -20.2134
0.478358 82.770 -20.8758
0.481825 82.799 -21.5497
0.485316 82.827 -22.2353
0.488833 82.856 -22.9325
0.492375 82.886 -23.6415
0.495943 82.915 -24.3621
0.499537 82.945 -25.0943
0.503157 82.975 -25.8382
0.506803 83.005 -26.5938
0.510475 83.036 -27.3608
0.514175 83.066 -28.1394
0.517900 83.097 -28.9294
0.521653 83.128 -29.7307
0.525434 83.159 -30.5433
0.529241 83.191 -31.3669
0.533076 83.222 -32.2016
0.536939 83.254 -33.0471
0.540830 83.287 -33.9034
0.544749 83.319 -34.7701
0.548696 83.352 -35.6472
0.552673 83.385 -36.5343
0.556677 83.418 -37.4314
0.560711 83.451 -38.3382
0.564774 83.485 -39.2545
0.568867 83.518 -40.1579
0.572989 83.553 -41.0606
0.577141 83.587 -41.9717
0.581324 83.622 -42.8909
0.585536 83.656 -43.8178
0.589779 83.691 -44.7522
0.594053 83.727 -45.6937
0.598358 83.762 -46.6420
0.602694 83.798 -47.5968
0.607061 83.834 -48.5575
0.611460 83.871 -49.5240
0.615891 83.907 -50.4959
0.620354 83.944 -51.4726
0.624849 83.982 -52.4540
0.629377 84.019 -53.4395
0.633938 84.057 -54.4288
0.638532 84.095 -55.4215
0.643159 84.133 -56.4173
0.647819 84.172 -57.4157
0.652514 84.210 -58.4164
0.657242 84.250 -59.4189
0.662005 84.289 -60.4230
0.666802 84.329 -61.4283
0.671634 84.369 -62.4343
0.676501 84.409 -63.4408
0.681403 84.449 -64.4474
0.686341 84.490 -65.4538
0.691314 84.531 -66.4596
0.696324 84.573 -67.4646
0.701370 84.615 -68.4684
0.706452 84.657 -69.4708
0.711571 84.699 -70.4715
0.716728 84.742 -71.4701
0.721921 84.787 -72.4663
0.727153 84.836 -73.4593
0.732422 84.894 -74.4479
0.737729 84.967 -75.4297
0.743075 85.050 -76.4024
0.748460 85.139 -77.3644
0.753883 85.233 -78.3150
0.759346 85.330 -79.2537
0.764849 85.431 -80.1801
0.770391 85.535 -80.9900
0.775974 85.642 -81.7590
0.781597 85.753 -82.5143
0.787261 85.866 -83.2558
0.792966 85.983 -83.9835
0.798712 86.103 -84.6975
0.804500 86.226 -85.3978
0.810329 86.353 -86.0845
0.816201 86.482 -86.7577
0.822116 86.614 -87.4177
0.828073 86.749 -88.0646
0.834074 86.887 -88.6987
0.840118 87.028 -89.3202
0.846206 87.172 -89.9294
0.852338 87.318 -90.5265
0.858514 87.467 -91.1119
0.864735 87.618 -91.6859
0.871001 87.772 -92.2488
0.877313 87.928 -92.8010
0.883670 88.086 -93.3428
0.890074 88.247 -93.8746
0.896524 88.410 -94.3967
0.903020 88.574 -94.9095
0.909564 88.741 -95.4134
0.916155 88.909 -95.9087
0.922794 89.079 -96.3958
0.929481 89.250 -96.8751
0.936216 89.423 -97.3469
0.943000 89.597 -97.8117
0.949834 89.772 -98.2697
0.956717 89.948 -98.7213
0.963649 90.125 -99.1670
0.970632 90.303 -99.5888
0.977666 90.481 -99.9958
0.984750 90.659 -100.3977
0.991886 90.837 -100.7948
0.999074 91.015 -101.1874
1.006314 91.193 -101.5758
1.013606 91.370 -101.9605
1.020951 91.546 -102.3416
1.028349 91.722 -102.7194
1.035801 91.896 -103.0944
1.043307 92.068 -103.4668
1.050867 92.239 -103.8369
1.058482 92.408 -104.2050
1.066152 92.575 -104.5713
1.073878 92.739 -104.9361
1.081660 92.900 -105.2994
1.089498 93.059 -105.6610
1.097393 93.215 -106.0198
1.105345 93.369 -106.3736
1.113355 93.523 -106.7199
1.121423 93.677 -107.0573
1.129549 93.832 -107.3857
1.137734 93.986 -107.7050
1.145979 94.142 -108.0158
1.154283 94.297 -108.3183
1.162647 94.453 -108.6130
1.171072 94.608 -108.9013
1.179558 94.764 -109.1833
1.188106 94.920 -109.4585
1.196715 95.075 -109.7276
1.205387 95.231 -109.9908
1.214122 95.386 -110.2484
1.222920 95.541 -110.5010
1.231782 95.695 -110.7488
1.240708 95.849 -110.9921
1.249699 96.003 -111.2315
1.258754 96.155 -111.4671
1.267876 96.307 -111.6994
1.277063 96.457 -111.9287
1.286318 96.607 -112.1552
1.295639 96.756 -112.3794
1.305027 96.903 -112.6016
1.314484 97.048 -112.8220
1.324009 97.192 -113.0410
1.333604 97.335 -113.2588
1.343268 97.475 -113.4757
1.353002 97.614 -113.6921
1.362806 97.750 -113.9082
1.372681 97.884 -114.1196
1.382628 98.016 -114.3289
1.392647 98.145 -114.5387
1.402739 98.271 -114.7492
1.412904 98.395 -114.9606
1.423142 98.515 -115.1733
1.433455 98.631 -115.3872
1.443843 98.745 -115.6026
1.454305 98.854 -115.8190
1.464844 98.959 -116.0355
1.475459 99.059 -116.2499
1.486150 99.153 -116.4602
1.496920 99.242 -116.6654
1.507767 99.326 -116.8652
1.518693 99.404 -117.0598
1.529698 99.477 -117.2495
1.540783 99.545 -117.4346
1.551948 99.608 -117.6153
1.563194 99.666 -117.7920
1.574521 99.720 -117.9601
1.585931 99.770 -118.1233
1.597423 99.816 -118.2834
1.608999 99.859 -118.4408
1.620658 99.899 -118.5958
1.632402 99.935 -118.7488
1.644232 99.969 -118.9001
1.656146 100.001 -119.0501
1.668147 100.031 -119.1990
1.680235 100.059 -119.3473
1.692411 100.086 -119.4952
1.704675 100.112 -119.6432
1.717028 100.139 -119.7916
1.729470 100.165 -119.9407
1.742003 100.192 -120.0909
1.754626 100.220 -120.2425
1.767341 100.250 -120.3965
1.780147 100.282 -120.5581
1.793047 100.316 -120.7222
1.806040 100.354 -120.8889
1.819128 100.395 -121.0581
1.832310 100.439 -121.2291
1.845587 100.485 -121.4003
1.858961 100.532 -121.5702
1.872432 100.579 -121.7380
1.886001 100.627 -121.9035
1.899667 100.674 -122.0665
1.913433 100.721 -122.2273
1.927299 100.767 -122.3859
1.941265 100.814 -122.5425
1.955332 100.861 -122.6973
1.969501 100.907 -122.8518
1.983773 100.953 -123.0093
1.998148 101.000 -123.1656
2.012627 101.046 -123.3209
2.027212 101.092 -123.4754
2.041902 101.138 -123.6293
2.056698 101.184 -123.7828
2.071602 101.230 -123.9363
2.086614 101.276 -124.0901
2.101734 101.322 -124.2443
2.116964 101.368 -124.3992
2.132304 101.414 -124.5553
2.147756 101.460 -124.7126
2.163320 101.506 -124.8717
2.178996 101.552 -125.0390
2.194786 101.598 -125.2095
2.210690 101.645 -125.3810
2.226710 101.691 -125.5527
2.242845 101.736 -125.7240
2.259098 101.782 -125.8946
2.275468 101.828 -126.0644
2.291957 101.873 -126.2332
2.308566 101.919 -126.4009
2.325295 101.964 -126.5676
2.342145 102.009 -126.7333
2.359117 102.054 -126.8979
2.376212 102.099 -127.0682
2.393431 102.144 -127.2420
2.410775 102.189 -127.4152
2.428244 102.233 -127.5878
2.445840 102.278 -127.7598
2.463564 102.323 -127.9316
2.481416 102.367 -128.1033
2.499397 102.412 -128.2751
2.517509 102.456 -128.4472
2.535752 102.500 -128.6198
2.554127 102.545 -128.7933
2.572635 102.589 -128.9737
2.591277 102.633 -129.1660
2.610055 102.677 -129.3590
2.628968 102.721 -129.5525
2.648019 102.765 -129.7462
2.667208 102.809 -129.9398
2.686535 102.853 -130.1330
2.706003 102.896 -130.3257
2.725612 102.940 -130.5176
2.745363 102.983 -130.7087
2.765257 103.026 -130.8988
2.785295 103.068 -131.1030
2.805478 103.111 -131.3068
2.825808 103.153 -131.5096
2.846285 103.195 -131.7114
2.866910 103.237 -131.9123
2.887685 103.279 -132.1125
2.908611 103.320 -132.3121
2.929688 103.362 -132.5117
2.950917 103.402 -132.7120
2.972301 103.443 -132.9182
2.993839 103.483 -133.1371
3.015534 103.523 -133.3569
3.037386 103.562 -133.5771
3.059396 103.601 -133.7975
3.081565 103.640 -134.0174
3.103896 103.679 -134.2366
3.126388 103.717 -134.4547
3.149043 103.755 -134.6714
3.171862 103.793 -134.8904
3.194847 103.830 -135.1193
3.217998 103.867 -135.3462
3.241317 103.904 -135.5710
3.264805 103.941 -135.7938
3.288463 103.977 -136.0151
3.312293 104.013 -136.2359
3.336295 104.049 -136.4572
3.360471 104.085 -136.6796
3.384822 104.120 -136.9155
3.409350 104.155 -137.1555
3.434056 104.189 -137.3954
3.458940 104.223 -137.6347
3.484005 104.257 -137.8728
3.509252 104.290 -138.1093
3.534681 104.323 -138.3435
3.560295 104.356 -138.5751
3.586094 104.388 -138.8183
3.612081 104.420 -139.0626
3.638255 104.452 -139.3040
3.664620 104.484 -139.5432
3.691175 104.515 -139.7816
3.717923 104.546 -140.0205
3.744864 104.576 -140.2602
3.772001 104.606 -140.5044
3.799335 104.635 -140.7639
3.826866 104.664 -141.0224
3.854597 104.693 -141.2793
3.882529 104.721 -141.5340
3.910664 104.749 -141.7857
3.939002 104.777 -142.0338
3.967546 104.804 -142.2790
3.996296 104.831 -142.5383
4.025255 104.857 -142.7940
4.054423 104.883 -143.0477
4.083804 104.909 -143.3007
4.113396 104.934 -143.5536
4.143204 104.959 -143.8062
4.173227 104.983 -144.0626
4.203468 105.007 -144.3325
4.233928 105.030 -144.6000
4.264609 105.053 -144.8642
4.295512 105.076 -145.1246
4.326639 105.098 -145.3803
4.357992 105.120 -145.6312
4.389572 105.141 -145.8922
4.421380 105.162 -146.1552
4.453419 105.182 -146.4164
4.485691 105.202 -146.6766
4.518196 105.222 -146.9355
4.550936 105.241 -147.1924
4.583914 105.259 -147.4571
4.617131 105.277 -147.7272
4.650589 105.295 -147.9933
4.684289 105.312 -148.2544
4.718233 105.329 -148.5102
4.752424 105.346 -148.7607
4.786862 105.362 -149.0179
4.821549 105.378 -149.2795
4.856488 105.394 -149.5388
4.891680 105.409 -149.7959
4.927127 105.424 -150.0501
4.962831 105.438 -150.3008
4.998794 105.453 -150.5634
5.035017 105.466 -150.8228
5.071503 105.480 -151.0769
5.108253 105.493 -151.3255
5.145270 105.506 -151.5691
5.182555 105.519 -151.8164
5.220110 105.531 -152.0702
5.257937 105.544 -152.3209
5.296038 105.555 -152.5682
5.334415 105.567 -152.8117
5.373071 105.578 -153.0540
5.412006 105.589 -153.3065
5.451224 105.600 -153.5538
5.490725 105.611 -153.7960
5.530514 105.621 -154.0337
5.570590 105.631 -154.2699
5.610957 105.641 -154.5190
5.651616 105.651 -154.7647
5.692570 105.661 -155.0065
5.733821 105.670 -155.2441
5.775370 105.679 -155.4811
5.817221 105.688 -155.7270
5.859375 105.697 -155.9682
5.901834 105.705 -156.2052
5.944602 105.713 -156.4387
5.987679 105.721 -156.6776
6.031068 105.729 -156.9218
6.074771 105.737 -157.1619
6.118792 105.744 -157.3976
6.163131 105.751 -157.6285
6.207792 105.758 -157.8695
6.252776 105.765 -158.1070
6.298086 105.771 -158.3407
6.343725 105.777 -158.5707
6.389694 105.783 -158.8053
6.435996 105.788 -159.0435
6.482634 105.793 -159.2768
6.529610 105.798 -159.5046
6.576926 105.803 -159.7300
6.624585 105.807 -159.9612
6.672590 105.811 -160.1877
6.720942 105.815 -160.4095
6.769645 105.819 -160.6276
6.818700 105.822 -160.8539
6.868111 105.825 -161.0741
6.917881 105.829 -161.2878
6.968010 105.832 -161.4953
7.018504 105.835 -161.7099
7.069362 105.838 -161.9184
7.120590 105.841 -162.1209
7.172189 105.844 -162.3191
7.224161 105.848 -162.5231
7.276511 105.851 -162.7206
7.329239 105.855 -162.9113
7.382350 105.859 -163.0993
7.435845 105.864 -163.2901
7.489729 105.868 -163.4747
7.544002 105.873 -163.6538
7.598669 105.879 -163.8367
7.653732 105.885 -164.0209
7.709194 105.892 -164.2007
7.765058 105.900 -164.3754
7.821327 105.909 -164.5594
7.878004 105.918 -164.7400
7.935091 105.928 -164.9184
7.992592 105.938 -165.1008
8.050510 105.949 -165.2892
8.108847 105.961 -165.4774
8.167607 105.974 -165.6655
8.226793 105.987 -165.8647
8.286408 106.001 -166.0653
8.346454 106.015 -166.2684
8.406936 106.029 -166.4835
8.467856 106.044 -166.7069
8.529218 106.060 -166.9347
8.591024 106.075 -167.1709
8.653278 106.090 -167.4177
8.715983 106.105 -167.6683
8.779143 106.119 -167.9253
8.842760 106.132 -168.1956
8.906839 106.144 -168.4712
8.971381 106.155 -168.7514
9.036392 106.164 -169.0425
9.101873 106.173 -169.3334
9.167829 106.179 -169.6237
9.234263 106.184 -169.9227
9.301178 106.187 -170.2215
9.368578 106.189 -170.5177
9.436467 106.189 -170.8177
9.504847 106.187 -171.1080
9.573723 106.183 -171.3892
9.643099 106.177 -171.6709
9.712976 106.168 -171.9417
9.783361 106.158 -172.2009
9.854255 106.145 -172.4503
9.925663 106.129 -172.6804
9.997588 106.110 -172.8913
10.070035 106.088 -173.1097
10.143007 106.065 -173.3102
10.216507 106.042 -173.4910
10.290540 106.018 -173.6510
10.365109 105.995 -173.7898
10.440219 105.971 -173.9093
10.515873 105.950 -174.0132
10.592076 105.930 -174.1043
10.668830 105.912 -174.1836
10.746141 105.898 -174.2513
10.824012 105.886 -174.3107
10.902447 105.877 -174.3676
10.981451 105.871 -174.4268
11.061027 105.869 -174.5216
11.141180 105.871 -174.6309
11.221913 105.874 -174.7482
11.303232 105.880 -174.8776
11.385140 105.886 -175.0225
11.467641 105.893 -175.1835
11.550741 105.900 -175.3596
11.634442 105.907 -175.5506
11.718750 105.913 -175.7564
11.803669 105.917 -175.9776
11.889203 105.919 -176.2127
11.975357 105.919 -176.4573
12.062136 105.916 -176.7336
12.149543 105.911 -177.0239
12.237583 105.903 -177.3170
12.326262 105.893 -177.6086
12.415583 105.881 -177.8931
12.505552 105.869 -178.1667
12.596172 105.856 -178.4288
12.687449 105.842 -178.6775
12.779387 105.827 -178.9096
12.871992 105.812 -179.1228
12.965268 105.796 -179.3168
13.059220 105.781 -179.5142
13.153852 105.766 -179.7078
13.249170 105.752 -179.8857
13.345179 105.739 179.9512
13.441884 105.727 179.7994
13.539289 105.717 179.6548
13.637401 105.708 179.5151
13.736223 105.700 179.3789
13.835761 105.693 179.2434
13.936021 105.688 179.1057
14.037007 105.683 178.9539
14.138725 105.679 178.7804
14.241180 105.674 178.6038
14.344377 105.668 178.4243
14.448323 105.662 178.2427
14.553021 105.655 178.0613
14.658478 105.646 177.8829
14.764700 105.636 177.7089
14.871691 105.626 177.5405
14.979457 105.615 177.3792
15.088005 105.604 177.2033
15.197339 105.594 177.0299
15.307465 105.584 176.8625
15.418389 105.576 176.6993
15.530117 105.568 176.5386
15.642655 105.562 176.3769
15.756008 105.558 176.2096
15.870182 105.554 176.0339
15.985184 105.552 175.8477
16.101019 105.550 175.6302
16.217694 105.547 175.3953
16.335214 105.544 175.1470
16.453586 105.538 174.8882
16.572815 105.529 174.6222
16.692909 105.516 174.3530
16.813872 105.499 174.0885
16.935713 105.478 173.8358
17.058436 105.454 173.5909
17.182048 105.427 173.3600
17.306556 105.398 173.1598
17.431967 105.368 172.9924
17.558286 105.339 172.8586
17.685521 105.313 172.7578
17.813677 105.290 172.6856
17.942762 105.272 172.6331
18.072783 105.260 172.5812
18.203746 105.255 172.5222
18.335658 105.255 172.4516
18.468526 105.261 172.3604
18.602356 105.270 172.2409
18.737156 105.280 172.0865
18.872934 105.291 171.8953
19.009695 105.301 171.6695
19.147447 105.306 171.4019
19.286197 105.307 171.1124
19.425953 105.303 170.8132
19.566721 105.292 170.5146
19.708510 105.276 170.2278
19.851326 105.255 169.9646
19.995177 105.231 169.7314
20.140070 105.205 169.5176
20.286013 105.180 169.3395
20.433014 105.156 169.1943
20.581080 105.136 169.0750
20.730219 105.120 168.9744
20.880439 105.108 168.8818
21.031747 105.100 168.7848
21.184152 105.095 168.6674
21.337661 105.091 168.5361
21.492282 105.089 168.3898
21.648024 105.085 168.2307
21.804895 105.080 168.0624
21.962902 105.073 167.8917
22.122054 105.064 167.7157
22.282360 105.054 167.5453
22.443827 105.043 167.3863
22.606464 105.033 167.2379
22.770280 105.024 167.0956
22.935283 105.018 166.9534
23.101481 105.014 166.7947
23.268884 105.011 166.6144
23.437500 105.009 166.4114
23.607338 105.004 166.1827
23.778406 104.997 165.9313
23.950714 104.984 165.6644
24.124271 104.965 165.3843
24.299086 104.939 165.1113
24.475167 104.907 164.8625
24.652524 104.871 164.6516
24.831166 104.832 164.4859
25.011103 104.795 164.3668
25.192344 104.761 164.2817
25.374898 104.733 164.2252
25.558775 104.712 164.1805
25.743984 104.698 164.1271
25.930536 104.690 164.0479
26.118439 104.686 163.9219
26.307704 104.683 163.7466
26.498341 104.677 163.5284
26.690359 104.667 163.2770
26.883768 104.650 163.0081
27.078579 104.626 162.7363
27.274801 104.596 162.4778
27.472446 104.562 162.2487
27.671522 104.526 162.0564
27.872042 104.491 161.9003
28.074014 104.458 161.7714
28.277450 104.430 161.6555
28.482360 104.406 161.5464
28.688755 104.387 161.4324
28.896645 104.369 161.3062
29.106042 104.353 161.1616
29.316957 104.335 161.0011
29.529400 104.317 160.8340
29.743382 104.296 160.6682
29.958915 104.274 160.5104
30.176009 104.252 160.3608
30.394677 104.230 160.2244
30.614929 104.209 160.1009
30.836778 104.190 159.9865
31.060234 104.173 159.8742
31.285309 104.157 159.7548
31.512015 104.143 159.6309
31.740364 104.131 159.4992
31.970368 104.118 159.3570
32.202039 104.106 159.1959
32.435388 104.093 159.0178
32.670428 104.079 158.8214
32.907171 104.061 158.6067
33.145630 104.039 158.3749
33.385817 104.011 158.1359
33.627745 103.976 157.9054
33.871425 103.934 157.7018
34.116871 103.886 157.5389
34.364096 103.837 157.4286
34.613113 103.790 157.3768
34.863934 103.750 157.3706
35.116572 103.720 157.3822
35.371041 103.700 157.3748
35.627354 103.688 157.3165
35.885525 103.679 157.1852
36.145566 103.666 156.9753
36.407492 103.644 156.7101
36.671316 103.609 156.4330
36.937051 103.560 156.1946
37.204712 103.503 156.0386
37.474313 103.448 155.9882
37.745867 103.403 156.0331
38.019389 103.378 156.1271
38.294893 103.374 156.1931
38.572394 103.388 156.1666
38.851905 103.411 156.0005
39.133442 103.430 155.6843
39.417019 103.434 155.2535
39.702651 103.416 154.7764
39.990353 103.376 154.3286
40.280140 103.321 153.9721
40.572026 103.260 153.7450
40.866028 103.205 153.6385
41.162160 103.164 153.6064
41.460438 103.138 153.5887
41.760877 103.124 153.5344
42.063494 103.113 153.4170
42.368303 103.099 153.2424
42.675322 103.077 153.0502
42.984565 103.049 152.8757
43.296048 103.018 152.7398
43.609789 102.989 152.6395
43.925804 102.965 152.5525
44.244108 102.944 152.4510
44.564719 102.924 152.3254
44.887654 102.900 152.1863
45.212928 102.872 152.0520
45.540560 102.843 151.9420
45.870565 102.816 151.8569
46.202962 102.796 151.7719
46.537768 102.782 151.6531
46.875000 102.769 151.4768
47.214676 102.751 151.2425
47.556813 102.723 150.9805
47.901429 102.684 150.7339
48.248542 102.639 150.5349
48.598171 102.594 150.3959
48.950334 102.552 150.3041
49.305048 102.518 150.2291
49.662333 102.489 150.1458
50.022206 102.462 150.0391
50.384688 102.434 149.9086
50.749796 102.402 149.7705
51.117550 102.366 149.6467
51.487969 102.328 149.5578
51.861072 102.290 149.5145
52.236879 102.258 149.5027
52.615409 102.235 149.4923
52.996681 102.217 149.4460
53.380717 102.201 149.3373
53.767536 102.180 149.1743
54.157158 102.148 148.9922
54.549603 102.108 148.8351
54.944892 102.063 148.7299
55.343045 102.020 148.6688
55.744084 101.983 148.6247
56.148028 101.950 148.5637
56.554900 101.918 148.4706
56.964720 101.883 148.3597
57.377510 101.843 148.2589
57.793291 101.802 148.1873
58.212085 101.764 148.1414
58.633914 101.733 148.0979
59.058799 101.707 148.0259
59.486764 101.683 147.9034
59.917829 101.654 147.7370
60.352019 101.619 147.5585
60.789354 101.577 147.4069
61.229859 101.535 147.2985
61.673556 101.497 147.2189
62.120468 101.465 147.1376
62.570618 101.435 147.0336
63.024031 101.401 146.9140
63.480729 101.364 146.8030
63.940736 101.326 146.7299
64.404077 101.293 146.6912
64.870776 101.264 146.6530
65.340856 101.238 146.5860
65.814343 101.209 146.5002
66.291261 101.176 146.4270
66.771635 101.142 146.3823
67.255489 101.112 146.3450
67.742850 101.084 146.2758
68.233743 101.054 146.1564
68.728193 101.016 146.0106
69.226226 100.969 145.8849
