* Measurement data measured by REW V5.30.9
* Source: Microphone (Realtek USB2.0 Audio), MICROPHONE (Master Volume), L, volume: 0.500
* Format: 1M Log Swept Sine, 1 sweep at -12.0 dBFS with no timing reference
* Dated: 06 29, 24 3:58:07 PM
* REW Settings:
*  C-weighting compensation: Off
*  Target level: 75.0 dB
* Note: ; 
* Measurement: SM1 Lite F R
* Smoothing: None
* Frequency Step: 1/48 octave
* Start Frequency: 1.000 Hz
*
* Freq(Hz)	SPL(dB)	Phase(degrees)
1.000000	45.767	-48.0207
1.015000	45.593	-48.2123
1.030000	45.415	-48.3720
1.044000	45.244	-48.4914
1.060000	45.043	-48.5922
1.075000	44.849	-48.6512
1.090000	44.649	-48.6751
1.106000	44.429	-48.6694
1.120000	44.224	-48.6828
1.138000	43.945	-48.7288
1.150000	43.749	-48.7712
1.172000	43.374	-48.8582
1.180000	43.233	-48.8888
1.206000	42.760	-48.9655
1.220000	42.498	-48.9817
1.241000	42.099	-48.9557
1.250000	41.925	-48.9214
1.265000	41.635	-48.8270
1.280000	41.344	-48.6792
1.315000	40.669	-48.0825
1.320000	40.574	-47.9641
1.340000	40.198	-47.3962
1.360000	39.831	-46.6631
1.380000	39.477	-45.7460
1.400000	39.139	-44.6261
1.430000	38.667	-42.5251
1.450000	38.380	-40.8162
1.475000	38.055	-38.2793
1.500000	37.731	-35.1179
1.525000	37.405	-31.3719
1.550000	37.083	-27.1340
1.575000	36.768	-22.4969
1.600000	36.467	-17.5534
1.625000	36.184	-12.3963
1.650000	35.925	-7.1181
1.675000	35.695	-1.8117
1.700000	35.499	3.4303
1.725000	35.342	8.5151
1.750000	35.230	13.3500
1.775000	35.168	17.8423
1.800000	35.160	21.8993
1.825000	35.212	25.4281
1.850000	35.336	28.4573
1.875000	35.543	31.2360
1.900000	35.824	33.7873
1.925000	36.168	36.1231
1.950000	36.565	38.2552
1.975000	37.004	40.1953
2.000000	37.476	41.9552
2.030000	38.069	43.8458
2.060000	38.676	45.5143
2.090000	39.277	46.9811
2.120000	39.856	48.2664
2.140000	40.221	49.0326
2.180000	40.874	50.3743
2.200000	41.152	50.9611
2.240000	41.661	51.7791
2.270000	42.021	52.0563
2.300000	42.364	52.0844
2.330000	42.693	51.8983
2.360000	43.007	51.5333
2.400000	43.409	50.8290
2.430000	43.700	50.1830
2.470000	44.076	49.2314
2.500000	44.352	48.4956
2.540000	44.716	47.5518
2.580000	45.075	46.6979
2.620000	45.418	45.7447
2.650000	45.664	44.9439
2.690000	45.979	43.7825
2.720000	46.208	42.8552
2.760000	46.504	41.5648
2.800000	46.795	40.2363
2.850000	47.154	38.5615
2.900000	47.514	36.9183
2.950000	47.880	35.3364
3.000000	48.242	33.6803
3.040000	48.527	32.3054
3.070000	48.738	31.2627
3.110000	49.019	29.8789
3.150000	49.298	28.5272
3.200000	49.648	26.9239
3.250000	49.998	25.4659
3.300000	50.353	24.2053
3.350000	50.711	23.0735
3.400000	51.071	22.0181
3.450000	51.432	21.0696
3.500000	51.794	20.2580
3.550000	52.154	19.6136
3.600000	52.511	19.1666
3.650000	52.864	18.9473
3.700000	53.215	18.9958
3.750000	53.567	19.3233
3.820000	54.056	20.1524
3.870000	54.402	20.9371
3.950000	54.943	22.3791
4.000000	55.270	23.3141
4.060000	55.651	24.4335
4.120000	56.022	25.7383
4.180000	56.384	27.1785
4.250000	56.793	28.9076
4.310000	57.131	30.3266
4.370000	57.456	31.5907
4.440000	57.817	32.8000
4.500000	58.112	33.6995
4.550000	58.347	34.3709
4.620000	58.665	35.2084
4.680000	58.927	35.8469
4.750000	59.224	36.5199
4.820000	59.509	37.0936
4.870000	59.701	37.4165
4.940000	59.960	37.7855
5.000000	60.178	38.0601
5.080000	60.467	38.4254
5.150000	60.727	38.7939
5.220000	60.984	39.1719
5.300000	61.275	39.5985
5.380000	61.571	40.0286
5.450000	61.842	40.4154
5.520000	62.129	40.8213
5.600000	62.472	41.3338
5.700000	62.919	41.9982
5.800000	63.385	42.6077
5.900000	63.869	43.0892
6.000000	64.379	43.4938
6.080000	64.799	43.7507
6.150000	65.168	43.9067
6.220000	65.533	43.9819
6.300000	65.948	43.9613
6.400000	66.470	43.7980
6.500000	66.985	43.5031
6.600000	67.481	43.0989
6.700000	67.959	42.5624
6.800000	68.422	41.9031
6.900000	68.868	41.1717
7.000000	69.295	40.4093
7.100000	69.702	39.5796
7.200000	70.092	38.7041
7.300000	70.469	37.8221
7.400000	70.834	36.9501
7.500000	71.184	36.0644
7.620000	71.591	35.0117
7.750000	72.024	33.9218
7.880000	72.446	32.8799
8.000000	72.827	31.9408
8.120000	73.203	31.0119
8.250000	73.605	30.0280
8.380000	73.997	29.0445
8.500000	74.347	28.1159
8.620000	74.688	27.1732
8.750000	75.041	26.1500
8.850000	75.296	25.3636
9.000000	75.656	24.1694
9.120000	75.922	23.2516
9.250000	76.184	22.3181
9.380000	76.420	21.4293
9.500000	76.620	20.7250
9.620000	76.803	20.1658
9.750000	76.979	19.6959
9.880000	77.150	19.4139
10.000000	77.305	19.3494
10.150000	77.494	19.5011
10.300000	77.706	19.8678
10.440000	77.924	20.4460
10.600000	78.204	21.2263
10.750000	78.508	21.9851
10.900000	78.846	22.7685
11.060000	79.231	23.4175
11.200000	79.594	23.8481
11.380000	80.063	24.1620
11.500000	80.376	24.1901
11.720000	80.931	23.9607
11.800000	81.120	23.7995
12.060000	81.692	23.0283
12.200000	81.964	22.5557
12.410000	82.327	21.7993
12.500000	82.468	21.5204
12.650000	82.682	21.0946
12.800000	82.879	20.7478
13.150000	83.308	20.3315
13.200000	83.331	20.3121
13.400000	83.322	20.3495
13.600000	83.314	20.4958
13.800000	83.300	20.7479
14.000000	83.310	20.9307
14.300000	83.373	21.0042
14.500000	83.425	20.8634
14.750000	83.478	20.4882
15.000000	83.512	19.8981
15.250000	83.533	19.0951
15.500000	83.523	18.2680
15.750000	83.481	17.4986
16.000000	83.429	16.8435
16.250000	83.392	16.2442
16.500000	83.373	15.6633
16.750000	83.362	15.0526
17.000000	83.359	14.2801
17.250000	83.349	13.3516
17.500000	83.314	12.2885
17.750000	83.229	11.3063
18.000000	83.109	10.5336
18.250000	82.971	10.1104
18.500000	82.851	10.1987
18.750000	82.780	10.6676
19.000000	82.789	11.3865
19.250000	82.899	11.8738
19.500000	83.062	11.9316
19.750000	83.241	11.4173
20.000000	83.371	10.3465
20.299999	83.422	8.7074
20.600000	83.333	7.1848
20.900000	83.122	6.3665
21.200001	82.875	6.7051
21.400000	82.762	7.5950
21.799999	82.756	10.2108
22.000000	82.883	11.4037
22.400000	83.329	12.3611
22.700001	83.674	11.5969
23.000000	83.909	9.8228
23.299999	83.992	7.5433
23.600000	83.912	5.3114
24.000000	83.594	3.2184
24.299999	83.288	2.7509
24.700001	82.945	3.6924
25.000000	82.840	5.0769
25.400000	82.950	6.6368
25.799999	83.209	6.7731
26.200001	83.414	5.3424
26.500000	83.443	3.7660
26.900000	83.287	1.9951
27.200001	83.094	1.5494
27.600000	82.908	2.4304
28.000000	82.993	4.0530
28.500000	83.449	4.4057
29.000000	83.835	1.7954
29.500000	83.808	-1.9716
30.000000	83.394	-3.9624
30.400000	83.049	-3.2541
30.700001	82.935	-1.7248
31.100000	83.030	0.2023
31.500000	83.279	0.9552
32.000000	83.538	0.3016
32.500000	83.629	-1.0257
33.000000	83.585	-2.1977
33.500000	83.447	-3.0395
34.000000	83.238	-3.0926
34.500000	83.101	-2.0361
35.000000	83.190	-0.7215
35.500000	83.441	-0.8527
36.000000	83.573	-2.6334
36.500000	83.443	-4.5909
37.000000	83.189	-5.1285
37.500000	83.084	-4.5200
38.200001	83.196	-4.9030
38.700001	83.151	-6.4606
39.500000	82.755	-7.2128
40.000000	82.663	-6.1831
40.599998	82.818	-5.9755
41.200001	82.855	-7.6793
41.799999	82.597	-8.7276
42.500000	82.448	-6.7382
43.099998	82.891	-5.5938
43.700001	83.392	-8.2235
44.400002	83.339	-13.3081
45.000000	82.800	-14.7526
45.500000	82.503	-12.7360
46.200001	82.764	-9.4697
46.799999	83.154	-9.5412
47.500000	83.294	-10.7781
48.200001	83.254	-11.2638
48.700001	83.196	-11.3899
49.400002	83.053	-11.2730
50.000000	82.949	-10.8843
50.799999	82.828	-10.9411
51.500000	82.682	-10.8644
52.200001	82.728	-11.1638
53.000000	82.640	-14.2736
53.799999	82.011	-14.4048
54.500000	82.225	-10.3816
55.200001	83.000	-12.0197
56.000000	82.815	-16.4277
57.000000	82.711	-10.7367
58.000000	83.564	-11.9097
59.000000	83.414	-9.1202
60.000000	84.841	-10.6660
60.799999	84.524	-21.1871
61.500000	82.899	-23.2380
62.200001	82.225	-15.7332
63.000000	82.805	-13.9267
64.000000	82.678	-17.5015
65.000000	82.429	-19.0344
66.000000	81.973	-19.6054
67.000000	82.008	-16.2659
68.000000	82.441	-16.8249
69.000000	82.361	-18.0424
70.000000	82.251	-17.0879
71.000000	82.340	-16.6281
72.000000	82.329	-17.6183
73.000000	82.112	-18.3047
74.000000	81.952	-17.6675
75.000000	82.002	-17.1839
76.199997	82.145	-17.5946
77.500000	82.102	-19.6789
78.800003	81.816	-18.8704
80.000000	81.913	-19.0433
81.199997	81.773	-19.2945
82.500000	81.818	-19.9655
83.800003	81.743	-20.4851
85.000000	81.722	-21.6009
86.199997	81.659	-20.8960
87.500000	81.778	-22.3498
88.500000	81.549	-21.9348
90.000000	81.683	-21.3849
91.199997	81.629	-22.7168
92.500000	81.076	-22.4987
93.800003	81.403	-20.8858
95.000000	81.068	-23.5901
96.199997	81.115	-20.7649
97.500000	81.468	-21.9940
98.800003	81.623	-23.6964
100.000000	81.420	-23.8928
101.500000	81.462	-24.0717
103.000000	81.201	-22.8997
104.400002	81.275	-25.3993
106.000000	80.658	-23.4671
107.500000	81.172	-24.1706
109.000000	80.971	-24.1354
110.599998	80.993	-24.6261
112.000000	81.058	-24.1452
113.800003	80.442	-25.4082
115.000000	81.144	-25.3261
117.199997	80.806	-22.7420
118.000000	81.354	-26.5654
120.599998	81.293	-25.8185
122.000000	80.367	-27.4382
124.099998	79.645	-20.7759
125.000000	80.923	-21.5723
126.500000	80.396	-27.6224
128.000000	80.724	-27.7437
131.500000	79.638	-30.2078
132.000000	79.600	-28.8624
134.000000	78.475	-33.5478
136.000000	79.985	-28.8918
138.000000	79.507	-28.2617
140.000000	80.022	-28.1768
143.000000	79.910	-27.5328
145.000000	79.943	-27.4295
147.500000	79.343	-26.2882
150.000000	79.694	-24.7893
152.500000	79.300	-27.6980
155.000000	79.141	-28.7297
157.500000	79.191	-26.3958
160.000000	78.936	-27.3670
162.500000	79.131	-29.3194
165.000000	79.260	-28.9464
167.500000	79.009	-27.0144
170.000000	78.732	-28.0110
172.500000	78.578	-27.0609
175.000000	78.901	-25.7335
177.500000	78.629	-26.9192
180.000000	78.529	-23.7768
182.500000	78.580	-27.5424
185.000000	78.220	-27.0253
187.500000	78.051	-26.6671
190.000000	77.999	-28.7478
192.500000	78.404	-32.6298
195.000000	78.490	-28.5243
197.500000	78.833	-30.2557
200.000000	79.197	-28.0101
203.000000	79.301	-20.8996
206.000000	78.916	-15.2875
209.000000	77.065	-16.5571
212.000000	76.864	-32.6091
214.000000	80.104	-20.1045
218.000000	79.133	-32.1109
220.000000	75.940	-19.5092
224.000000	77.886	-23.5822
227.000000	78.080	-33.3038
230.000000	77.800	-33.2052
233.000000	77.168	-30.6915
236.000000	77.905	-21.6331
240.000000	77.155	-20.4337
243.000000	77.311	-29.7002
247.000000	77.059	-21.7779
250.000000	76.563	-20.6015
254.000000	76.591	-24.1625
258.000000	76.909	-27.8762
262.000000	76.571	-22.0058
265.000000	77.205	-23.4437
269.000000	74.986	-23.4193
272.000000	76.875	-21.3313
276.000000	76.210	-22.3890
280.000000	76.844	-23.4843
285.000000	76.492	-23.9963
290.000000	75.729	-25.1452
295.000000	76.006	-19.3995
300.000000	76.108	-21.1685
304.000000	75.924	-23.2004
307.000000	76.364	-21.6576
311.000000	76.142	-18.9914
315.000000	75.442	-20.2083
320.000000	75.606	-21.9293
325.000000	76.329	-20.0036
330.000000	75.948	-18.3026
335.000000	76.120	-17.1741
340.000000	75.469	-17.9008
345.000000	75.722	-20.3399
350.000000	75.011	-20.1125
355.000000	75.462	-16.8876
360.000000	75.295	-15.4420
365.000000	75.365	-16.7221
370.000000	75.176	-17.5021
375.000000	75.423	-18.7485
382.000000	75.241	-20.6232
387.000000	75.892	-20.9313
395.000000	74.985	-14.9197
400.000000	74.939	-13.9776
406.000000	74.803	-16.1935
412.000000	75.026	-12.3556
418.000000	74.965	-15.8538
425.000000	74.740	-13.8802
431.000000	74.939	-13.6893
437.000000	74.545	-12.8978
444.000000	74.978	-11.3461
450.000000	74.809	-10.2704
455.000000	74.646	-8.4598
462.000000	74.457	-10.2453
468.000000	74.539	-11.0212
475.000000	74.754	-8.5224
482.000000	74.566	-8.7562
487.000000	74.184	-8.2779
494.000000	74.496	-7.7630
500.000000	74.456	-7.9170
508.000000	74.598	-7.8894
515.000000	74.183	-5.8132
522.000000	74.435	-4.7865
530.000000	74.902	-6.8248
538.000000	73.728	-6.2698
545.000000	74.576	-3.4401
552.000000	74.797	-3.7922
560.000000	73.597	-4.9445
570.000000	74.732	4.4037
580.000000	74.749	0.9710
590.000000	74.115	-2.9790
600.000000	73.880	0.9902
608.000000	74.068	1.6202
615.000000	73.808	0.2247
622.000000	74.385	2.4379
630.000000	74.065	3.1739
640.000000	74.078	2.5796
650.000000	73.721	1.5419
660.000000	73.955	6.1310
670.000000	74.002	4.6559
680.000000	73.961	6.4161
690.000000	74.069	8.1100
700.000000	73.998	8.3803
710.000000	73.919	7.9342
720.000000	74.045	10.2763
730.000000	73.980	11.6522
740.000000	74.321	12.1582
750.000000	73.415	13.7820
762.000000	74.271	16.1205
775.000000	73.685	12.2865
788.000000	73.767	16.6099
800.000000	73.959	15.9930
812.000000	74.216	17.8547
825.000000	74.059	18.4110
838.000000	74.272	19.8488
850.000000	74.235	19.6490
862.000000	74.294	21.6003
875.000000	74.474	22.5716
885.000000	74.490	24.7030
900.000000	74.500	23.9679
912.000000	74.495	24.4655
925.000000	74.532	26.4067
938.000000	74.806	27.7151
950.000000	74.932	28.1212
962.000000	74.909	28.8329
975.000000	75.158	30.8879
988.000000	75.076	30.5162
1000.000000	75.349	31.0782
1015.000000	75.356	32.6024
1030.000000	75.547	34.8570
1044.000000	75.369	34.2610
1060.000000	75.878	35.5709
1075.000000	76.079	36.5658
1090.000000	75.936	36.2602
1106.000000	76.349	38.3308
1120.000000	76.459	37.2586
1138.000000	76.729	38.8055
1150.000000	76.803	38.9558
1172.000000	77.021	40.1189
1180.000000	77.145	39.3216
1206.000000	77.362	40.6896
1220.000000	77.512	41.2135
1241.000000	77.755	41.6048
1250.000000	77.886	41.6907
1265.000000	78.012	42.0590
1280.000000	78.198	41.7711
1315.000000	78.456	42.4999
1320.000000	78.480	42.0153
1340.000000	78.674	42.7884
1360.000000	78.888	43.2121
1380.000000	79.117	42.6749
1400.000000	79.231	43.3478
1430.000000	79.385	43.5962
1450.000000	79.608	43.8917
1475.000000	79.810	44.0105
1500.000000	80.004	44.7378
1525.000000	80.179	44.6415
1550.000000	80.318	44.7808
1575.000000	80.541	45.3327
1600.000000	80.775	45.5970
1625.000000	80.989	45.8452
1650.000000	81.197	46.0400
1675.000000	81.427	46.4460
1700.000000	81.661	46.8482
1725.000000	81.827	47.0932
1750.000000	82.033	47.0370
1775.000000	82.323	47.3202
1800.000000	82.525	47.6180
1825.000000	82.742	47.6257
1850.000000	82.988	47.5897
1875.000000	83.254	47.7832
1900.000000	83.460	47.6990
1925.000000	83.743	47.7713
1950.000000	83.989	47.9169
1975.000000	84.304	47.6673
2000.000000	84.517	47.4876
2030.000000	84.818	47.0994
2060.000000	85.136	46.6700
2090.000000	85.481	46.1576
2120.000000	85.798	45.6265
2140.000000	86.017	45.1572
2180.000000	86.434	44.0170
2200.000000	86.666	43.4719
2240.000000	87.087	42.1431
2270.000000	87.405	40.9720
2300.000000	87.716	39.5591
2330.000000	88.009	38.0224
2360.000000	88.256	36.5729
2400.000000	88.621	34.2723
2430.000000	88.884	32.4009
2470.000000	89.163	29.8351
2500.000000	89.357	27.7015
2540.000000	89.602	24.9329
2580.000000	89.774	22.1263
2620.000000	89.916	19.4163
2650.000000	89.999	17.1029
2690.000000	90.066	14.3616
2720.000000	90.120	12.1096
2760.000000	90.148	9.4312
2800.000000	90.127	6.6332
2850.000000	90.002	3.7124
2900.000000	89.862	0.7102
2950.000000	89.725	-1.5614
3000.000000	89.533	-3.8688
3040.000000	89.370	-5.1174
3070.000000	89.297	-6.2335
3110.000000	89.135	-7.1874
3150.000000	89.038	-8.7843
3200.000000	88.802	-9.9330
3250.000000	88.647	-11.0763
3300.000000	88.571	-11.5904
3350.000000	88.397	-12.7710
3400.000000	88.259	-14.3115
3450.000000	88.155	-15.6042
3500.000000	88.042	-15.8764
3550.000000	87.952	-17.5977
3600.000000	87.820	-17.7057
3650.000000	87.654	-19.4428
3700.000000	87.603	-20.8588
3750.000000	87.425	-21.1185
3820.000000	87.327	-23.4152
3870.000000	87.215	-24.0475
3950.000000	87.039	-26.3231
4000.000000	86.714	-28.1568
4060.000000	86.460	-29.6305
4120.000000	86.397	-31.9053
4180.000000	86.133	-33.2405
4250.000000	85.792	-35.2008
4310.000000	85.507	-36.3517
4370.000000	85.066	-39.2478
4440.000000	84.591	-40.5955
4500.000000	84.194	-41.8446
4550.000000	83.893	-43.1691
4620.000000	83.465	-43.8651
4680.000000	82.925	-45.2070
4750.000000	82.428	-45.3725
4820.000000	81.774	-46.8104
4870.000000	81.462	-46.9484
4940.000000	80.968	-46.6856
5000.000000	80.554	-47.0061
5080.000000	79.779	-46.1219
5150.000000	79.221	-44.9001
5220.000000	78.778	-44.1590
5300.000000	78.304	-43.0117
5380.000000	77.682	-42.6481
5450.000000	77.453	-41.6021
5520.000000	76.934	-40.3890
5600.000000	76.502	-39.3737
5700.000000	75.851	-37.8998
5800.000000	75.307	-35.2039
5900.000000	74.988	-32.6566
6000.000000	74.671	-30.7770
6080.000000	74.261	-29.1365
6150.000000	73.980	-26.6805
6220.000000	73.803	-25.4743
6300.000000	73.723	-22.8933
6400.000000	73.738	-20.7390
6500.000000	73.590	-18.5794
6600.000000	73.698	-14.5879
6700.000000	73.894	-12.9044
6800.000000	74.143	-10.0668
6900.000000	74.392	-6.8766
7000.000000	74.633	-5.0699
7100.000000	75.221	-2.9944
7200.000000	75.927	-0.9585
7300.000000	76.706	-0.4803
7400.000000	77.415	1.3935
7500.000000	78.470	-0.3411
7620.000000	79.875	-1.4667
7750.000000	81.302	-8.4536
7880.000000	82.638	-21.0709
8000.000000	83.198	-35.1293
8120.000000	82.134	-49.5875
8250.000000	80.352	-59.3713
8380.000000	78.408	-64.0629
8500.000000	76.906	-65.3692
8620.000000	75.268	-63.8855
8750.000000	74.046	-60.8224
8850.000000	73.065	-57.9166
9000.000000	71.777	-53.1987
9120.000000	70.973	-47.2094
9250.000000	70.069	-41.9337
9380.000000	69.298	-35.7211
9500.000000	68.755	-30.7120
9620.000000	68.041	-24.9002
9750.000000	67.502	-18.4578
9880.000000	67.047	-12.6693
10000.000000	66.725	-5.8876
10150.000000	66.178	2.3182
10300.000000	65.692	9.5432
10440.000000	65.543	17.2284
10600.000000	65.176	26.0342
10750.000000	64.876	32.4644
10900.000000	64.736	40.8818
11060.000000	64.427	48.9639
11200.000000	64.527	56.3975
11380.000000	64.240	66.0316
11500.000000	64.101	71.0810
11720.000000	64.073	81.7805
11800.000000	64.165	85.3090
12060.000000	63.972	97.7000
12200.000000	63.843	104.6583
12410.000000	64.015	114.1241
12500.000000	64.065	117.7531
12650.000000	64.149	124.0025
12800.000000	64.344	129.5262
13150.000000	64.860	140.3240
13200.000000	65.031	142.5783
13400.000000	65.551	147.1062
13600.000000	66.356	151.1096
13800.000000	67.696	152.4306
14000.000000	69.132	150.4149
14300.000000	73.100	134.8860
14500.000000	75.808	107.1242
14750.000000	74.911	58.3641
15000.000000	71.359	37.4726
15250.000000	68.801	32.8272
15500.000000	67.456	33.4915
15750.000000	66.532	37.4551
16000.000000	65.951	43.5346
16250.000000	66.314	51.9208
16500.000000	66.532	59.3691
16750.000000	67.259	68.7189
17000.000000	67.972	76.0710
17250.000000	68.863	83.1968
17500.000000	69.570	87.3538
17750.000000	70.235	87.4667
18000.000000	70.014	87.5044
18250.000000	69.183	87.1368
18500.000000	67.616	92.7085
18750.000000	66.258	102.1103
19000.000000	64.783	113.6126
19250.000000	63.548	129.7319
19500.000000	62.886	145.9090
19750.000000	62.289	161.2889
