* Measurement data measured by REW V5.30.9
* Source: Microphone (Realtek USB2.0 Audio), MICROPHONE (Master Volume), L, volume: 0.500
* Format: 1M Log Swept Sine, 1 sweep at -12.0 dBFS with no timing reference
* Dated: 06 29, 24 12:44:12 PM
* REW Settings:
*  C-weighting compensation: Off
*  Target level: 75.0 dB
* Note: ; 
* Measurement: SM1 Lite S R
* Smoothing: None
* Frequency Step: 1/48 octave
* Start Frequency: 1.000 Hz
*
* Freq(Hz)	SPL(dB)	Phase(degrees)
1.000000	45.118	-73.3311
1.015000	44.956	-74.1098
1.030000	44.795	-74.9063
1.044000	44.645	-75.6678
1.060000	44.473	-76.5534
1.075000	44.312	-77.3929
1.090000	44.149	-78.2355
1.106000	43.972	-79.1314
1.120000	43.815	-79.9076
1.138000	43.607	-80.8875
1.150000	43.465	-81.5251
1.172000	43.195	-82.6505
1.180000	43.093	-83.0430
1.206000	42.749	-84.2435
1.220000	42.553	-84.8347
1.241000	42.244	-85.6369
1.250000	42.106	-85.9462
1.265000	41.867	-86.4114
1.280000	41.616	-86.8088
1.315000	40.983	-87.4409
1.320000	40.886	-87.4944
1.340000	40.484	-87.6083
1.360000	40.041	-87.6096
1.380000	39.524	-87.6406
1.400000	38.943	-87.6828
1.430000	37.978	-87.7049
1.450000	37.289	-87.6505
1.475000	36.398	-87.4550
1.500000	35.496	-87.0656
1.525000	34.606	-86.4270
1.550000	33.751	-85.4834
1.575000	32.955	-84.1794
1.600000	32.242	-82.4592
1.625000	31.634	-80.2673
1.650000	31.156	-77.5483
1.675000	30.830	-74.2463
1.700000	30.669	-70.1575
1.725000	30.641	-64.9337
1.750000	30.732	-58.7469
1.775000	30.927	-51.7980
1.800000	31.211	-44.2877
1.825000	31.570	-36.4169
1.850000	31.989	-28.3863
1.875000	32.452	-20.3968
1.900000	32.947	-12.6491
1.925000	33.458	-5.3440
1.950000	33.970	1.3177
1.975000	34.469	7.1351
2.000000	34.940	11.9075
2.030000	35.458	16.0220
2.060000	36.004	18.7283
2.090000	36.593	20.3059
2.120000	37.215	20.9305
2.140000	37.642	20.9042
2.180000	38.512	20.0233
2.200000	38.949	19.2729
2.240000	39.809	17.4124
2.270000	40.430	15.9073
2.300000	41.019	14.5035
2.330000	41.564	13.3765
2.360000	42.055	12.6926
2.400000	42.642	11.9076
2.430000	43.045	11.1972
2.470000	43.538	10.1262
2.500000	43.882	9.2563
2.540000	44.312	8.0458
2.580000	44.719	6.8215
2.620000	45.113	5.6312
2.650000	45.406	4.7895
2.690000	45.801	3.7738
2.720000	46.096	3.0713
2.760000	46.472	2.1363
2.800000	46.832	1.2172
2.850000	47.264	0.1151
2.900000	47.680	-0.9063
2.950000	48.086	-1.8161
3.000000	48.490	-2.5835
3.040000	48.814	-3.0777
3.070000	49.054	-3.4054
3.110000	49.369	-3.7943
3.150000	49.678	-4.1158
3.200000	50.058	-4.4021
3.250000	50.434	-4.5350
3.300000	50.806	-4.4880
3.350000	51.177	-4.2342
3.400000	51.548	-3.7622
3.450000	51.915	-3.1023
3.500000	52.279	-2.2595
3.550000	52.641	-1.2368
3.600000	52.999	-0.0370
3.650000	53.355	1.3369
3.700000	53.709	2.8822
3.750000	54.060	4.6694
3.820000	54.548	7.6099
3.870000	54.894	9.9198
3.950000	55.440	13.7672
4.000000	55.777	16.1478
4.060000	56.175	18.8841
4.120000	56.569	21.6986
4.180000	56.958	24.5711
4.250000	57.405	27.8539
4.310000	57.782	30.4879
4.370000	58.152	32.8440
4.440000	58.576	35.2347
4.500000	58.932	37.0661
4.550000	59.225	38.4463
4.620000	59.627	40.1672
4.680000	59.966	41.4565
4.750000	60.353	42.7362
4.820000	60.730	43.7144
4.870000	60.995	44.2616
4.940000	61.359	44.8745
5.000000	61.666	45.3097
5.080000	62.069	45.8245
5.150000	62.412	46.1298
5.220000	62.749	46.3134
5.300000	63.127	46.4342
5.380000	63.501	46.5264
5.450000	63.823	46.5265
5.520000	64.141	46.5160
5.600000	64.499	46.5018
5.700000	64.943	46.4904
5.800000	65.386	46.4944
5.900000	65.825	46.5057
6.000000	66.262	46.5423
6.080000	66.615	46.6035
6.150000	66.924	46.6876
6.220000	67.233	46.7915
6.300000	67.588	46.9194
6.400000	68.035	47.0680
6.500000	68.486	47.2225
6.600000	68.940	47.3755
6.700000	69.397	47.4771
6.800000	69.856	47.4991
6.900000	70.319	47.4668
7.000000	70.783	47.3621
7.100000	71.246	47.1655
7.200000	71.709	46.8846
7.300000	72.170	46.5181
7.400000	72.627	46.0581
7.500000	73.078	45.4937
7.620000	73.613	44.6920
7.750000	74.178	43.7121
7.880000	74.727	42.6153
8.000000	75.218	41.5101
8.120000	75.689	40.3504
8.250000	76.179	39.0168
8.380000	76.643	37.6346
8.500000	77.047	36.3374
8.620000	77.428	35.0089
8.750000	77.814	33.5783
8.850000	78.091	32.4896
9.000000	78.474	30.8744
9.120000	78.754	29.6334
9.250000	79.030	28.3270
9.380000	79.281	27.0959
9.500000	79.493	26.0611
9.620000	79.684	25.1090
9.750000	79.875	24.2016
9.880000	80.053	23.4387
10.000000	80.205	22.8552
10.150000	80.392	22.2990
10.300000	80.574	21.9419
10.440000	80.751	21.7525
10.600000	80.965	21.7173
10.750000	81.178	21.7959
10.900000	81.411	21.9291
11.060000	81.676	22.1158
11.200000	81.920	22.2369
11.380000	82.250	22.3520
11.500000	82.472	22.3709
11.720000	82.882	22.2918
11.800000	83.028	22.2343
12.060000	83.489	21.9348
12.200000	83.725	21.7507
12.410000	84.064	21.4582
12.500000	84.206	21.3549
12.650000	84.435	21.2097
12.800000	84.662	21.0854
13.150000	85.177	20.8543
13.200000	85.219	20.8129
13.400000	85.327	20.6206
13.600000	85.388	20.3571
13.800000	85.413	20.0103
14.000000	85.438	19.5406
14.300000	85.445	18.7020
14.500000	85.420	18.1571
14.750000	85.345	17.6519
15.000000	85.253	17.4523
15.250000	85.176	17.5633
15.500000	85.141	17.9372
15.750000	85.160	18.4535
16.000000	85.248	18.7569
16.250000	85.380	18.6609
16.500000	85.526	18.0645
16.750000	85.629	17.0193
17.000000	85.669	15.7056
17.250000	85.639	14.3414
17.500000	85.543	13.1523
17.750000	85.394	12.4141
18.000000	85.249	12.1783
18.250000	85.147	12.3404
18.500000	85.118	12.7287
18.750000	85.163	13.0064
19.000000	85.256	12.8840
19.250000	85.361	12.2891
19.500000	85.437	11.2429
19.750000	85.436	9.9939
20.000000	85.360	8.8381
20.299999	85.193	7.9328
20.600000	85.002	7.9080
20.900000	84.878	8.8075
21.200001	84.914	10.1780
21.400000	85.043	10.9620
21.799999	85.447	11.4164
22.000000	85.666	10.9168
22.400000	86.022	8.6773
22.700001	86.144	6.4371
23.000000	86.129	4.2151
23.299999	86.005	2.3881
23.600000	85.816	1.2221
24.000000	85.554	0.7560
24.299999	85.406	0.9570
24.700001	85.279	1.5479
25.000000	85.217	2.0868
25.400000	85.171	2.9651
25.799999	85.193	4.1270
26.200001	85.339	5.1505
26.500000	85.516	5.3833
26.900000	85.739	4.6549
27.200001	85.820	3.4247
27.600000	85.737	1.6574
28.000000	85.459	0.8191
28.500000	85.115	2.1973
29.000000	85.169	4.9073
29.500000	85.600	5.6780
30.000000	85.936	3.5658
30.400000	85.939	0.9946
30.700001	85.786	-0.5567
31.100000	85.483	-1.4018
31.500000	85.253	-0.8635
32.000000	85.232	0.2735
32.500000	85.395	0.0782
33.000000	85.457	-1.4503
33.500000	85.316	-3.0600
34.000000	85.071	-3.5708
34.500000	84.910	-2.9674
35.000000	84.919	-2.1731
35.500000	85.041	-2.1203
36.000000	85.143	-2.8575
36.500000	85.162	-3.9003
37.000000	85.123	-4.6729
37.500000	85.099	-5.1198
38.200001	85.122	-5.7957
38.700001	85.124	-6.4731
39.500000	85.078	-7.1600
40.000000	85.087	-7.3486
40.599998	85.119	-7.9202
41.200001	85.060	-8.6565
41.799999	84.922	-8.6752
42.500000	84.868	-7.7007
43.099998	84.958	-7.2194
43.700001	85.036	-7.5810
44.400002	85.016	-8.3188
45.000000	84.939	-8.8084
45.500000	84.854	-9.0864
46.200001	84.740	-9.1210
46.799999	84.718	-8.9930
47.500000	84.775	-9.4613
48.200001	84.769	-10.6757
48.700001	84.695	-11.3743
49.400002	84.617	-11.5718
50.000000	84.665	-11.6534
50.799999	84.751	-12.7133
51.500000	84.667	-13.7004
52.200001	84.548	-13.4565
53.000000	84.627	-12.8440
53.799999	84.696	-13.8140
54.500000	84.523	-14.3781
55.200001	84.418	-13.4724
56.000000	84.562	-13.5485
57.000000	84.367	-15.5630
58.000000	84.196	-14.3279
59.000000	84.383	-16.2253
60.000000	83.870	-17.4208
60.799999	83.850	-14.7897
61.500000	84.150	-14.9558
62.200001	84.141	-16.3604
63.000000	84.034	-15.7816
64.000000	84.311	-15.8516
65.000000	84.239	-17.9541
66.000000	84.050	-17.8404
67.000000	84.056	-17.8069
68.000000	84.059	-18.5733
69.000000	83.922	-19.6097
70.000000	83.756	-19.5646
71.000000	83.670	-19.7142
72.000000	83.557	-19.3011
73.000000	83.617	-19.2245
74.000000	83.592	-19.8138
75.000000	83.615	-20.2477
76.199997	83.534	-20.9951
77.500000	83.631	-20.9601
78.800003	83.555	-21.4763
80.000000	83.645	-21.1005
81.199997	83.516	-21.5142
82.500000	83.468	-20.9222
83.800003	83.330	-21.0731
85.000000	83.379	-22.1300
86.199997	83.011	-23.7455
87.500000	83.090	-23.0421
88.500000	83.012	-25.3814
90.000000	82.821	-22.9383
91.199997	83.155	-23.4751
92.500000	83.137	-23.4746
93.800003	83.200	-24.6706
95.000000	82.830	-24.1904
96.199997	82.941	-23.1611
97.500000	82.868	-23.8990
98.800003	82.908	-25.6672
100.000000	82.474	-25.6646
101.500000	82.822	-25.0712
103.000000	82.476	-25.3040
104.400002	82.729	-24.0617
106.000000	82.526	-26.0202
107.500000	82.282	-24.9183
109.000000	82.231	-26.8635
110.599998	82.129	-26.6876
112.000000	82.237	-27.0488
113.800003	82.367	-28.5509
115.000000	82.136	-28.3397
117.199997	81.961	-27.4394
118.000000	81.881	-30.1011
120.599998	80.753	-24.8078
122.000000	81.637	-27.8447
124.099998	81.685	-29.2294
125.000000	81.821	-28.8913
126.500000	81.895	-29.2344
128.000000	81.786	-28.3672
131.500000	81.412	-28.5345
132.000000	81.547	-27.6573
134.000000	81.511	-29.7289
136.000000	81.700	-29.1635
138.000000	81.665	-29.0105
140.000000	81.050	-29.1107
143.000000	81.131	-29.7103
145.000000	80.978	-29.5327
147.500000	81.419	-30.5231
150.000000	81.151	-27.2683
152.500000	80.952	-27.7220
155.000000	80.756	-27.7527
157.500000	80.814	-29.7045
160.000000	80.680	-31.2776
162.500000	80.822	-28.7744
165.000000	80.579	-29.3162
167.500000	80.603	-30.3217
170.000000	79.987	-31.7690
172.500000	80.295	-31.3626
175.000000	80.376	-30.8056
177.500000	80.321	-30.2752
180.000000	80.084	-29.8276
182.500000	79.841	-29.5302
185.000000	79.786	-30.8682
187.500000	79.845	-29.7420
190.000000	79.524	-29.4226
192.500000	79.689	-30.6315
195.000000	79.868	-29.6094
197.500000	79.760	-30.2293
200.000000	79.753	-27.5981
203.000000	79.469	-26.5480
206.000000	79.237	-30.0759
209.000000	79.192	-29.1198
212.000000	79.056	-30.3834
214.000000	79.281	-29.4466
218.000000	79.016	-28.8131
220.000000	78.779	-28.6289
224.000000	78.805	-27.6072
227.000000	78.867	-29.5412
230.000000	78.861	-29.3435
233.000000	78.744	-28.0043
236.000000	78.531	-28.2440
240.000000	79.266	-36.6490
243.000000	78.839	-29.8187
247.000000	78.314	-27.3716
250.000000	78.167	-28.0996
254.000000	78.338	-27.2813
258.000000	78.168	-25.5974
262.000000	78.263	-29.2162
265.000000	78.431	-44.1224
269.000000	78.526	-27.8332
272.000000	77.939	-28.3158
276.000000	78.160	-20.1604
280.000000	78.137	-24.2620
285.000000	78.194	-23.8788
290.000000	77.662	-22.9325
295.000000	77.779	-25.7829
300.000000	77.455	-23.5323
304.000000	77.415	-24.1077
307.000000	77.493	-22.6469
311.000000	77.305	-23.4788
315.000000	77.605	-22.3607
320.000000	77.368	-22.6141
325.000000	77.645	-22.2744
330.000000	77.614	-20.5492
335.000000	77.026	-21.7270
340.000000	77.096	-22.3254
345.000000	77.067	-20.8533
350.000000	76.963	-20.6431
355.000000	77.130	-17.7801
360.000000	76.867	-19.3452
365.000000	76.741	-20.1148
370.000000	76.532	-19.3060
375.000000	76.644	-18.8102
382.000000	76.521	-19.2937
387.000000	76.649	-17.3155
395.000000	76.513	-17.8015
400.000000	75.758	-21.2115
406.000000	76.346	-16.8064
412.000000	76.240	-17.3175
418.000000	76.247	-15.2184
425.000000	76.259	-13.9295
431.000000	76.325	-14.5007
437.000000	76.326	-14.2267
444.000000	75.921	-14.2138
450.000000	76.103	-13.8926
455.000000	76.056	-13.1054
462.000000	76.192	-11.3739
468.000000	75.927	-11.5023
475.000000	75.680	-11.4330
482.000000	75.885	-8.1954
487.000000	75.864	-12.4128
494.000000	75.945	-8.9111
500.000000	75.500	-11.6516
508.000000	76.723	-8.0843
515.000000	75.067	-16.1727
522.000000	75.468	-10.0332
530.000000	75.591	-9.9884
538.000000	75.503	-7.6022
545.000000	74.346	-7.7776
552.000000	76.981	-2.5273
560.000000	75.473	-6.8233
570.000000	75.658	-5.4682
580.000000	75.120	-2.2404
590.000000	75.269	0.6422
600.000000	75.529	-5.9138
608.000000	75.355	-5.0452
615.000000	75.640	-0.0479
622.000000	75.435	-2.3346
630.000000	75.441	-0.2986
640.000000	75.559	0.0751
650.000000	75.086	-1.3453
660.000000	75.169	2.3162
670.000000	75.203	3.9637
680.000000	75.323	3.7376
690.000000	75.155	4.7485
700.000000	75.286	4.8856
710.000000	75.284	6.2176
720.000000	75.262	6.4888
730.000000	75.226	8.6218
740.000000	75.427	8.4549
750.000000	75.278	9.6910
762.000000	75.569	10.6885
775.000000	75.243	11.3007
788.000000	75.374	12.3493
800.000000	75.348	13.2575
812.000000	75.525	14.3338
825.000000	75.546	16.2886
838.000000	75.600	16.9437
850.000000	75.591	17.1918
862.000000	75.715	18.8270
875.000000	75.753	20.0152
885.000000	75.743	21.2001
900.000000	75.759	21.7458
912.000000	75.948	22.2850
925.000000	76.019	23.3839
938.000000	76.106	23.9099
950.000000	76.264	25.5133
962.000000	76.284	26.3168
975.000000	76.409	27.1900
988.000000	76.569	28.1572
1000.000000	76.668	28.8209
1015.000000	76.762	29.5267
1030.000000	77.015	30.0807
1044.000000	77.103	31.2886
1060.000000	77.260	32.3237
1075.000000	77.424	32.7434
1090.000000	77.578	33.6452
1106.000000	77.764	34.4715
1120.000000	77.938	34.3866
1138.000000	78.149	35.6781
1150.000000	78.138	35.8539
1172.000000	78.465	36.7156
1180.000000	78.516	36.4953
1206.000000	78.900	37.0679
1220.000000	79.012	37.2514
1241.000000	79.244	37.8111
1250.000000	79.334	37.6648
1265.000000	79.485	37.9376
1280.000000	79.590	37.7724
1315.000000	79.951	38.1792
1320.000000	80.009	38.4105
1340.000000	80.173	38.6335
1360.000000	80.335	38.6810
1380.000000	80.522	38.9176
1400.000000	80.668	39.1238
1430.000000	80.914	39.2426
1450.000000	81.062	39.4021
1475.000000	81.290	39.4505
1500.000000	81.445	39.7617
1525.000000	81.675	40.0694
1550.000000	81.834	40.2183
1575.000000	82.055	40.5323
1600.000000	82.247	40.7549
1625.000000	82.459	40.8907
1650.000000	82.661	41.0661
1675.000000	82.882	41.2267
1700.000000	83.070	41.4449
1725.000000	83.267	41.5936
1750.000000	83.486	41.6823
1775.000000	83.691	41.8375
1800.000000	83.920	41.8915
1825.000000	84.156	41.9719
1850.000000	84.386	41.9610
1875.000000	84.599	42.0799
1900.000000	84.825	41.9515
1925.000000	85.072	41.7743
1950.000000	85.321	41.6236
1975.000000	85.560	41.4787
2000.000000	85.808	41.2170
2030.000000	86.082	40.8666
2060.000000	86.380	40.3617
2090.000000	86.684	39.8554
2120.000000	86.973	39.3702
2140.000000	87.183	38.7599
2180.000000	87.580	37.6985
2200.000000	87.769	37.2062
2240.000000	88.154	35.9164
2270.000000	88.432	34.7341
2300.000000	88.687	33.5294
2330.000000	88.963	32.2059
2360.000000	89.224	30.7969
2400.000000	89.487	28.8834
2430.000000	89.708	27.2751
2470.000000	90.000	24.9301
2500.000000	90.179	23.3393
2540.000000	90.405	20.9529
2580.000000	90.596	18.4055
2620.000000	90.746	15.8754
2650.000000	90.827	13.9061
2690.000000	90.934	11.3530
2720.000000	90.974	9.3511
2760.000000	91.020	7.0746
2800.000000	91.050	4.4698
2850.000000	90.977	1.8617
2900.000000	90.893	-1.0318
2950.000000	90.828	-3.1683
3000.000000	90.669	-5.6696
3040.000000	90.517	-6.9529
3070.000000	90.464	-8.1153
3110.000000	90.349	-9.1706
3150.000000	90.267	-10.9072
3200.000000	90.024	-12.2383
3250.000000	89.913	-13.5582
3300.000000	89.841	-14.1993
3350.000000	89.658	-15.7084
3400.000000	89.554	-17.5873
3450.000000	89.427	-19.1818
3500.000000	89.309	-19.8345
3550.000000	89.160	-21.7443
3600.000000	88.979	-22.2473
3650.000000	88.745	-24.3627
3700.000000	88.650	-25.9586
3750.000000	88.399	-26.3895
3820.000000	88.173	-28.7042
3870.000000	87.975	-29.3757
3950.000000	87.667	-31.5798
4000.000000	87.255	-33.2377
4060.000000	86.868	-34.4115
4120.000000	86.711	-36.5833
4180.000000	86.372	-37.4300
4250.000000	85.943	-38.8725
4310.000000	85.555	-39.4364
4370.000000	85.074	-41.7780
4440.000000	84.535	-42.5532
4500.000000	84.075	-43.2404
4550.000000	83.741	-44.0398
4620.000000	83.289	-43.9861
4680.000000	82.731	-44.8253
4750.000000	82.241	-44.3891
4820.000000	81.584	-45.4247
4870.000000	81.256	-45.1739
4940.000000	80.761	-44.4751
5000.000000	80.368	-44.5140
5080.000000	79.634	-43.4072
5150.000000	79.079	-42.1064
5220.000000	78.590	-40.9299
5300.000000	78.125	-39.4744
5380.000000	77.575	-39.0859
5450.000000	77.320	-37.9232
5520.000000	76.843	-36.6719
5600.000000	76.445	-35.5665
5700.000000	75.755	-34.2269
5800.000000	75.260	-31.6269
5900.000000	74.890	-29.3428
6000.000000	74.588	-27.6110
6080.000000	74.223	-26.0140
6150.000000	73.919	-23.9192
6220.000000	73.759	-22.7567
6300.000000	73.694	-20.2803
6400.000000	73.722	-18.4853
6500.000000	73.564	-16.9033
6600.000000	73.689	-12.9100
6700.000000	73.901	-11.3715
6800.000000	74.180	-8.9391
6900.000000	74.441	-5.8371
7000.000000	74.700	-4.2259
7100.000000	75.306	-2.5073
7200.000000	75.987	-0.5007
7300.000000	76.734	0.0074
7400.000000	77.432	2.0151
7500.000000	78.432	0.7280
7620.000000	79.727	0.6450
7750.000000	81.075	-4.2836
7880.000000	82.498	-13.5868
8000.000000	83.525	-24.3669
8120.000000	83.129	-37.8408
8250.000000	81.913	-49.0695
8380.000000	80.337	-55.7374
8500.000000	78.943	-58.6889
8620.000000	77.351	-57.9949
8750.000000	76.205	-55.8644
8850.000000	75.208	-53.2793
9000.000000	73.969	-49.0474
9120.000000	73.190	-43.1874
9250.000000	72.388	-38.0579
9380.000000	71.653	-32.0845
9500.000000	71.101	-27.3056
9620.000000	70.428	-20.9674
9750.000000	69.909	-15.2192
9880.000000	69.514	-9.3859
10000.000000	69.212	-2.6668
10150.000000	68.745	5.3726
10300.000000	68.260	12.3501
10440.000000	68.108	20.6070
10600.000000	67.752	28.8402
10750.000000	67.492	35.7428
10900.000000	67.386	44.1030
11060.000000	67.050	51.8657
11200.000000	67.160	59.5270
11380.000000	66.894	69.1343
11500.000000	66.774	73.8935
11720.000000	66.764	85.2920
11800.000000	66.728	89.4588
12060.000000	66.675	100.8220
12200.000000	66.490	107.6438
12410.000000	66.520	117.6872
12500.000000	66.642	122.3960
12650.000000	66.682	127.7293
12800.000000	66.848	131.9803
13150.000000	67.281	144.0602
13200.000000	67.099	148.0606
13400.000000	67.609	152.0601
13600.000000	68.291	155.5097
13800.000000	69.353	156.8608
14000.000000	70.463	154.8688
14300.000000	73.782	140.4747
14500.000000	76.331	117.4169
14750.000000	76.860	70.2353
15000.000000	73.956	41.9280
15250.000000	71.617	33.4149
15500.000000	70.329	32.3708
15750.000000	69.534	34.9818
16000.000000	69.113	39.9184
16250.000000	69.574	47.8306
16500.000000	69.962	54.4874
16750.000000	70.679	62.6133
17000.000000	71.427	67.5050
17250.000000	72.036	71.7199
17500.000000	72.159	73.0913
17750.000000	71.800	73.5835
18000.000000	70.870	78.0959
18250.000000	69.619	84.9569
18500.000000	68.281	96.0641
18750.000000	67.376	109.7196
19000.000000	66.560	123.5553
19250.000000	65.847	140.1091
19500.000000	65.496	155.6049
19750.000000	65.012	170.7393
