* Measurement data measured by REW V5.30.9
* Source: Headset (Odo By VECLAN.COM), MICROPHONE (Master Volume), L, volume: 0.250
* Format: 512k Log Swept Sine, 1 sweep at -12.0 dBFS with no timing reference
* Dated: 09 25, 24 3:43:07 AM
* REW Settings:
*  C-weighting compensation: Off
*  Target level: 75.0 dB
* Note: ; 
* Measurement: splendor ii dsp L
* Smoothing: None
* Frequency Step: 1/48 octave
* Start Frequency: 1.000 Hz
*
* Freq(Hz)	SPL(dB)	Phase(degrees)
1.000000	45.218	-126.7258
1.015000	45.408	-127.8083
1.030000	45.597	-128.8627
1.044000	45.771	-129.8219
1.060000	45.968	-130.8894
1.075000	46.149	-131.8629
1.090000	46.327	-132.8107
1.106000	46.514	-133.7914
1.120000	46.676	-134.6106
1.138000	46.884	-135.6090
1.150000	47.023	-136.2419
1.172000	47.276	-137.3380
1.180000	47.368	-137.7169
1.206000	47.666	-138.8813
1.220000	47.825	-139.4683
1.241000	48.065	-140.3007
1.250000	48.167	-140.6409
1.265000	48.337	-141.1877
1.280000	48.507	-141.7107
1.315000	48.902	-142.8499
1.320000	48.958	-143.0044
1.340000	49.182	-143.6051
1.360000	49.406	-144.1814
1.380000	49.630	-144.7379
1.400000	49.852	-145.2795
1.430000	50.185	-146.0741
1.450000	50.406	-146.5989
1.475000	50.682	-147.2513
1.500000	50.956	-147.8516
1.525000	51.228	-148.3926
1.550000	51.500	-148.8808
1.575000	51.770	-149.3224
1.600000	52.039	-149.7239
1.625000	52.307	-150.0914
1.650000	52.574	-150.4314
1.675000	52.841	-150.7502
1.700000	53.107	-151.0542
1.725000	53.373	-151.3495
1.750000	53.638	-151.6427
1.775000	53.904	-151.9400
1.800000	54.169	-152.2478
1.825000	54.435	-152.5723
1.850000	54.701	-152.9068
1.875000	54.967	-153.2244
1.900000	55.234	-153.5268
1.925000	55.501	-153.8169
1.950000	55.768	-154.0974
1.975000	56.034	-154.3712
2.000000	56.300	-154.6414
2.030000	56.618	-154.9646
2.060000	56.935	-155.2916
2.090000	57.250	-155.6273
2.120000	57.563	-155.9765
2.140000	57.771	-156.2194
2.180000	58.183	-156.7360
2.200000	58.387	-157.0124
2.240000	58.794	-157.5855
2.270000	59.097	-158.0273
2.300000	59.400	-158.4798
2.330000	59.701	-158.9432
2.360000	60.000	-159.4179
2.400000	60.396	-160.0691
2.430000	60.689	-160.5715
2.470000	61.076	-161.2608
2.500000	61.362	-161.7927
2.540000	61.737	-162.5225
2.580000	62.106	-163.2771
2.620000	62.468	-164.0607
2.650000	62.737	-164.6666
2.690000	63.091	-165.4960
2.720000	63.353	-166.1327
2.760000	63.696	-166.9986
2.800000	64.034	-167.8810
2.850000	64.448	-169.0026
2.900000	64.851	-170.1392
2.950000	65.243	-171.2873
3.000000	65.626	-172.4631
3.040000	65.924	-173.4233
3.070000	66.144	-174.1528
3.110000	66.431	-175.1351
3.150000	66.713	-176.1255
3.200000	67.056	-177.3699
3.250000	67.390	-178.6155
3.300000	67.716	-179.8560
3.350000	68.031	178.8987
3.400000	68.336	177.6422
3.450000	68.632	176.3793
3.500000	68.919	175.1151
3.550000	69.198	173.8544
3.600000	69.469	172.6024
3.650000	69.733	171.3639
3.700000	69.989	170.1381
3.750000	70.236	168.9149
3.820000	70.568	167.2123
3.870000	70.796	166.0075
3.950000	71.147	164.1084
4.000000	71.359	162.9444
4.060000	71.607	161.5740
4.120000	71.845	160.2242
4.180000	72.073	158.8956
4.250000	72.328	157.3752
4.310000	72.540	156.0998
4.370000	72.747	154.8524
4.440000	72.982	153.4345
4.500000	73.175	152.2502
4.550000	73.331	151.2840
4.620000	73.544	149.9612
4.680000	73.721	148.8536
4.750000	73.925	147.5902
4.820000	74.125	146.3605
4.870000	74.264	145.5056
4.940000	74.454	144.3369
5.000000	74.613	143.3570
5.080000	74.823	142.0748
5.150000	75.004	140.9702
5.220000	75.183	139.8913
5.300000	75.383	138.6874
5.380000	75.579	137.5052
5.450000	75.749	136.4810
5.520000	75.916	135.4604
5.600000	76.105	134.3082
5.700000	76.337	132.8870
5.800000	76.563	131.4775
5.900000	76.783	130.0709
6.000000	76.998	128.6696
6.080000	77.165	127.5546
6.150000	77.308	126.5841
6.220000	77.447	125.6190
6.300000	77.602	124.5206
6.400000	77.788	123.1537
6.500000	77.968	121.8015
6.600000	78.141	120.4719
6.700000	78.306	119.1625
6.800000	78.464	117.8724
6.900000	78.617	116.6083
7.000000	78.764	115.3761
7.100000	78.906	114.1736
7.200000	79.042	112.9993
7.300000	79.175	111.8530
7.400000	79.306	110.7362
7.500000	79.433	109.6504
7.620000	79.582	108.3785
7.750000	79.741	107.0288
7.880000	79.898	105.7157
8.000000	80.041	104.5243
8.120000	80.181	103.3412
8.250000	80.330	102.0750
8.380000	80.477	100.8194
8.500000	80.608	99.6635
8.620000	80.735	98.5121
8.750000	80.869	97.2746
8.850000	80.968	96.3309
9.000000	81.110	94.9253
9.120000	81.219	93.8183
9.250000	81.331	92.6426
9.380000	81.438	91.4879
9.500000	81.533	90.4457
9.620000	81.627	89.4297
9.750000	81.725	88.3561
9.880000	81.815	87.3077
10.000000	81.889	86.3631
10.150000	81.970	85.2120
10.300000	82.047	84.0822
10.440000	82.114	83.0482
10.600000	82.187	81.8853
10.750000	82.255	80.8072
10.900000	82.320	79.7437
11.060000	82.387	78.6267
11.200000	82.442	77.6629
11.380000	82.510	76.4508
11.500000	82.554	75.6614
11.720000	82.630	74.2512
11.800000	82.657	73.7518
12.060000	82.745	72.1697
12.200000	82.792	71.3344
12.410000	82.865	70.0972
12.500000	82.901	69.5629
12.650000	82.969	68.6712
12.800000	83.037	67.7700
13.150000	83.187	65.6092
13.200000	83.206	65.2973
13.400000	83.278	64.0357
13.600000	83.339	62.7876
13.800000	83.389	61.5620
14.000000	83.429	60.3927
14.300000	83.477	58.7595
14.500000	83.505	57.7673
14.750000	83.543	56.6100
15.000000	83.588	55.5270
15.250000	83.642	54.4649
15.500000	83.701	53.3880
15.750000	83.762	52.2791
16.000000	83.820	51.1292
16.250000	83.872	49.9641
16.500000	83.916	48.8025
16.750000	83.950	47.6738
17.000000	83.978	46.5976
17.250000	84.002	45.5762
17.500000	84.025	44.6095
17.750000	84.050	43.6812
18.000000	84.075	42.7818
18.250000	84.102	41.9008
18.500000	84.129	41.0314
18.750000	84.156	40.1727
19.000000	84.183	39.3236
19.250000	84.209	38.4824
19.500000	84.234	37.6468
19.750000	84.257	36.8150
20.000000	84.278	35.9863
20.299999	84.298	35.0038
20.600000	84.313	34.0463
20.900000	84.324	33.1284
21.200001	84.332	32.2608
21.400000	84.339	31.7084
21.799999	84.355	30.6443
22.000000	84.366	30.1183
22.400000	84.391	29.0469
22.700001	84.408	28.2151
23.000000	84.420	27.3653
23.299999	84.425	26.5194
23.600000	84.422	25.6990
24.000000	84.412	24.6706
24.299999	84.403	23.9534
24.700001	84.392	23.0547
25.000000	84.387	22.4060
25.400000	84.383	21.5553
25.799999	84.381	20.7117
26.200001	84.377	19.8774
26.500000	84.373	19.2612
26.900000	84.366	18.4554
27.200001	84.360	17.8650
27.600000	84.350	17.1014
28.000000	84.338	16.3735
28.500000	84.325	15.5197
29.000000	84.318	14.7083
29.500000	84.317	13.8967
30.000000	84.316	13.0547
30.400000	84.311	12.3684
30.700001	84.303	11.8616
31.100000	84.290	11.2149
31.500000	84.276	10.6066
32.000000	84.262	9.8812
32.500000	84.251	9.1624
33.000000	84.239	8.4440
33.500000	84.224	7.7513
34.000000	84.211	7.1000
34.500000	84.203	6.4629
35.000000	84.199	5.7986
35.500000	84.191	5.1010
36.000000	84.174	4.4137
36.500000	84.151	3.7865
37.000000	84.130	3.2313
37.500000	84.117	2.7161
38.200001	84.111	1.9725
38.700001	84.108	1.3871
39.500000	84.089	0.3926
40.000000	84.067	-0.1962
40.599998	84.039	-0.8279
41.200001	84.020	-1.4282
41.799999	84.005	-2.0634
42.500000	83.981	-2.8309
43.099998	83.958	-3.4580
43.700001	83.938	-4.0704
44.400002	83.913	-4.7900
45.000000	83.889	-5.3727
45.500000	83.872	-5.8181
46.200001	83.857	-6.4349
46.799999	83.847	-7.0048
47.500000	83.827	-7.6861
48.200001	83.800	-8.3254
48.700001	83.779	-8.7490
49.400002	83.752	-9.3060
50.000000	83.732	-9.7634
50.799999	83.713	-10.4037
51.500000	83.693	-11.0405
52.200001	83.659	-11.6841
53.000000	83.614	-12.3090
53.799999	83.587	-12.9019
54.500000	83.567	-13.5040
55.200001	83.539	-14.1349
56.000000	83.498	-14.8123
57.000000	83.444	-15.5277
58.000000	83.417	-16.1719
59.000000	83.383	-17.0557
60.000000	83.300	-17.7313
60.799999	83.265	-18.0675
61.500000	83.250	-18.5496
62.200001	83.206	-19.1194
63.000000	83.145	-19.5667
64.000000	83.113	-20.1671
65.000000	83.051	-20.9874
66.000000	82.993	-21.5647
67.000000	82.951	-22.3419
68.000000	82.885	-22.9000
69.000000	82.872	-23.5669
70.000000	82.777	-24.4036
71.000000	82.696	-24.4126
72.000000	82.719	-24.7880
73.000000	82.663	-25.5511
74.000000	82.584	-25.8741
75.000000	82.541	-26.1925
76.199997	82.498	-26.7078
77.500000	82.410	-27.4547
78.800003	82.352	-27.6238
80.000000	82.329	-28.5356
81.199997	82.216	-28.9443
82.500000	82.165	-29.5030
83.800003	82.087	-29.8510
85.000000	82.040	-30.4467
86.199997	81.977	-30.8143
87.500000	81.921	-31.4938
88.500000	81.849	-31.8120
90.000000	81.793	-32.2451
91.199997	81.726	-32.7670
92.500000	81.650	-33.0615
93.800003	81.590	-33.4369
95.000000	81.542	-33.8309
96.199997	81.455	-34.1965
97.500000	81.414	-34.5011
98.800003	81.320	-34.8919
100.000000	81.294	-35.2249
101.500000	81.177	-35.6724
103.000000	81.131	-36.0354
104.400002	81.075	-36.2726
106.000000	80.991	-36.7178
107.500000	80.952	-37.0711
109.000000	80.845	-37.3273
110.599998	80.788	-37.7201
112.000000	80.706	-38.0043
113.800003	80.651	-38.2396
115.000000	80.592	-38.5778
117.199997	80.503	-38.9558
118.000000	80.455	-38.9415
120.599998	80.352	-39.1302
122.000000	80.334	-39.5227
124.099998	80.222	-39.8663
125.000000	80.199	-40.0437
126.500000	80.119	-40.4937
128.000000	80.060	-40.3113
131.500000	79.956	-40.7741
132.000000	79.949	-40.8261
134.000000	79.883	-41.3136
136.000000	79.813	-41.3854
138.000000	79.767	-41.6307
140.000000	79.685	-41.9131
143.000000	79.596	-42.0546
145.000000	79.528	-42.3519
147.500000	79.441	-42.5789
150.000000	79.359	-42.7229
152.500000	79.306	-43.0009
155.000000	79.212	-43.1323
157.500000	79.151	-43.2054
160.000000	79.058	-43.2829
162.500000	78.985	-43.4573
165.000000	78.865	-43.4703
167.500000	78.653	-43.4905
170.000000	78.600	-43.4589
172.500000	78.507	-43.1030
175.000000	78.439	-42.3325
177.500000	78.350	-40.9223
180.000000	78.389	-40.3162
182.500000	78.526	-40.2230
185.000000	78.658	-40.3928
187.500000	78.772	-41.2273
190.000000	78.743	-41.4748
192.500000	78.702	-42.3245
195.000000	78.704	-42.9809
197.500000	78.641	-43.1173
200.000000	78.596	-43.6241
203.000000	78.539	-43.9161
206.000000	78.475	-44.3585
209.000000	78.417	-44.6099
212.000000	78.393	-44.8292
214.000000	78.360	-45.1218
218.000000	78.313	-45.3596
220.000000	78.263	-45.6085
224.000000	78.233	-45.6810
227.000000	78.184	-45.9027
230.000000	78.149	-46.0194
233.000000	78.118	-46.1850
236.000000	78.085	-46.5134
240.000000	78.035	-46.5956
243.000000	78.024	-46.8182
247.000000	77.971	-47.0659
250.000000	77.953	-47.2855
254.000000	77.904	-47.4341
258.000000	77.869	-47.6294
262.000000	77.817	-47.9931
265.000000	77.777	-48.0945
269.000000	77.746	-48.2906
272.000000	77.708	-48.3378
276.000000	77.711	-48.7390
280.000000	77.633	-48.6395
285.000000	77.583	-48.9904
290.000000	77.557	-49.1089
295.000000	77.493	-49.3898
300.000000	77.463	-49.7570
304.000000	77.421	-49.7817
307.000000	77.414	-49.8569
311.000000	77.380	-50.1230
315.000000	77.352	-50.2349
320.000000	77.308	-50.4166
325.000000	77.270	-50.6441
330.000000	77.236	-50.7845
335.000000	77.195	-51.0118
340.000000	77.168	-51.1394
345.000000	77.169	-51.2926
350.000000	77.103	-51.4080
355.000000	77.057	-51.5962
360.000000	77.024	-51.9841
365.000000	77.002	-51.8864
370.000000	76.936	-51.9333
375.000000	76.923	-52.1708
382.000000	76.911	-52.0717
387.000000	76.900	-52.0123
395.000000	76.949	-51.9583
400.000000	76.963	-52.2515
406.000000	76.967	-52.5400
412.000000	76.968	-52.9640
418.000000	76.956	-53.4500
425.000000	76.942	-53.7715
431.000000	76.902	-54.1119
437.000000	76.890	-54.3876
444.000000	76.858	-54.7507
450.000000	76.835	-54.9286
455.000000	76.812	-55.1734
462.000000	76.787	-55.3236
468.000000	76.763	-55.5614
475.000000	76.745	-55.7791
482.000000	76.715	-56.0702
487.000000	76.723	-56.1600
494.000000	76.689	-56.4092
500.000000	76.669	-56.5198
508.000000	76.637	-56.7537
515.000000	76.626	-56.8829
522.000000	76.618	-57.2338
530.000000	76.615	-57.3425
538.000000	76.581	-57.4440
545.000000	76.570	-57.6508
552.000000	76.554	-57.9155
560.000000	76.538	-58.0781
570.000000	76.527	-58.2408
580.000000	76.515	-58.4111
590.000000	76.504	-58.5652
600.000000	76.518	-58.7786
608.000000	76.515	-58.8262
615.000000	76.489	-59.0374
622.000000	76.498	-59.1343
630.000000	76.490	-59.2623
640.000000	76.498	-59.3885
650.000000	76.502	-59.5009
660.000000	76.497	-59.6160
670.000000	76.507	-59.7361
680.000000	76.520	-59.8741
690.000000	76.539	-59.9487
700.000000	76.548	-60.0547
710.000000	76.571	-60.1719
720.000000	76.589	-60.2313
730.000000	76.604	-60.2867
740.000000	76.634	-60.4048
750.000000	76.668	-60.4938
762.000000	76.710	-60.5315
775.000000	76.752	-60.7079
788.000000	76.799	-60.8164
800.000000	76.860	-60.9396
812.000000	76.900	-61.3019
825.000000	76.920	-61.5966
838.000000	76.931	-61.3647
850.000000	76.994	-61.0329
862.000000	77.090	-61.0654
875.000000	77.190	-61.1322
885.000000	77.266	-61.2297
900.000000	77.387	-61.3970
912.000000	77.475	-61.5056
925.000000	77.586	-61.8271
938.000000	77.689	-61.9824
950.000000	77.811	-62.2514
962.000000	77.920	-62.5933
975.000000	78.039	-62.9801
988.000000	78.159	-63.4559
1000.000000	78.263	-64.0294
1015.000000	78.378	-64.6967
1030.000000	78.459	-65.4214
1044.000000	78.525	-65.8839
1060.000000	78.620	-66.2821
1075.000000	78.724	-66.5398
1090.000000	78.857	-66.9258
1106.000000	79.014	-67.5243
1120.000000	79.168	-68.0188
1138.000000	79.330	-68.8667
1150.000000	79.447	-69.4955
1172.000000	79.636	-70.5580
1180.000000	79.716	-71.0195
1206.000000	79.934	-72.5848
1220.000000	80.040	-73.4392
1241.000000	80.188	-74.7836
1250.000000	80.256	-75.3817
1265.000000	80.368	-76.3661
1280.000000	80.475	-77.3252
1315.000000	80.674	-79.6227
1320.000000	80.692	-79.9433
1340.000000	80.811	-81.2675
1360.000000	80.897	-82.5767
1380.000000	80.988	-83.7908
1400.000000	81.076	-85.0532
1430.000000	81.188	-86.8647
1450.000000	81.252	-88.0428
1475.000000	81.328	-89.5555
1500.000000	81.412	-90.8694
1525.000000	81.480	-92.2106
1550.000000	81.534	-93.4120
1575.000000	81.588	-94.5432
1600.000000	81.641	-95.7285
1625.000000	81.698	-96.6399
1650.000000	81.747	-97.5692
1675.000000	81.801	-98.3505
1700.000000	81.857	-99.0348
1725.000000	81.944	-99.5754
1750.000000	82.013	-99.9545
1775.000000	82.142	-100.0160
1800.000000	82.324	-99.9229
1825.000000	82.598	-99.9022
1850.000000	82.952	-100.2654
1875.000000	83.369	-101.4404
1900.000000	83.733	-103.4711
1925.000000	84.027	-106.0321
1950.000000	84.210	-108.6582
1975.000000	84.342	-111.0912
2000.000000	84.414	-113.3265
2030.000000	84.490	-115.7422
2060.000000	84.555	-117.9166
2090.000000	84.616	-119.9099
2120.000000	84.678	-121.8026
2140.000000	84.716	-122.9849
2180.000000	84.809	-125.3062
2200.000000	84.849	-126.3650
2240.000000	84.936	-128.4123
2270.000000	85.013	-129.7983
2300.000000	85.115	-131.0739
2330.000000	85.260	-132.2811
2360.000000	85.441	-133.7422
2400.000000	85.690	-136.2422
2430.000000	85.848	-138.3718
2470.000000	86.006	-141.3597
2500.000000	86.091	-143.6409
2540.000000	86.179	-146.5963
2580.000000	86.240	-149.5271
2620.000000	86.269	-152.3024
2650.000000	86.268	-154.2679
2690.000000	86.271	-156.7085
2720.000000	86.274	-158.4253
2760.000000	86.300	-160.7055
2800.000000	86.329	-163.0785
2850.000000	86.341	-166.1731
2900.000000	86.317	-169.2632
2950.000000	86.252	-172.1925
3000.000000	86.167	-174.9717
3040.000000	86.084	-177.0099
3070.000000	86.019	-178.4787
3110.000000	85.929	179.6860
3150.000000	85.833	177.9671
3200.000000	85.698	175.9457
3250.000000	85.563	174.1211
3300.000000	85.435	172.4107
3350.000000	85.315	170.8213
3400.000000	85.202	169.3500
3450.000000	85.097	167.9228
3500.000000	85.001	166.6336
3550.000000	84.909	165.4464
3600.000000	84.821	164.3174
3650.000000	84.749	163.2770
3700.000000	84.690	162.2808
3750.000000	84.644	161.3066
3820.000000	84.592	159.9688
3870.000000	84.563	159.0162
3950.000000	84.529	157.4712
4000.000000	84.515	156.5427
4060.000000	84.525	155.3973
4120.000000	84.546	154.2335
4180.000000	84.565	153.0434
4250.000000	84.595	151.6342
4310.000000	84.623	150.3795
4370.000000	84.660	149.1161
4440.000000	84.706	147.5764
4500.000000	84.744	146.2126
4550.000000	84.775	145.0237
4620.000000	84.819	143.2555
4680.000000	84.853	141.6879
4750.000000	84.878	139.7023
4820.000000	84.887	137.5797
4870.000000	84.881	136.0001
4940.000000	84.837	133.6736
5000.000000	84.771	131.6006
5080.000000	84.579	128.8479
5150.000000	84.349	126.4834
5220.000000	84.068	124.2892
5300.000000	83.692	122.0836
5380.000000	83.261	120.3239
5450.000000	82.847	119.1016
5520.000000	82.416	118.2894
5600.000000	81.891	117.8068
5700.000000	81.207	118.0028
5800.000000	80.487	119.3511
5900.000000	79.778	122.0522
6000.000000	79.139	126.5479
6080.000000	78.787	131.8911
6150.000000	78.728	137.7274
6220.000000	79.042	143.6884
6300.000000	79.824	148.7181
6400.000000	81.081	150.4329
6500.000000	82.030	148.1383
6600.000000	82.528	144.7329
6700.000000	82.705	142.0204
6800.000000	82.752	140.4045
6900.000000	82.772	139.7114
7000.000000	82.817	139.7101
7100.000000	82.933	140.2225
7200.000000	83.135	140.9809
7300.000000	83.438	141.7369
7400.000000	83.840	142.2178
7500.000000	84.358	142.2673
7620.000000	85.135	141.1691
7750.000000	86.102	137.7079
7880.000000	87.026	130.6825
8000.000000	87.480	120.6738
8120.000000	87.126	109.2207
8250.000000	85.937	99.0321
8380.000000	84.344	93.1675
8500.000000	82.849	91.2122
8620.000000	81.482	91.5529
8750.000000	80.182	93.6167
8850.000000	79.300	95.9982
9000.000000	78.166	100.4579
9120.000000	77.380	104.4675
9250.000000	76.649	109.1404
9380.000000	76.023	113.9633
9500.000000	75.496	118.5427
9620.000000	75.053	123.2838
9750.000000	74.642	128.4138
9880.000000	74.286	133.8383
10000.000000	73.985	138.8007
10150.000000	73.751	145.1938
10300.000000	73.571	151.5985
10440.000000	73.485	157.9910
10600.000000	73.467	165.3037
10750.000000	73.546	172.2299
10900.000000	73.724	179.2324
11060.000000	74.042	-173.3465
11200.000000	74.435	-166.8618
11380.000000	75.111	-158.7672
11500.000000	75.686	-153.7206
11720.000000	77.042	-145.3541
11800.000000	77.629	-142.8763
12060.000000	80.030	-138.2483
12200.000000	81.555	-139.5564
12410.000000	83.601	-150.0681
12500.000000	83.997	-157.7253
12650.000000	83.670	-170.4131
12800.000000	82.495	-179.6320
13150.000000	78.866	177.0247
13200.000000	78.403	177.9922
13400.000000	76.827	-175.8562
13600.000000	75.641	-167.8189
13800.000000	74.783	-158.6423
14000.000000	74.219	-148.9797
14300.000000	73.880	-134.1615
14500.000000	73.982	-124.4283
14750.000000	74.521	-113.0105
15000.000000	75.532	-103.4143
15250.000000	77.116	-97.4222
15500.000000	79.138	-99.7164
15750.000000	80.338	-115.7208
16000.000000	78.612	-134.7086
16250.000000	75.529	-139.9925
16500.000000	72.728	-135.4460
16750.000000	70.411	-126.0740
17000.000000	68.527	-114.0737
17250.000000	66.993	-100.2752
17500.000000	65.792	-85.3243
17750.000000	65.004	-70.4846
18000.000000	64.432	-56.6124
18250.000000	63.752	-43.9896
18500.000000	62.748	-27.4941
18750.000000	62.905	-7.0021
19000.000000	64.107	8.6982
19250.000000	65.696	17.2233
19500.000000	67.241	14.5939
19750.000000	66.792	0.2638
