* Measurement data measured by REW V5.30.9
* Source: Headset (Odo By VECLAN.COM), MICROPHONE (Master Volume), L, volume: 0.250
* Format: 512k Log Swept Sine, 1 sweep at -12.0 dBFS with no timing reference
* Dated: 09 24, 24 8:13:53 AM
* REW Settings:
*  C-weighting compensation: Off
*  Target level: 75.0 dB
* Note: ; 
* Measurement: intuaura splendor ii se R
* Smoothing: None
* Frequency Step: 1/48 octave
* Start Frequency: 1.000 Hz
*
* Freq(Hz)	SPL(dB)	Phase(degrees)
1.000000	59.117	-50.9094
1.015000	60.320	-53.6291
1.030000	61.466	-56.2280
1.044000	62.474	-58.5429
1.060000	63.541	-61.0557
1.075000	64.446	-63.2808
1.090000	65.248	-65.3775
1.106000	65.987	-67.4595
1.120000	66.581	-69.0917
1.138000	67.291	-70.9290
1.150000	67.732	-72.0012
1.172000	68.478	-73.6750
1.180000	68.730	-74.1965
1.206000	69.486	-75.6034
1.220000	69.855	-76.1960
1.241000	70.364	-76.8977
1.250000	70.566	-77.1375
1.265000	70.885	-77.4664
1.280000	71.183	-77.7185
1.315000	71.808	-78.0825
1.320000	71.891	-78.1160
1.340000	72.206	-78.2239
1.360000	72.504	-78.3131
1.380000	72.788	-78.4152
1.400000	73.064	-78.5614
1.430000	73.475	-78.9326
1.450000	73.754	-79.3271
1.475000	74.111	-80.0146
1.500000	74.432	-80.7225
1.525000	74.709	-81.4003
1.550000	74.946	-82.0502
1.575000	75.149	-82.6744
1.600000	75.321	-83.2753
1.625000	75.469	-83.8549
1.650000	75.596	-84.4157
1.675000	75.708	-84.9598
1.700000	75.810	-85.4894
1.725000	75.905	-86.0068
1.750000	76.000	-86.5143
1.775000	76.099	-87.0140
1.800000	76.206	-87.5082
1.825000	76.327	-87.9991
1.850000	76.459	-88.4849
1.875000	76.586	-88.9573
1.900000	76.708	-89.4164
1.925000	76.825	-89.8629
1.950000	76.937	-90.2973
1.975000	77.045	-90.7202
2.000000	77.150	-91.1322
2.030000	77.272	-91.6131
2.060000	77.389	-92.0802
2.090000	77.503	-92.5344
2.120000	77.614	-92.9770
2.140000	77.687	-93.2659
2.180000	77.832	-93.8308
2.200000	77.903	-94.1072
2.240000	78.042	-94.6424
2.270000	78.141	-95.0272
2.300000	78.237	-95.3985
2.330000	78.330	-95.7570
2.360000	78.419	-96.1036
2.400000	78.535	-96.5482
2.430000	78.619	-96.8696
2.470000	78.729	-97.2832
2.500000	78.810	-97.5833
2.540000	78.916	-97.9712
2.580000	79.021	-98.3462
2.620000	79.123	-98.7036
2.650000	79.197	-98.9598
2.690000	79.293	-99.2863
2.720000	79.363	-99.5203
2.760000	79.454	-99.8185
2.800000	79.543	-100.1018
2.850000	79.653	-100.4362
2.900000	79.760	-100.7503
2.950000	79.867	-101.0448
3.000000	79.970	-101.3132
3.040000	80.050	-101.5098
3.070000	80.109	-101.6476
3.110000	80.186	-101.8200
3.150000	80.263	-101.9809
3.200000	80.358	-102.1682
3.250000	80.453	-102.3432
3.300000	80.549	-102.5089
3.350000	80.644	-102.6584
3.400000	80.739	-102.7881
3.450000	80.833	-102.9022
3.500000	80.927	-103.0050
3.550000	81.021	-103.1010
3.600000	81.115	-103.1943
3.650000	81.210	-103.2894
3.700000	81.306	-103.3851
3.750000	81.402	-103.4724
3.820000	81.537	-103.5860
3.870000	81.634	-103.6651
3.950000	81.789	-103.7974
4.000000	81.886	-103.8885
4.060000	82.002	-104.0095
4.120000	82.119	-104.1351
4.180000	82.237	-104.2659
4.250000	82.373	-104.4280
4.310000	82.489	-104.5775
4.370000	82.604	-104.7393
4.440000	82.737	-104.9454
4.500000	82.849	-105.1356
4.550000	82.942	-105.3026
4.620000	83.071	-105.5481
4.680000	83.180	-105.7682
4.750000	83.304	-106.0347
4.820000	83.425	-106.3138
4.870000	83.510	-106.5229
4.940000	83.627	-106.8261
5.000000	83.725	-107.0923
5.080000	83.852	-107.4510
5.150000	83.960	-107.7642
5.220000	84.064	-108.0829
5.300000	84.180	-108.4531
5.380000	84.292	-108.8241
5.450000	84.387	-109.1450
5.520000	84.479	-109.4593
5.600000	84.581	-109.8161
5.700000	84.703	-110.2569
5.800000	84.821	-110.6852
5.900000	84.935	-111.0947
6.000000	85.046	-111.4880
6.080000	85.132	-111.7917
6.150000	85.206	-112.0493
6.220000	85.279	-112.2991
6.300000	85.362	-112.5738
6.400000	85.464	-112.9011
6.500000	85.565	-113.2157
6.600000	85.666	-113.5228
6.700000	85.767	-113.8192
6.800000	85.867	-114.1056
6.900000	85.968	-114.3895
7.000000	86.069	-114.6770
7.100000	86.171	-114.9635
7.200000	86.272	-115.2510
7.300000	86.374	-115.5445
7.400000	86.474	-115.8461
7.500000	86.574	-116.1534
7.620000	86.694	-116.5310
7.750000	86.820	-116.9537
7.880000	86.945	-117.3917
8.000000	87.057	-117.8040
8.120000	87.166	-118.2196
8.250000	87.281	-118.6765
8.380000	87.392	-119.1359
8.500000	87.492	-119.5591
8.620000	87.589	-119.9838
8.750000	87.692	-120.4406
8.850000	87.768	-120.7869
9.000000	87.878	-121.3010
9.120000	87.964	-121.7053
9.250000	88.055	-122.1342
9.380000	88.145	-122.5546
9.500000	88.226	-122.9365
9.620000	88.306	-123.3120
9.750000	88.392	-123.7116
9.880000	88.472	-124.1101
10.000000	88.536	-124.4821
10.150000	88.609	-124.9468
10.300000	88.676	-125.3979
10.440000	88.734	-125.8067
10.600000	88.795	-126.2586
10.750000	88.851	-126.6571
10.900000	88.906	-127.0424
11.060000	88.964	-127.4826
11.200000	89.017	-127.8950
11.380000	89.082	-128.4172
11.500000	89.123	-128.7503
11.720000	89.193	-129.3458
11.800000	89.218	-129.5576
12.060000	89.293	-130.2350
12.200000	89.331	-130.6111
12.410000	89.389	-131.1771
12.500000	89.416	-131.4060
12.650000	89.467	-131.7692
12.800000	89.520	-132.1240
13.150000	89.643	-132.9473
13.200000	89.660	-133.0653
13.400000	89.730	-133.5414
13.600000	89.799	-134.0103
13.800000	89.865	-134.4623
14.000000	89.929	-134.9305
14.300000	90.023	-135.6622
14.500000	90.081	-136.1429
14.750000	90.149	-136.7191
15.000000	90.212	-137.2666
15.250000	90.276	-137.8319
15.500000	90.338	-138.3734
15.750000	90.399	-138.8854
16.000000	90.462	-139.3911
16.250000	90.528	-139.9137
16.500000	90.596	-140.4518
16.750000	90.659	-140.9853
17.000000	90.719	-141.5271
17.250000	90.775	-142.0707
17.500000	90.827	-142.6048
17.750000	90.876	-143.1080
18.000000	90.923	-143.5936
18.250000	90.971	-144.0796
18.500000	91.018	-144.5500
18.750000	91.065	-145.0077
19.000000	91.110	-145.4553
19.250000	91.154	-145.9104
19.500000	91.197	-146.3580
19.750000	91.238	-146.7902
20.000000	91.278	-147.2151
20.299999	91.325	-147.7233
20.600000	91.372	-148.2270
20.900000	91.417	-148.7204
21.200001	91.459	-149.2222
21.400000	91.486	-149.5540
21.799999	91.536	-150.1956
22.000000	91.560	-150.5064
22.400000	91.607	-151.1287
22.700001	91.641	-151.5858
23.000000	91.673	-152.0446
23.299999	91.702	-152.5153
23.600000	91.726	-152.9739
24.000000	91.753	-153.5380
24.299999	91.773	-153.9183
24.700001	91.806	-154.3712
25.000000	91.839	-154.7000
25.400000	91.893	-155.1918
25.799999	91.950	-155.7814
26.200001	91.996	-156.4719
26.500000	92.021	-157.0192
26.900000	92.038	-157.7158
27.200001	92.045	-158.1889
27.600000	92.052	-158.7471
28.000000	92.063	-159.2450
28.500000	92.083	-159.8474
29.000000	92.107	-160.4474
29.500000	92.130	-161.0559
30.000000	92.152	-161.6624
30.400000	92.169	-162.1562
30.700001	92.179	-162.5201
31.100000	92.189	-162.9862
31.500000	92.197	-163.4245
32.000000	92.211	-163.9286
32.500000	92.230	-164.4294
33.000000	92.249	-164.9422
33.500000	92.263	-165.4524
34.000000	92.276	-165.9286
34.500000	92.293	-166.3995
35.000000	92.311	-166.8881
35.500000	92.323	-167.3937
36.000000	92.330	-167.8680
36.500000	92.337	-168.2997
37.000000	92.350	-168.7229
37.500000	92.364	-169.1832
38.200001	92.372	-169.8382
38.700001	92.373	-170.2532
39.500000	92.386	-170.8783
40.000000	92.397	-171.3267
40.599998	92.400	-171.9066
41.200001	92.390	-172.4338
41.799999	92.380	-172.8839
42.500000	92.376	-173.3678
43.099998	92.382	-173.8020
43.700001	92.389	-174.3171
44.400002	92.378	-175.0028
45.000000	92.347	-175.4915
45.500000	92.326	-175.7625
46.200001	92.329	-176.1164
46.799999	92.339	-176.5939
47.500000	92.319	-177.1784
48.200001	92.299	-177.5251
48.700001	92.312	-177.7625
49.400002	92.335	-178.3634
50.000000	92.316	-178.9636
50.799999	92.266	-179.4006
51.500000	92.266	-179.6225
52.200001	92.281	179.9277
53.000000	92.261	179.3358
53.799999	92.233	178.9377
54.500000	92.223	178.5880
55.200001	92.208	178.1840
56.000000	92.183	177.7608
57.000000	92.158	177.2737
58.000000	92.140	176.7842
59.000000	92.120	176.2100
60.000000	92.082	175.6929
60.799999	92.058	175.3301
61.500000	92.034	175.0228
62.200001	92.011	174.7729
63.000000	91.999	174.4935
64.000000	91.979	174.0540
65.000000	91.957	173.6735
66.000000	91.942	173.2391
67.000000	91.915	172.8124
68.000000	91.893	172.4613
69.000000	91.882	172.0644
70.000000	91.861	171.6261
71.000000	91.837	171.2073
72.000000	91.808	170.7658
73.000000	91.771	170.3873
74.000000	91.743	170.0602
75.000000	91.720	169.6651
76.199997	91.687	169.1955
77.500000	91.647	168.7039
78.800003	91.611	168.2726
80.000000	91.579	167.8359
81.199997	91.543	167.4132
82.500000	91.497	166.9831
83.800003	91.455	166.5869
85.000000	91.416	166.2298
86.199997	91.380	165.8496
87.500000	91.338	165.5000
88.500000	91.312	165.1881
90.000000	91.258	164.7539
91.199997	91.217	164.3868
92.500000	91.171	164.0938
93.800003	91.129	163.7125
95.000000	91.090	163.4568
96.199997	91.049	163.1349
97.500000	91.008	162.8612
98.800003	90.943	162.6498
100.000000	90.944	162.5043
101.500000	90.869	161.9177
103.000000	90.823	161.6990
104.400002	90.767	161.4040
106.000000	90.712	161.0005
107.500000	90.659	160.7540
109.000000	90.605	160.4821
110.599998	90.564	160.1739
112.000000	90.507	159.9590
113.800003	90.458	159.6078
115.000000	90.402	159.4398
117.199997	90.333	159.1399
118.000000	90.311	159.0318
120.599998	90.216	158.6472
122.000000	90.174	158.4408
124.099998	90.102	158.1848
125.000000	90.070	158.1188
126.500000	90.037	157.9167
128.000000	89.992	157.7078
131.500000	89.896	157.2907
132.000000	89.882	157.2480
134.000000	89.830	157.0204
136.000000	89.772	156.8830
138.000000	89.715	156.5386
140.000000	89.658	156.3687
143.000000	89.578	156.0869
145.000000	89.514	155.9025
147.500000	89.437	155.6925
150.000000	89.375	155.4276
152.500000	89.311	155.3069
155.000000	89.244	155.1682
157.500000	89.177	155.0297
160.000000	89.110	154.8424
162.500000	89.027	154.6801
165.000000	88.940	154.5741
167.500000	88.859	154.4281
170.000000	88.786	154.3171
172.500000	88.710	154.2588
175.000000	88.629	154.1527
177.500000	88.548	153.9676
180.000000	88.474	153.9905
182.500000	88.388	153.8434
185.000000	88.308	153.8465
187.500000	88.220	153.7231
190.000000	88.160	153.6168
192.500000	88.064	153.5646
195.000000	87.998	153.6187
197.500000	87.915	153.6364
200.000000	87.818	153.4280
203.000000	87.784	153.5263
206.000000	87.716	153.5199
209.000000	87.647	153.5143
212.000000	87.583	153.5511
214.000000	87.536	153.5651
218.000000	87.443	153.5598
220.000000	87.399	153.5551
224.000000	87.316	153.6134
227.000000	87.251	153.6971
230.000000	87.197	153.7269
233.000000	87.122	153.7643
236.000000	87.057	153.8248
240.000000	86.979	153.8375
243.000000	86.920	153.9398
247.000000	86.831	154.0938
250.000000	86.766	154.1643
254.000000	86.691	154.2991
258.000000	86.621	154.4227
262.000000	86.531	154.5078
265.000000	86.479	154.5669
269.000000	86.383	154.8659
272.000000	86.339	154.9139
276.000000	86.252	155.0381
280.000000	86.175	155.2145
285.000000	86.092	155.4706
290.000000	85.990	155.6172
295.000000	85.909	155.8681
300.000000	85.784	156.1079
304.000000	85.760	156.3563
307.000000	85.702	156.4706
311.000000	85.634	156.6501
315.000000	85.569	156.8566
320.000000	85.489	157.1442
325.000000	85.419	157.4084
330.000000	85.337	157.6474
335.000000	85.269	157.9095
340.000000	85.193	158.2153
345.000000	85.120	158.4927
350.000000	85.068	158.8454
355.000000	84.978	159.1189
360.000000	84.910	159.4041
365.000000	84.845	159.7354
370.000000	84.789	160.0391
375.000000	84.714	160.3290
382.000000	84.629	160.7853
387.000000	84.585	161.2478
395.000000	84.481	161.7035
400.000000	84.459	161.7487
406.000000	84.361	162.3584
412.000000	84.295	162.7420
418.000000	84.247	163.1874
425.000000	84.169	163.7054
431.000000	84.111	164.0874
437.000000	84.049	164.5049
444.000000	83.992	164.9510
450.000000	83.918	165.4906
455.000000	83.877	165.6760
462.000000	83.822	166.2198
468.000000	83.768	166.6206
475.000000	83.718	167.0820
482.000000	83.653	167.6653
487.000000	83.614	167.9500
494.000000	83.562	168.5418
500.000000	83.520	168.9917
508.000000	83.451	169.5309
515.000000	83.404	170.0483
522.000000	83.354	170.5226
530.000000	83.300	171.1258
538.000000	83.251	171.7874
545.000000	83.204	172.2920
552.000000	83.158	172.7505
560.000000	83.107	173.3976
570.000000	83.053	174.1573
580.000000	83.000	174.9468
590.000000	82.955	175.7073
600.000000	82.901	176.4807
608.000000	82.877	177.1031
615.000000	82.837	177.6584
622.000000	82.812	178.1854
630.000000	82.785	178.7969
640.000000	82.744	179.5839
650.000000	82.729	-179.6816
660.000000	82.681	-178.7883
670.000000	82.657	-178.0298
680.000000	82.626	-177.2393
690.000000	82.600	-176.4528
700.000000	82.606	-175.4976
710.000000	82.556	-174.8389
720.000000	82.540	-173.9790
730.000000	82.527	-173.1665
740.000000	82.518	-172.3885
750.000000	82.525	-171.4370
762.000000	82.509	-170.5751
775.000000	82.502	-169.5224
788.000000	82.512	-168.3994
800.000000	82.504	-167.4656
812.000000	82.530	-166.4242
825.000000	82.546	-165.3872
838.000000	82.562	-164.3401
850.000000	82.613	-163.4769
862.000000	82.622	-162.4281
875.000000	82.659	-161.4001
885.000000	82.691	-160.5942
900.000000	82.754	-159.4720
912.000000	82.799	-158.5552
925.000000	82.860	-157.6107
938.000000	82.926	-156.7220
950.000000	82.958	-156.0062
962.000000	83.056	-155.2145
975.000000	83.144	-154.5674
988.000000	83.213	-154.0808
1000.000000	83.226	-153.6945
1015.000000	83.182	-152.3922
1030.000000	83.284	-150.6908
1044.000000	83.427	-149.7021
1060.000000	83.570	-148.8340
1075.000000	83.695	-148.2152
1090.000000	83.810	-147.6227
1106.000000	83.905	-147.0875
1120.000000	83.969	-146.5438
1138.000000	84.060	-145.6393
1150.000000	84.142	-144.9142
1172.000000	84.294	-143.9246
1180.000000	84.352	-143.6473
1206.000000	84.541	-142.8168
1220.000000	84.638	-142.3997
1241.000000	84.780	-141.7905
1250.000000	84.829	-141.6504
1265.000000	84.929	-141.1834
1280.000000	85.024	-140.7696
1315.000000	85.234	-139.9016
1320.000000	85.262	-139.7638
1340.000000	85.377	-139.2539
1360.000000	85.486	-138.6979
1380.000000	85.597	-138.2465
1400.000000	85.701	-137.7034
1430.000000	85.860	-136.9281
1450.000000	85.969	-136.3782
1475.000000	86.095	-135.7587
1500.000000	86.222	-135.0833
1525.000000	86.357	-134.4323
1550.000000	86.492	-133.7256
1575.000000	86.616	-133.0234
1600.000000	86.751	-132.3027
1625.000000	86.881	-131.5216
1650.000000	87.010	-130.7414
1675.000000	87.144	-129.8930
1700.000000	87.276	-128.9615
1725.000000	87.414	-127.9516
1750.000000	87.565	-126.7629
1775.000000	87.734	-125.4900
1800.000000	87.933	-123.9450
1825.000000	88.205	-122.3115
1850.000000	88.548	-120.6223
1875.000000	89.002	-119.1934
1900.000000	89.552	-118.4609
1925.000000	90.118	-118.9372
1950.000000	90.581	-120.2857
1975.000000	90.937	-121.9625
2000.000000	91.179	-123.6098
2030.000000	91.393	-125.2051
2060.000000	91.573	-126.4728
2090.000000	91.746	-127.4342
2120.000000	91.911	-128.2576
2140.000000	92.032	-128.7277
2180.000000	92.270	-129.6063
2200.000000	92.392	-130.0152
2240.000000	92.643	-130.7841
2270.000000	92.846	-131.3362
2300.000000	93.064	-131.9102
2330.000000	93.304	-132.6082
2360.000000	93.550	-133.5171
2400.000000	93.871	-135.0527
2430.000000	94.086	-136.4245
2470.000000	94.340	-138.4096
2500.000000	94.498	-139.9868
2540.000000	94.685	-142.0970
2580.000000	94.843	-144.2334
2620.000000	94.969	-146.4579
2650.000000	95.029	-148.1134
2690.000000	95.077	-150.2454
2720.000000	95.092	-151.7217
2760.000000	95.103	-153.5904
2800.000000	95.111	-155.4056
2850.000000	95.086	-157.7283
2900.000000	95.011	-159.9522
2950.000000	94.896	-161.9387
3000.000000	94.752	-163.6768
3040.000000	94.621	-164.8631
3070.000000	94.518	-165.6399
3110.000000	94.379	-166.5214
3150.000000	94.233	-167.2563
3200.000000	94.038	-167.9385
3250.000000	93.847	-168.4472
3300.000000	93.671	-168.7321
3350.000000	93.503	-168.8621
3400.000000	93.353	-168.8403
3450.000000	93.213	-168.7467
3500.000000	93.092	-168.4804
3550.000000	92.988	-168.1237
3600.000000	92.905	-167.6848
3650.000000	92.844	-167.2313
3700.000000	92.803	-166.7332
3750.000000	92.775	-166.2421
3820.000000	92.764	-165.5662
3870.000000	92.772	-165.0755
3950.000000	92.816	-164.2486
4000.000000	92.863	-163.7644
4060.000000	92.963	-163.2010
4120.000000	93.082	-162.6991
4180.000000	93.229	-162.3303
4250.000000	93.429	-161.9796
4310.000000	93.620	-161.8577
4370.000000	93.840	-161.8710
4440.000000	94.110	-162.1388
4500.000000	94.372	-162.6201
4550.000000	94.596	-163.2238
4620.000000	94.918	-164.4255
4680.000000	95.197	-165.8537
4750.000000	95.510	-167.9881
4820.000000	95.788	-170.6818
4870.000000	95.954	-172.9398
4940.000000	96.120	-176.5602
5000.000000	96.183	-179.9697
5080.000000	96.086	175.1960
5150.000000	95.855	170.9121
5220.000000	95.500	166.8506
5300.000000	94.943	162.7110
5380.000000	94.263	159.3341
5450.000000	93.586	157.1099
5520.000000	92.845	155.6297
5600.000000	91.933	154.8704
5700.000000	90.650	155.9206
5800.000000	89.822	163.7621
5900.000000	89.282	163.7714
6000.000000	88.346	169.9330
6080.000000	88.034	177.3203
6150.000000	88.211	-175.9987
6220.000000	88.777	-170.6758
6300.000000	89.667	-167.8636
6400.000000	90.657	-168.6882
6500.000000	91.191	-171.4913
6600.000000	91.356	-174.0318
6700.000000	91.354	-175.4962
6800.000000	91.314	-176.0165
6900.000000	91.311	-175.7757
7000.000000	91.381	-175.0285
7100.000000	91.526	-174.1572
7200.000000	91.792	-173.2955
7300.000000	92.157	-172.6365
7400.000000	92.632	-172.4705
7500.000000	93.219	-172.9807
7620.000000	94.049	-175.0523
7750.000000	95.051	-179.9199
7880.000000	95.949	171.3444
8000.000000	96.336	159.7468
8120.000000	95.881	146.8856
8250.000000	94.566	135.1076
8380.000000	92.824	127.6031
8500.000000	91.159	124.1652
8620.000000	89.587	123.2090
8750.000000	88.043	124.1125
8850.000000	86.973	125.7576
9000.000000	85.552	129.2850
9120.000000	84.546	132.9174
9250.000000	83.607	137.2764
9380.000000	82.798	141.9947
9500.000000	82.168	146.6563
9620.000000	81.663	151.2512
9750.000000	81.209	156.2991
9880.000000	80.849	161.1934
10000.000000	80.608	165.4276
10150.000000	80.417	170.4844
10300.000000	80.271	175.4661
10440.000000	80.158	179.6687
10600.000000	80.103	-175.4098
10750.000000	80.095	-170.6588
10900.000000	80.168	-165.8646
11060.000000	80.345	-160.8059
11200.000000	80.581	-156.3626
11380.000000	81.051	-150.9508
11500.000000	81.456	-147.4618
11720.000000	82.449	-142.0275
11800.000000	82.908	-140.4788
12060.000000	84.724	-137.4785
12200.000000	85.972	-138.4686
12410.000000	87.892	-145.5211
12500.000000	88.594	-151.0300
12650.000000	89.332	-163.1402
12800.000000	89.184	-177.6228
13150.000000	85.902	161.7595
13200.000000	85.372	160.8610
13400.000000	83.451	160.2855
13600.000000	81.899	162.8419
13800.000000	80.699	167.1892
14000.000000	79.794	172.4949
14300.000000	78.985	-178.5322
14500.000000	78.783	-172.3113
14750.000000	78.970	-164.8327
15000.000000	79.683	-158.3048
15250.000000	81.016	-154.4656
15500.000000	83.015	-157.4084
15750.000000	84.884	-172.8152
16000.000000	84.318	159.8273
16250.000000	81.312	144.3737
16500.000000	78.314	141.7031
16750.000000	75.858	145.1555
17000.000000	73.867	151.9142
17250.000000	72.314	159.7768
17500.000000	71.157	168.6098
17750.000000	70.253	177.3531
18000.000000	69.603	-178.1171
18250.000000	68.918	-162.5073
18500.000000	68.960	-150.9391
18750.000000	69.596	-140.5901
19000.000000	70.814	-134.3150
19250.000000	72.303	-132.3552
19500.000000	74.122	-136.5941
19750.000000	75.686	-153.6150
