* Measurement data measured by REW V5.30.9
* Source: Microphone (Realtek USB2.0 Audio), MICROPHONE (Master Volume), L, volume: 0.250
* Format: 512k Log Swept Sine, 1 sweep at -12.0 dBFS with no timing reference
* Dated: 06 22, 24 11:41:49 PM
* REW Settings:
*  C-weighting compensation: Off
*  Target level: 75.0 dB
* Note: ; 
* Measurement: titan s2 R
* Smoothing: None
* Frequency Step: 1/48 octave
* Start Frequency: 1.000 Hz
*
* Freq(Hz)	SPL(dB)	Phase(degrees)
1.000000	49.165	-58.4749
1.015000	48.918	-59.1090
1.030000	48.657	-59.9406
1.044000	48.403	-60.9118
1.060000	48.101	-62.2125
1.075000	47.806	-63.5783
1.090000	47.500	-65.0478
1.106000	47.164	-66.6875
1.120000	46.862	-68.1488
1.138000	46.464	-70.0131
1.150000	46.192	-71.2178
1.172000	45.684	-73.2757
1.180000	45.496	-73.9572
1.206000	44.875	-75.8344
1.220000	44.536	-76.5821
1.241000	44.022	-77.2759
1.250000	43.801	-77.3943
1.265000	43.430	-77.3232
1.280000	43.058	-76.8844
1.315000	42.189	-74.2212
1.320000	42.066	-73.6332
1.340000	41.573	-70.7072
1.360000	41.064	-66.6868
1.380000	40.486	-61.3039
1.400000	39.850	-54.7137
1.430000	38.816	-42.9528
1.450000	38.094	-34.1204
1.475000	37.180	-22.2762
1.500000	36.276	-9.8623
1.525000	35.410	2.7747
1.550000	34.610	15.2883
1.575000	33.901	27.3321
1.600000	33.311	38.5594
1.625000	32.867	48.6238
1.650000	32.596	57.1787
1.675000	32.524	63.8777
1.700000	32.685	68.6285
1.725000	33.093	72.0402
1.750000	33.713	74.2954
1.775000	34.510	75.5409
1.800000	35.449	75.9235
1.825000	36.493	75.5898
1.850000	37.608	74.6866
1.875000	38.756	73.3606
1.900000	39.903	71.7586
1.925000	41.013	70.0273
1.950000	42.051	68.3135
1.975000	42.979	66.7638
2.000000	43.764	65.5250
2.030000	44.478	64.5793
2.060000	45.049	63.6045
2.090000	45.522	62.4326
2.120000	45.909	61.0917
2.140000	46.127	60.1179
2.180000	46.482	58.0159
2.200000	46.628	56.9045
2.240000	46.874	54.6026
2.270000	47.035	52.8398
2.300000	47.189	51.0773
2.330000	47.351	49.3431
2.360000	47.533	47.6639
2.400000	47.758	45.4177
2.430000	47.898	43.6927
2.470000	48.052	41.3465
2.500000	48.146	39.5574
2.540000	48.250	37.1403
2.580000	48.336	34.6959
2.620000	48.410	32.2336
2.650000	48.463	30.3808
2.690000	48.535	27.9101
2.720000	48.586	26.0343
2.760000	48.637	23.4620
2.800000	48.672	20.8371
2.850000	48.699	17.5300
2.900000	48.717	14.2520
2.950000	48.732	11.0646
3.000000	48.755	8.0299
3.040000	48.783	5.7428
3.070000	48.806	4.0268
3.110000	48.836	1.7208
3.150000	48.866	-0.5559
3.200000	48.906	-3.2773
3.250000	48.947	-5.7607
3.300000	48.992	-7.8995
3.350000	49.041	-9.5871
3.400000	49.095	-10.8184
3.450000	49.151	-11.7904
3.500000	49.211	-12.4500
3.550000	49.273	-12.7273
3.600000	49.341	-12.5526
3.650000	49.413	-11.8561
3.700000	49.490	-10.5680
3.750000	49.560	-8.6177
3.820000	49.638	-4.8574
3.870000	49.699	-1.5644
3.950000	49.847	4.4950
4.000000	49.994	8.6288
4.060000	50.245	13.8563
4.120000	50.552	19.8976
4.180000	50.911	26.5636
4.250000	51.401	34.5878
4.310000	51.886	41.2123
4.370000	52.438	47.1737
4.440000	53.193	53.3795
4.500000	53.937	58.4111
4.550000	54.600	62.3355
4.620000	55.556	67.3167
4.680000	56.366	71.0149
4.750000	57.274	74.5357
4.820000	58.195	77.1879
4.870000	58.855	78.6497
4.940000	59.768	80.2402
5.000000	60.525	81.3119
5.080000	61.480	82.4835
5.150000	62.277	83.0458
5.220000	63.043	83.2195
5.300000	63.881	83.1080
5.380000	64.679	82.8506
5.450000	65.342	82.5023
5.520000	65.973	81.9423
5.600000	66.657	81.1357
5.700000	67.467	80.0366
5.800000	68.229	78.9118
5.900000	68.936	77.6624
6.000000	69.601	76.3831
6.080000	70.107	75.4019
6.150000	70.528	74.5567
6.220000	70.929	73.7164
6.300000	71.367	72.7732
6.400000	71.891	71.6386
6.500000	72.385	70.5600
6.600000	72.851	69.5247
6.700000	73.296	68.5227
6.800000	73.722	67.5477
6.900000	74.127	66.6047
7.000000	74.515	65.6917
7.100000	74.891	64.8066
7.200000	75.253	63.9535
7.300000	75.602	63.1272
7.400000	75.942	62.3193
7.500000	76.274	61.5239
7.620000	76.660	60.5940
7.750000	77.066	59.6339
7.880000	77.461	58.7268
8.000000	77.815	57.9344
8.120000	78.161	57.1885
8.250000	78.527	56.4332
8.380000	78.883	55.7300
8.500000	79.204	55.1266
8.620000	79.517	54.5675
8.750000	79.850	54.0064
8.850000	80.101	53.6090
9.000000	80.471	53.0623
9.120000	80.762	52.6477
9.250000	81.073	52.2232
9.380000	81.380	51.8200
9.500000	81.662	51.4619
9.620000	81.942	51.1207
9.750000	82.243	50.7536
9.880000	82.544	50.3836
10.000000	82.820	50.0406
10.150000	83.163	49.5934
10.300000	83.504	49.1256
10.440000	83.819	48.6755
10.600000	84.174	48.1462
10.750000	84.502	47.6363
10.900000	84.824	47.1123
11.060000	85.159	46.5427
11.200000	85.445	46.0430
11.380000	85.804	45.3997
11.500000	86.036	44.9849
11.720000	86.450	44.2513
11.800000	86.597	43.9976
12.060000	87.062	43.2213
12.200000	87.305	42.8361
12.410000	87.663	42.3035
12.500000	87.815	42.0980
12.650000	88.065	41.7878
12.800000	88.313	41.5013
13.150000	88.872	40.8999
13.200000	88.919	40.8149
13.400000	89.046	40.4803
13.600000	89.126	40.1709
13.800000	89.179	39.8657
14.000000	89.245	39.5313
14.300000	89.357	38.9292
14.500000	89.432	38.4699
14.750000	89.511	37.8686
15.000000	89.582	37.2100
15.250000	89.644	36.5081
15.500000	89.697	35.7977
15.750000	89.729	35.1609
16.000000	89.759	34.5777
16.250000	89.794	34.0345
16.500000	89.837	33.5222
16.750000	89.878	33.0501
17.000000	89.926	32.5451
17.250000	89.981	31.9823
17.500000	90.036	31.3539
17.750000	90.075	30.6988
18.000000	90.105	30.0246
18.250000	90.128	29.3575
18.500000	90.146	28.7280
18.750000	90.155	28.1803
19.000000	90.168	27.6803
19.250000	90.190	27.2028
19.500000	90.221	26.7224
19.750000	90.253	26.2224
20.000000	90.286	25.6692
20.299999	90.324	24.9368
20.600000	90.351	24.1723
20.900000	90.360	23.4387
21.200001	90.363	22.7572
21.400000	90.364	22.3506
21.799999	90.365	21.6712
22.000000	90.369	21.3687
22.400000	90.396	20.7800
22.700001	90.422	20.3302
23.000000	90.450	19.8439
23.299999	90.478	19.3074
23.600000	90.497	18.7672
24.000000	90.508	18.1300
24.299999	90.517	17.7299
24.700001	90.539	17.3247
25.000000	90.572	17.0447
25.400000	90.641	16.5330
25.799999	90.704	15.7971
26.200001	90.732	14.8836
26.500000	90.719	14.2314
26.900000	90.666	13.6502
27.200001	90.629	13.4778
27.600000	90.622	13.4966
28.000000	90.674	13.4908
28.500000	90.785	12.9592
29.000000	90.842	11.9451
29.500000	90.820	10.9416
30.000000	90.767	10.3420
30.400000	90.745	10.0173
30.700001	90.738	9.7676
31.100000	90.725	9.3830
31.500000	90.702	9.0365
32.000000	90.679	8.8498
32.500000	90.714	8.7131
33.000000	90.780	8.2238
33.500000	90.806	7.3341
34.000000	90.758	6.6487
34.500000	90.724	6.5018
35.000000	90.781	6.4495
35.500000	90.887	5.7028
36.000000	90.898	4.3669
36.500000	90.767	3.3356
37.000000	90.608	3.4217
37.500000	90.605	4.1660
38.200001	90.819	3.9663
38.700001	90.889	2.5913
39.500000	90.683	0.9976
40.000000	90.562	1.2624
40.599998	90.600	1.6604
41.200001	90.687	1.1233
41.799999	90.682	0.2589
42.500000	90.653	-0.2645
43.099998	90.676	-0.8481
43.700001	90.647	-1.7801
44.400002	90.534	-2.2738
45.000000	90.507	-2.2167
45.500000	90.528	-2.4777
46.200001	90.487	-3.1603
46.799999	90.413	-3.2798
47.500000	90.418	-3.2766
48.200001	90.417	-3.9349
48.700001	90.355	-4.3386
49.400002	90.306	-4.4364
50.000000	90.325	-4.8960
50.799999	90.237	-5.9425
51.500000	90.141	-5.9001
52.200001	90.230	-5.9421
53.000000	90.286	-7.5207
53.799999	90.110	-8.4475
54.500000	90.049	-7.9634
55.200001	90.140	-7.8781
56.000000	90.187	-8.5911
57.000000	90.131	-8.9872
58.000000	90.124	-9.0464
59.000000	90.111	-9.4860
60.000000	90.040	-9.9541
60.799999	89.984	-10.2154
61.500000	89.950	-10.5007
62.200001	89.911	-10.9194
63.000000	89.838	-11.3646
64.000000	89.760	-11.4648
65.000000	89.756	-11.5096
66.000000	89.771	-11.6422
67.000000	89.827	-11.9888
68.000000	89.826	-12.8825
69.000000	89.752	-13.5188
70.000000	89.684	-14.0315
71.000000	89.607	-14.5442
72.000000	89.533	-14.8962
73.000000	89.486	-15.1105
74.000000	89.469	-15.4578
75.000000	89.423	-15.8195
76.199997	89.386	-16.0623
77.500000	89.307	-16.3142
78.800003	89.273	-16.4890
80.000000	89.187	-16.7509
81.199997	89.150	-17.0168
82.500000	89.046	-17.2250
83.800003	89.035	-17.5476
85.000000	88.939	-17.7810
86.199997	88.937	-18.0228
87.500000	88.838	-18.4629
88.500000	88.813	-18.4955
90.000000	88.749	-19.0892
91.199997	88.662	-19.1967
92.500000	88.638	-19.2510
93.800003	88.589	-19.7069
95.000000	88.505	-19.9567
96.199997	88.461	-19.8841
97.500000	88.421	-20.4125
98.800003	88.349	-20.2891
100.000000	88.346	-20.6083
101.500000	88.280	-21.0617
103.000000	88.204	-21.5052
104.400002	88.019	-21.7474
106.000000	88.087	-21.4422
107.500000	87.887	-21.7762
109.000000	87.899	-21.4586
110.599998	87.751	-20.5315
112.000000	87.864	-20.3081
113.800003	87.969	-21.8551
115.000000	87.720	-21.6704
117.199997	87.701	-22.7249
118.000000	87.650	-21.4252
120.599998	87.684	-20.8306
122.000000	87.454	-22.2259
124.099998	87.237	-22.7095
125.000000	87.279	-22.0075
126.500000	87.314	-23.7171
128.000000	87.386	-21.8469
131.500000	87.302	-21.0257
132.000000	87.412	-20.7164
134.000000	87.228	-22.4076
136.000000	87.302	-22.5179
138.000000	87.216	-23.4109
140.000000	87.132	-22.9624
143.000000	87.169	-23.1664
145.000000	86.975	-23.6437
147.500000	87.062	-23.4281
150.000000	86.912	-24.2919
152.500000	86.914	-23.9994
155.000000	86.849	-24.6354
157.500000	86.699	-24.6796
160.000000	86.616	-24.1536
162.500000	86.540	-24.2237
165.000000	86.464	-24.2600
167.500000	86.388	-24.2506
170.000000	86.330	-23.9176
172.500000	86.193	-24.0600
175.000000	86.126	-24.1881
177.500000	86.083	-24.2680
180.000000	86.023	-24.0718
182.500000	85.879	-23.9926
185.000000	85.766	-24.3601
187.500000	85.722	-24.6547
190.000000	85.677	-24.3506
192.500000	85.577	-24.1863
195.000000	85.487	-24.1573
197.500000	85.410	-23.9962
200.000000	85.328	-23.8247
203.000000	85.231	-23.6437
206.000000	85.121	-23.1763
209.000000	85.070	-22.4433
212.000000	85.079	-21.5124
214.000000	85.066	-21.1932
218.000000	85.221	-20.8686
220.000000	85.207	-20.9357
224.000000	85.213	-21.4116
227.000000	85.191	-21.7304
230.000000	85.144	-22.1222
233.000000	85.070	-22.1182
236.000000	85.040	-22.0587
240.000000	85.014	-22.2058
243.000000	84.928	-22.3417
247.000000	84.850	-22.3179
250.000000	84.801	-22.3004
254.000000	84.716	-22.0744
258.000000	84.636	-21.9071
262.000000	84.559	-21.7045
265.000000	84.497	-21.5888
269.000000	84.426	-21.6159
272.000000	84.386	-21.4846
276.000000	84.319	-21.2252
280.000000	84.257	-21.0996
285.000000	84.181	-20.8529
290.000000	84.110	-20.6885
295.000000	84.052	-20.4049
300.000000	83.994	-20.3825
304.000000	83.938	-19.9357
307.000000	83.896	-19.8936
311.000000	83.849	-19.6623
315.000000	83.801	-19.3883
320.000000	83.741	-19.1851
325.000000	83.685	-18.9451
330.000000	83.632	-18.7130
335.000000	83.580	-18.4007
340.000000	83.523	-18.1513
345.000000	83.479	-17.8729
350.000000	83.423	-17.5757
355.000000	83.388	-17.3375
360.000000	83.341	-17.0645
365.000000	83.284	-16.8244
370.000000	83.243	-16.5670
375.000000	83.195	-16.2681
382.000000	83.126	-15.8782
387.000000	83.087	-15.5713
395.000000	83.029	-15.1936
400.000000	82.983	-14.8563
406.000000	82.944	-14.5724
412.000000	82.908	-14.2012
418.000000	82.874	-13.9007
425.000000	82.823	-13.6421
431.000000	82.757	-13.3092
437.000000	82.729	-12.8379
444.000000	82.681	-12.3671
450.000000	82.649	-12.0422
455.000000	82.642	-11.8857
462.000000	82.629	-11.8468
468.000000	82.579	-11.5273
475.000000	82.542	-11.0995
482.000000	82.486	-10.4179
487.000000	82.449	-10.0641
494.000000	82.375	-9.6345
500.000000	82.341	-9.2981
508.000000	82.280	-8.8232
515.000000	82.246	-8.4908
522.000000	82.224	-8.0411
530.000000	82.190	-7.5587
538.000000	82.157	-7.1068
545.000000	82.149	-6.6639
552.000000	82.118	-6.3573
560.000000	82.087	-5.8827
570.000000	82.064	-5.2953
580.000000	82.024	-4.7318
590.000000	81.984	-4.1478
600.000000	81.953	-3.4671
608.000000	81.926	-3.0460
615.000000	81.900	-2.6928
622.000000	81.891	-2.2059
630.000000	81.874	-1.8028
640.000000	81.844	-1.2356
650.000000	81.821	-0.6309
660.000000	81.786	0.0358
670.000000	81.759	0.6190
680.000000	81.745	1.2056
690.000000	81.737	1.7882
700.000000	81.719	2.4314
710.000000	81.712	3.0345
720.000000	81.701	3.6115
730.000000	81.697	4.2359
740.000000	81.685	4.8909
750.000000	81.684	5.5048
762.000000	81.684	6.2176
775.000000	81.689	7.0437
788.000000	81.693	7.8272
800.000000	81.705	8.5824
812.000000	81.716	9.3560
825.000000	81.721	10.1478
838.000000	81.743	10.9395
850.000000	81.764	11.6602
862.000000	81.780	12.4404
875.000000	81.804	13.1950
885.000000	81.822	13.8372
900.000000	81.859	14.7531
912.000000	81.895	15.5996
925.000000	81.945	16.4456
938.000000	82.003	17.2542
950.000000	82.072	17.9520
962.000000	82.144	18.5806
975.000000	82.211	19.2612
988.000000	82.279	19.8339
1000.000000	82.348	20.4002
1015.000000	82.419	21.0364
1030.000000	82.501	21.6075
1044.000000	82.583	22.1603
1060.000000	82.681	22.7837
1075.000000	82.777	23.2872
1090.000000	82.866	23.8229
1106.000000	82.970	24.3733
1120.000000	83.067	24.8569
1138.000000	83.192	25.3115
1150.000000	83.283	25.5735
1172.000000	83.417	25.9719
1180.000000	83.466	26.0930
1206.000000	83.618	26.4928
1220.000000	83.694	26.6590
1241.000000	83.797	26.9358
1250.000000	83.845	27.0758
1265.000000	83.915	27.2412
1280.000000	83.981	27.4388
1315.000000	84.129	27.8486
1320.000000	84.151	27.9005
1340.000000	84.237	28.1116
1360.000000	84.330	28.3171
1380.000000	84.416	28.5424
1400.000000	84.496	28.7687
1430.000000	84.606	29.1406
1450.000000	84.676	29.3872
1475.000000	84.762	29.7005
1500.000000	84.854	29.9861
1525.000000	84.937	30.3363
1550.000000	85.014	30.6888
1575.000000	85.105	31.0382
1600.000000	85.192	31.3769
1625.000000	85.289	31.7319
1650.000000	85.366	32.0851
1675.000000	85.460	32.4275
1700.000000	85.548	32.7719
1725.000000	85.627	33.1346
1750.000000	85.713	33.5080
1775.000000	85.803	33.8570
1800.000000	85.888	34.2550
1825.000000	85.977	34.6758
1850.000000	86.068	35.0201
1875.000000	86.155	35.5235
1900.000000	86.242	36.0499
1925.000000	86.326	36.5192
1950.000000	86.407	37.1810
1975.000000	86.497	37.9054
2000.000000	86.614	38.9063
2030.000000	86.812	40.0387
2060.000000	87.079	40.9585
2090.000000	87.383	41.4248
2120.000000	87.668	41.3294
2140.000000	87.827	41.1279
2180.000000	88.112	40.7337
2200.000000	88.245	40.5140
2240.000000	88.484	40.1351
2270.000000	88.648	39.9048
2300.000000	88.817	39.7628
2330.000000	88.990	39.5610
2360.000000	89.159	39.4119
2400.000000	89.376	39.0437
2430.000000	89.550	38.7052
2470.000000	89.744	38.2726
2500.000000	89.881	37.9561
2540.000000	90.103	37.5386
2580.000000	90.322	36.9998
2620.000000	90.564	36.3818
2650.000000	90.721	35.7987
2690.000000	90.919	34.9980
2720.000000	91.076	34.2242
2760.000000	91.249	33.4402
2800.000000	91.400	32.3963
2850.000000	91.555	31.4590
2900.000000	91.725	30.1656
2950.000000	91.931	29.2330
3000.000000	92.048	27.6745
3040.000000	92.132	26.8314
3070.000000	92.242	25.8505
3110.000000	92.299	25.0104
3150.000000	92.362	23.5766
3200.000000	92.347	22.5051
3250.000000	92.428	21.2247
3300.000000	92.475	20.7356
3350.000000	92.427	19.5718
3400.000000	92.459	18.0652
3450.000000	92.479	16.8414
3500.000000	92.514	16.5284
3550.000000	92.534	14.9302
3600.000000	92.477	14.8949
3650.000000	92.376	13.2400
3700.000000	92.386	12.0530
3750.000000	92.257	12.2236
3820.000000	92.206	10.8841
3870.000000	92.168	11.0096
3950.000000	92.124	10.2255
4000.000000	91.882	9.5100
4060.000000	91.752	9.5222
4120.000000	91.890	8.5357
4180.000000	91.825	8.8593
4250.000000	91.774	8.7019
4310.000000	91.752	9.1542
4370.000000	91.633	7.6935
4440.000000	91.583	7.9940
4500.000000	91.563	8.1161
4550.000000	91.578	7.8531
4620.000000	91.706	8.3550
4680.000000	91.637	7.7194
4750.000000	91.746	8.0844
4820.000000	91.718	6.6624
4870.000000	91.816	6.5307
4940.000000	91.898	6.3585
5000.000000	92.018	5.4191
5080.000000	91.930	4.9432
5150.000000	91.905	4.4459
5220.000000	91.906	3.2525
5300.000000	91.816	2.7012
5380.000000	91.772	1.9040
5450.000000	92.014	0.8213
5520.000000	91.912	-0.5726
5600.000000	91.887	-2.3830
5700.000000	91.582	-4.5953
5800.000000	91.350	-5.4691
5900.000000	91.234	-6.6071
6000.000000	91.094	-8.2050
6080.000000	90.857	-9.2992
6150.000000	90.575	-9.1962
6220.000000	90.416	-10.2571
6300.000000	90.336	-10.2428
6400.000000	90.268	-11.2518
6500.000000	89.989	-12.4922
6600.000000	89.913	-11.3956
6700.000000	89.872	-12.5555
6800.000000	89.852	-12.6674
6900.000000	89.725	-12.0460
7000.000000	89.570	-12.8708
7100.000000	89.688	-13.4523
7200.000000	89.856	-13.6773
7300.000000	89.987	-14.9556
7400.000000	89.976	-14.6811
7500.000000	90.205	-17.3738
7620.000000	90.446	-18.0534
7750.000000	90.502	-21.5341
7880.000000	90.715	-26.1488
8000.000000	91.009	-29.4457
8120.000000	90.596	-34.4069
8250.000000	90.083	-39.4946
8380.000000	89.381	-44.3905
8500.000000	88.748	-48.6128
8620.000000	87.697	-50.9514
8750.000000	86.889	-52.6371
8850.000000	86.057	-53.4150
9000.000000	84.923	-53.9563
9120.000000	84.121	-52.0116
9250.000000	83.208	-50.8009
9380.000000	82.348	-48.3406
9500.000000	81.704	-46.6568
9620.000000	80.850	-43.4837
9750.000000	80.203	-40.5916
9880.000000	79.585	-37.6141
10000.000000	79.156	-33.2557
10150.000000	78.551	-28.3161
10300.000000	77.913	-24.3054
10440.000000	77.630	-18.6367
10600.000000	77.141	-13.0198
10750.000000	76.773	-8.8409
10900.000000	76.583	-2.6718
11060.000000	76.226	2.5447
11200.000000	76.255	7.8323
11380.000000	76.011	14.5643
11500.000000	75.906	17.8598
11720.000000	76.034	26.3312
11800.000000	76.067	28.9278
12060.000000	76.254	37.2304
12200.000000	76.289	42.2183
12410.000000	76.772	49.3973
12500.000000	77.031	52.7373
12650.000000	77.483	56.6309
12800.000000	78.032	60.3070
13150.000000	79.856	68.2756
13200.000000	80.261	69.7800
13400.000000	81.802	71.7488
13600.000000	83.933	71.2963
13800.000000	86.837	64.4645
14000.000000	89.444	44.5184
14300.000000	88.612	-3.5212
14500.000000	85.544	-17.6368
14750.000000	82.602	-22.9587
15000.000000	80.415	-21.4918
15250.000000	78.811	-16.5781
15500.000000	77.859	-11.5562
15750.000000	77.204	-6.0421
16000.000000	76.843	-0.6388
16250.000000	77.399	5.7963
16500.000000	77.919	9.7569
16750.000000	78.918	13.4332
17000.000000	80.088	13.0885
17250.000000	81.225	8.7171
17500.000000	81.608	-1.2026
17750.000000	80.951	-13.9466
18000.000000	79.219	-20.6741
18250.000000	77.119	-23.9659
18500.000000	74.874	-21.6962
18750.000000	73.136	-16.8014
19000.000000	71.277	-12.2846
19250.000000	69.556	-4.9219
19500.000000	68.100	0.1554
19750.000000	66.388	4.4940
