* Measurement data measured by REW V5.30.9
* Source: Microphone (Realtek USB2.0 Audio), MICROPHONE (Master Volume), L, volume: 0.250
* Format: 512k Log Swept Sine, 1 sweep at -12.0 dBFS with no timing reference
* Dated: 03 1, 24 7:53:22 PM
* REW Settings:
*  C-weighting compensation: Off
*  Target level: 75.0 dB
* Note: ; 
* Measurement: trio dddu R
* Smoothing: None
* Frequency Step: 1/48 octave
* Start Frequency: 1.000 Hz
*
* Freq(Hz)	SPL(dB)	Phase(degrees)
1.000000	48.846	-78.5942
1.015000	48.672	-79.4910
1.030000	48.501	-80.4158
1.044000	48.345	-81.3069
1.060000	48.169	-82.3507
1.075000	48.005	-83.3466
1.090000	47.840	-84.3522
1.106000	47.663	-85.4275
1.120000	47.505	-86.3641
1.138000	47.296	-87.5528
1.150000	47.152	-88.3301
1.172000	46.875	-89.7100
1.180000	46.770	-90.1938
1.206000	46.408	-91.6828
1.220000	46.199	-92.4224
1.241000	45.862	-93.4347
1.250000	45.709	-93.8287
1.265000	45.440	-94.4266
1.280000	45.155	-94.9450
1.315000	44.412	-95.8058
1.320000	44.296	-95.8851
1.340000	43.809	-96.0827
1.360000	43.259	-96.1431
1.380000	42.600	-96.2302
1.400000	41.845	-96.3242
1.430000	40.573	-96.4097
1.450000	39.658	-96.3839
1.475000	38.469	-96.2036
1.500000	37.263	-95.8015
1.525000	36.075	-95.1165
1.550000	34.940	-94.0875
1.575000	33.891	-92.6532
1.600000	32.965	-90.7526
1.625000	32.195	-88.3242
1.650000	31.617	-85.3072
1.675000	31.265	-81.6401
1.700000	31.163	-77.0853
1.725000	31.284	-71.2286
1.750000	31.599	-64.2693
1.775000	32.080	-56.4407
1.800000	32.697	-47.9762
1.825000	33.424	-39.1091
1.850000	34.231	-30.0728
1.875000	35.090	-21.1007
1.900000	35.974	-12.4261
1.925000	36.853	-4.2824
1.950000	37.699	3.0972
1.975000	38.485	9.4791
2.000000	39.182	14.6301
2.030000	39.874	18.9106
2.060000	40.521	21.4786
2.090000	41.155	22.6636
2.120000	41.775	22.6897
2.140000	42.179	22.1742
2.180000	42.964	20.1632
2.200000	43.343	18.8006
2.240000	44.073	15.6938
2.270000	44.594	13.2915
2.300000	45.089	11.0764
2.330000	45.557	9.2731
2.360000	45.996	8.0943
2.400000	46.526	6.8151
2.430000	46.884	5.7998
2.470000	47.318	4.3988
2.500000	47.616	3.3310
2.540000	47.983	1.9118
2.580000	48.327	0.5287
2.620000	48.657	-0.7845
2.650000	48.901	-1.7030
2.690000	49.230	-2.8123
2.720000	49.476	-3.5745
2.760000	49.784	-4.5559
2.800000	50.075	-5.4841
2.850000	50.418	-6.5468
2.900000	50.745	-7.4740
2.950000	51.065	-8.2366
3.000000	51.384	-8.8055
3.040000	51.643	-9.1047
3.070000	51.834	-9.2600
3.110000	52.083	-9.3837
3.150000	52.327	-9.4034
3.200000	52.627	-9.2671
3.250000	52.926	-8.9346
3.300000	53.228	-8.3869
3.350000	53.537	-7.6054
3.400000	53.853	-6.5736
3.450000	54.170	-5.2975
3.500000	54.491	-3.7954
3.550000	54.814	-2.0860
3.600000	55.142	-0.1879
3.650000	55.474	1.8804
3.700000	55.812	4.1003
3.750000	56.158	6.5575
3.820000	56.652	10.4582
3.870000	57.010	13.4533
3.950000	57.590	18.3620
4.000000	57.954	21.3649
4.060000	58.390	24.7896
4.120000	58.832	28.2515
4.180000	59.277	31.7336
4.250000	59.797	35.6732
4.310000	60.241	38.8172
4.370000	60.678	41.6285
4.440000	61.182	44.4781
4.500000	61.612	46.6449
4.550000	61.968	48.2667
4.620000	62.460	50.2726
4.680000	62.873	51.7608
4.750000	63.345	53.2212
4.820000	63.808	54.3143
4.870000	64.133	54.9069
4.940000	64.581	55.5395
5.000000	64.956	55.9568
5.080000	65.445	56.4056
5.150000	65.862	56.6013
5.220000	66.269	56.6307
5.300000	66.722	56.5308
5.380000	67.166	56.3667
5.450000	67.544	56.1659
5.520000	67.913	55.8700
5.600000	68.326	55.4618
5.700000	68.829	54.9258
5.800000	69.320	54.4013
5.900000	69.796	53.8389
6.000000	70.261	53.2776
6.080000	70.627	52.8566
6.150000	70.941	52.5066
6.220000	71.251	52.1669
6.300000	71.599	51.7879
6.400000	72.027	51.3214
6.500000	72.446	50.8720
6.600000	72.857	50.4340
6.700000	73.261	49.9849
6.800000	73.656	49.5095
6.900000	74.044	49.0173
7.000000	74.424	48.5118
7.100000	74.797	47.9948
7.200000	75.161	47.4633
7.300000	75.518	46.9211
7.400000	75.869	46.3745
7.500000	76.212	45.8167
7.620000	76.614	45.1385
7.750000	77.040	44.4347
7.880000	77.457	43.7712
8.000000	77.833	43.1915
8.120000	78.202	42.6561
8.250000	78.595	42.1262
8.380000	78.981	41.6407
8.500000	79.332	41.2299
8.620000	79.677	40.8565
8.750000	80.046	40.4798
8.850000	80.325	40.2101
9.000000	80.738	39.8342
9.120000	81.063	39.5356
9.250000	81.409	39.2130
9.380000	81.748	38.8945
9.500000	82.056	38.6038
9.620000	82.359	38.3165
9.750000	82.681	38.0066
9.880000	82.998	37.6970
10.000000	83.285	37.4120
10.150000	83.637	37.0561
10.300000	83.983	36.6994
10.440000	84.300	36.3722
10.600000	84.656	36.0105
10.750000	84.984	35.6756
10.900000	85.306	35.3399
11.060000	85.643	34.9812
11.200000	85.931	34.6619
11.380000	86.292	34.2467
11.500000	86.527	33.9725
11.720000	86.945	33.4744
11.800000	87.092	33.2983
12.060000	87.555	32.7433
12.200000	87.795	32.4639
12.410000	88.143	32.0747
12.500000	88.289	31.9293
12.650000	88.528	31.7156
12.800000	88.763	31.5257
13.150000	89.282	31.1566
13.200000	89.324	31.1059
13.400000	89.423	30.9124
13.600000	89.474	30.7541
13.800000	89.494	30.6151
14.000000	89.526	30.4697
14.300000	89.584	30.2183
14.500000	89.625	30.0453
14.750000	89.669	29.8680
15.000000	89.717	29.6853
15.250000	89.773	29.4708
15.500000	89.838	29.2162
15.750000	89.895	28.9490
16.000000	89.956	28.6121
16.250000	90.017	28.2000
16.500000	90.074	27.7289
16.750000	90.110	27.2686
17.000000	90.135	26.8317
17.250000	90.155	26.4424
17.500000	90.172	26.1253
17.750000	90.183	25.9181
18.000000	90.204	25.7670
18.250000	90.239	25.6344
18.500000	90.286	25.4864
18.750000	90.336	25.3055
19.000000	90.389	25.0548
19.250000	90.442	24.7367
19.500000	90.489	24.3688
19.750000	90.522	24.0056
20.000000	90.549	23.6565
20.299999	90.577	23.2756
20.600000	90.605	22.9564
20.900000	90.632	22.6928
21.200001	90.669	22.4243
21.400000	90.698	22.2302
21.799999	90.749	21.8242
22.000000	90.773	21.6043
22.400000	90.818	21.1540
22.700001	90.846	20.8573
23.000000	90.874	20.5931
23.299999	90.909	20.3313
23.600000	90.947	20.0691
24.000000	90.998	19.7018
24.299999	91.037	19.3822
24.700001	91.080	18.9468
25.000000	91.104	18.6374
25.400000	91.134	18.2504
25.799999	91.157	17.9518
26.200001	91.187	17.7128
26.500000	91.214	17.5604
26.900000	91.256	17.3790
27.200001	91.296	17.2069
27.600000	91.349	16.9200
28.000000	91.394	16.5799
28.500000	91.437	16.1217
29.000000	91.466	15.7945
29.500000	91.514	15.5737
30.000000	91.590	15.2944
30.400000	91.662	14.8592
30.700001	91.706	14.4198
31.100000	91.739	13.7540
31.500000	91.745	13.1200
32.000000	91.732	12.5501
32.500000	91.734	12.1514
33.000000	91.753	11.7857
33.500000	91.780	11.3270
34.000000	91.795	10.8927
34.500000	91.815	10.5333
35.000000	91.845	10.2421
35.500000	91.894	9.8824
36.000000	91.940	9.4512
36.500000	91.978	8.9558
37.000000	92.003	8.5124
37.500000	92.030	8.1388
38.200001	92.081	7.7021
38.700001	92.131	7.3219
39.500000	92.192	6.4993
40.000000	92.203	6.0266
40.599998	92.221	5.6580
41.200001	92.276	5.3050
41.799999	92.345	4.6233
42.500000	92.361	3.5561
43.099998	92.322	2.8960
43.700001	92.299	2.5455
44.400002	92.317	2.1132
45.000000	92.330	1.5726
45.500000	92.326	1.1248
46.200001	92.322	0.6302
46.799999	92.335	0.1943
47.500000	92.347	-0.4263
48.200001	92.341	-1.0345
48.700001	92.337	-1.4134
49.400002	92.339	-1.9175
50.000000	92.345	-2.3844
50.799999	92.348	-3.0863
51.500000	92.336	-3.7210
52.200001	92.311	-4.2604
53.000000	92.293	-4.7463
53.799999	92.299	-5.2876
54.500000	92.297	-5.8473
55.200001	92.285	-6.3613
56.000000	92.281	-6.9020
57.000000	92.275	-7.6445
58.000000	92.259	-8.3202
59.000000	92.242	-8.9721
60.000000	92.218	-9.6116
60.799999	92.191	-10.1202
61.500000	92.167	-10.5149
62.200001	92.151	-10.9386
63.000000	92.119	-11.5812
64.000000	92.034	-12.0856
65.000000	92.038	-12.2894
66.000000	92.064	-13.2044
67.000000	91.998	-14.0002
68.000000	91.969	-14.4809
69.000000	91.942	-15.1906
70.000000	91.881	-15.7208
71.000000	91.853	-16.1624
72.000000	91.823	-16.7640
73.000000	91.775	-17.3340
74.000000	91.735	-17.8808
75.000000	91.688	-18.4838
76.199997	91.620	-19.0881
77.500000	91.566	-19.6507
78.800003	91.509	-20.3118
80.000000	91.443	-20.8552
81.199997	91.385	-21.3556
82.500000	91.309	-21.9767
83.800003	91.233	-22.3917
85.000000	91.177	-22.8965
86.199997	91.110	-23.3489
87.500000	91.042	-23.8359
88.500000	90.989	-24.1876
90.000000	90.901	-24.6925
91.199997	90.842	-25.0298
92.500000	90.774	-25.4325
93.800003	90.716	-25.8507
95.000000	90.659	-26.2635
96.199997	90.603	-26.7132
97.500000	90.536	-27.1032
98.800003	90.484	-27.5425
100.000000	90.413	-27.9367
101.500000	90.331	-28.3840
103.000000	90.249	-28.8994
104.400002	90.165	-29.3955
106.000000	90.088	-29.8934
107.500000	90.008	-30.2792
109.000000	89.922	-30.6417
110.599998	89.797	-31.0085
112.000000	89.698	-31.3236
113.800003	89.576	-31.9541
115.000000	89.557	-32.5429
117.199997	89.493	-32.6564
118.000000	89.367	-32.7627
120.599998	89.544	-34.2065
122.000000	89.103	-32.8893
124.099998	88.912	-33.3711
125.000000	88.873	-33.6453
126.500000	88.754	-33.7229
128.000000	88.637	-34.5716
131.500000	88.492	-34.6090
132.000000	88.455	-34.4937
134.000000	88.299	-34.8981
136.000000	88.201	-35.2333
138.000000	88.079	-35.3193
140.000000	87.974	-35.2793
143.000000	87.766	-35.3244
145.000000	87.653	-35.4798
147.500000	87.505	-35.4464
150.000000	87.358	-35.3908
152.500000	87.220	-35.2907
155.000000	87.081	-35.2743
157.500000	86.951	-35.1776
160.000000	86.798	-35.0041
162.500000	86.670	-34.9802
165.000000	86.512	-34.7097
167.500000	86.373	-34.5657
170.000000	86.244	-34.2688
172.500000	86.103	-34.0025
175.000000	85.957	-33.6402
177.500000	85.822	-33.3122
180.000000	85.697	-32.8730
182.500000	85.565	-32.4730
185.000000	85.442	-32.0482
187.500000	85.326	-31.5118
190.000000	85.227	-31.0938
192.500000	85.142	-30.5075
195.000000	85.061	-30.2429
197.500000	84.970	-29.7886
200.000000	84.882	-29.3909
203.000000	84.784	-28.9971
206.000000	84.698	-28.4897
209.000000	84.608	-28.0171
212.000000	84.527	-27.4865
214.000000	84.474	-27.1699
218.000000	84.377	-26.3215
220.000000	84.329	-26.0089
224.000000	84.239	-25.2351
227.000000	84.176	-24.6963
230.000000	84.116	-24.0563
233.000000	84.052	-23.5752
236.000000	84.005	-22.9020
240.000000	83.965	-22.2105
243.000000	83.916	-21.6783
247.000000	83.865	-20.9867
250.000000	83.828	-20.4293
254.000000	83.780	-19.7461
258.000000	83.721	-19.1152
262.000000	83.704	-18.4093
265.000000	83.666	-17.8862
269.000000	83.635	-17.2862
272.000000	83.611	-16.6702
276.000000	83.589	-16.1107
280.000000	83.567	-15.4845
285.000000	83.551	-14.7430
290.000000	83.536	-13.9789
295.000000	83.530	-13.1486
300.000000	83.526	-12.5823
304.000000	83.558	-12.0219
307.000000	83.557	-11.7124
311.000000	83.556	-11.3922
315.000000	83.596	-10.9114
320.000000	83.570	-10.6835
325.000000	83.571	-10.0776
330.000000	83.579	-9.6717
335.000000	83.575	-9.3015
340.000000	83.576	-8.9103
345.000000	83.577	-8.5130
350.000000	83.574	-8.1437
355.000000	83.575	-7.7697
360.000000	83.582	-7.4258
365.000000	83.572	-7.1072
370.000000	83.577	-6.7664
375.000000	83.573	-6.4194
382.000000	83.574	-6.0076
387.000000	83.578	-5.7328
395.000000	83.575	-5.1707
400.000000	83.570	-4.8809
406.000000	83.576	-4.6139
412.000000	83.568	-4.2547
418.000000	83.566	-3.9292
425.000000	83.564	-3.6167
431.000000	83.561	-3.2548
437.000000	83.556	-2.9255
444.000000	83.549	-2.5852
450.000000	83.553	-2.1294
455.000000	83.588	-2.2425
462.000000	83.559	-1.7137
468.000000	83.540	-1.4441
475.000000	83.536	-1.1023
482.000000	83.535	-0.7729
487.000000	83.532	-0.5135
494.000000	83.524	-0.2129
500.000000	83.508	0.0960
508.000000	83.514	0.4339
515.000000	83.508	0.7844
522.000000	83.493	1.1048
530.000000	83.494	1.5080
538.000000	83.481	1.8639
545.000000	83.473	2.2233
552.000000	83.474	2.5274
560.000000	83.464	2.9214
570.000000	83.450	3.4020
580.000000	83.444	3.9435
590.000000	83.426	4.4307
600.000000	83.419	4.8727
608.000000	83.419	5.3183
615.000000	83.406	5.6727
622.000000	83.405	5.9965
630.000000	83.404	6.4392
640.000000	83.401	6.9410
650.000000	83.400	7.4545
660.000000	83.406	7.9949
670.000000	83.396	8.4983
680.000000	83.399	9.0905
690.000000	83.403	9.6285
700.000000	83.407	10.1548
710.000000	83.414	10.7380
720.000000	83.424	11.2798
730.000000	83.432	11.8426
740.000000	83.446	12.4651
750.000000	83.458	13.0159
762.000000	83.486	13.7400
775.000000	83.516	14.4636
788.000000	83.534	15.2761
800.000000	83.571	15.9682
812.000000	83.605	16.6665
825.000000	83.647	17.4173
838.000000	83.692	18.1035
850.000000	83.734	18.7464
862.000000	83.773	19.3938
875.000000	83.834	20.2429
885.000000	83.906	20.7738
900.000000	83.998	21.3059
912.000000	84.052	21.6571
925.000000	84.092	22.0579
938.000000	84.113	22.4649
950.000000	84.101	22.9740
962.000000	84.104	23.7658
975.000000	84.135	24.8555
988.000000	84.203	25.8593
1000.000000	84.294	26.7067
1015.000000	84.420	27.6239
1030.000000	84.554	28.4689
1044.000000	84.680	29.1051
1060.000000	84.836	29.8033
1075.000000	84.975	30.3235
1090.000000	85.113	30.8020
1106.000000	85.268	31.2334
1120.000000	85.388	31.5902
1138.000000	85.546	31.9294
1150.000000	85.649	32.1359
1172.000000	85.832	32.4736
1180.000000	85.899	32.5715
1206.000000	86.104	32.8499
1220.000000	86.208	32.9369
1241.000000	86.358	33.1107
1250.000000	86.419	33.1160
1265.000000	86.526	33.2111
1280.000000	86.624	33.2593
1315.000000	86.845	33.3701
1320.000000	86.874	33.4094
1340.000000	86.990	33.4649
1360.000000	87.100	33.5240
1380.000000	87.216	33.5943
1400.000000	87.316	33.6957
1430.000000	87.473	33.8278
1450.000000	87.581	33.9473
1475.000000	87.713	34.0704
1500.000000	87.845	34.1191
1525.000000	87.968	34.2003
1550.000000	88.084	34.3084
1575.000000	88.206	34.4488
1600.000000	88.322	34.5827
1625.000000	88.440	34.6914
1650.000000	88.559	34.8097
1675.000000	88.682	34.9502
1700.000000	88.795	35.1182
1725.000000	88.914	35.2748
1750.000000	89.029	35.3964
1775.000000	89.147	35.5194
1800.000000	89.272	35.6518
1825.000000	89.394	35.7925
1850.000000	89.519	35.8868
1875.000000	89.648	35.9861
1900.000000	89.778	36.0873
1925.000000	89.910	36.1497
1950.000000	90.044	36.2000
1975.000000	90.179	36.2170
2000.000000	90.313	36.2514
2030.000000	90.483	36.2042
2060.000000	90.654	36.1718
2090.000000	90.821	36.0953
2120.000000	90.985	36.0447
2140.000000	91.096	35.9443
2180.000000	91.315	35.7288
2200.000000	91.419	35.5818
2240.000000	91.641	35.2932
2270.000000	91.798	35.0133
2300.000000	91.957	34.7243
2330.000000	92.117	34.3069
2360.000000	92.279	33.9141
2400.000000	92.478	33.3946
2430.000000	92.631	32.9306
2470.000000	92.835	32.2385
2500.000000	92.978	31.6955
2540.000000	93.184	30.8447
2580.000000	93.371	29.8537
2620.000000	93.538	28.8532
2650.000000	93.637	28.0622
2690.000000	93.764	27.1110
2720.000000	93.874	26.3041
2760.000000	94.007	25.5000
2800.000000	94.158	24.3158
2850.000000	94.293	22.9198
2900.000000	94.388	21.0022
2950.000000	94.478	19.5613
3000.000000	94.468	17.7598
3040.000000	94.444	16.7840
3070.000000	94.471	15.8025
3110.000000	94.424	14.9243
3150.000000	94.377	13.5853
3200.000000	94.222	12.6452
3250.000000	94.160	11.6089
3300.000000	94.089	11.4051
3350.000000	93.917	10.5598
3400.000000	93.806	9.4910
3450.000000	93.695	8.8372
3500.000000	93.615	9.3459
3550.000000	93.542	8.5862
3600.000000	93.433	9.3562
3650.000000	93.307	8.4318
3700.000000	93.284	7.8942
3750.000000	93.126	8.6502
3820.000000	93.047	8.0340
3870.000000	92.978	8.6781
3950.000000	92.905	8.6729
4000.000000	92.642	8.4634
4060.000000	92.489	8.9881
4120.000000	92.609	8.4620
4180.000000	92.530	9.2364
4250.000000	92.456	9.6386
4310.000000	92.423	10.5011
4370.000000	92.285	9.3261
4440.000000	92.201	9.8605
4500.000000	92.139	10.1667
4550.000000	92.124	10.0962
4620.000000	92.164	10.9329
4680.000000	92.024	10.6827
4750.000000	92.042	11.5265
4820.000000	91.925	10.6298
4870.000000	91.966	10.9132
4940.000000	91.968	11.3423
5000.000000	92.020	10.9683
5080.000000	91.835	11.3792
5150.000000	91.757	11.6221
5220.000000	91.701	11.1706
5300.000000	91.539	11.3822
5380.000000	91.365	11.3759
5450.000000	91.496	11.8355
5520.000000	91.378	12.0597
5600.000000	91.399	11.7874
5700.000000	91.171	11.2503
5800.000000	91.038	11.9054
5900.000000	91.048	12.1957
6000.000000	91.044	11.8690
6080.000000	90.891	11.7960
6150.000000	90.740	12.5016
6220.000000	90.710	12.1595
6300.000000	90.807	12.8376
6400.000000	90.956	12.5969
6500.000000	90.891	12.0760
6600.000000	91.039	13.8116
6700.000000	91.254	13.1422
6800.000000	91.506	13.3326
6900.000000	91.657	14.0923
7000.000000	91.785	13.3081
7100.000000	92.208	12.5565
7200.000000	92.663	12.0613
7300.000000	93.111	10.1545
7400.000000	93.435	9.5527
7500.000000	93.984	5.7949
7620.000000	94.578	3.3288
7750.000000	94.972	-2.7234
7880.000000	95.382	-10.3829
8000.000000	95.710	-16.6080
8120.000000	95.184	-24.0931
8250.000000	94.446	-30.9467
8380.000000	93.494	-36.4590
8500.000000	92.666	-40.4499
8620.000000	91.510	-42.1770
8750.000000	90.661	-42.9356
8850.000000	89.827	-42.9310
9000.000000	88.755	-42.4295
9120.000000	88.047	-39.7688
9250.000000	87.263	-37.8923
9380.000000	86.533	-34.9814
9500.000000	86.007	-33.0659
9620.000000	85.296	-29.4898
9750.000000	84.797	-26.5110
9880.000000	84.322	-23.3918
10000.000000	84.026	-19.1733
10150.000000	83.615	-14.2867
10300.000000	83.166	-10.5684
10440.000000	83.057	-5.5030
10600.000000	82.763	-0.7839
10750.000000	82.565	2.3779
10900.000000	82.523	7.1100
11060.000000	82.307	10.6301
11200.000000	82.457	14.1388
11380.000000	82.296	18.5329
11500.000000	82.253	19.9927
11720.000000	82.526	24.5445
11800.000000	82.605	25.6391
12060.000000	82.906	26.9929
12200.000000	82.953	27.2954
12410.000000	83.150	26.4846
12500.000000	83.218	26.2144
12650.000000	83.271	24.0360
12800.000000	83.325	21.2631
13150.000000	83.250	13.7866
13200.000000	83.282	13.3050
13400.000000	83.060	8.0602
13600.000000	82.802	3.3920
13800.000000	82.668	-0.7939
14000.000000	82.253	-3.9490
14300.000000	82.247	-8.1531
14500.000000	82.202	-9.1875
14750.000000	82.696	-12.0868
15000.000000	83.080	-15.8222
15250.000000	83.241	-20.8299
15500.000000	82.946	-28.2864
15750.000000	81.809	-34.7873
16000.000000	80.117	-37.8931
16250.000000	78.872	-35.0870
16500.000000	77.312	-30.3547
16750.000000	76.047	-21.9665
17000.000000	74.915	-12.5199
17250.000000	73.949	-1.3409
17500.000000	72.968	10.6152
17750.000000	72.340	22.3313
18000.000000	71.740	35.9472
18250.000000	71.244	47.2996
18500.000000	70.689	60.6969
18750.000000	70.484	73.3739
19000.000000	70.118	84.4009
19250.000000	69.641	95.8803
19500.000000	69.446	105.2202
19750.000000	68.730	110.9667
