* Measurement data measured by REW V5.31.3
* Source: Headset (Odo By VECLAN.COM), MICROPHONE (Master Volume), L, volume: 0.720. Timing signal peak level -12.9 dBFS, measurement signal peak level -12.6 dBFS
* Format: 2M Log Swept Sine, 1 sweep at -20.4 dBFS using an acoustic timing reference
* Dated: 11 17, 24 10:48:30 AM
* REW Settings:
*  C-weighting compensation: Off
*  Target level: 85.0 dB
* Note: ; Delay -0.0684 ms (-23 mm, -0.92 in) using estimated IR delay relative to Acoustic reference played from SPEAKER R with no timing offset
* Measurement: Truthear Zero R
* Smoothing: 1/24 octave
* Frequency Step: 96 ppo
* Start Frequency: 0.36621094 Hz
*
* Freq(Hz) SPL(dB) Phase(degrees)
0.366211 74.273 24.4156
0.368865 74.254 24.3515
0.371538 74.228 24.2758
0.374230 74.197 24.1941
0.376942 74.165 24.1092
0.379673 74.133 24.0220
0.382424 74.100 23.9326
0.385196 74.067 23.8413
0.387987 74.034 23.7480
0.390798 74.000 23.6526
0.393630 73.966 23.5552
0.396483 73.932 23.4556
0.399356 73.898 23.3540
0.402250 73.863 23.2502
0.405165 73.829 23.1442
0.408101 73.794 23.0359
0.411058 73.758 22.9254
0.414037 73.723 22.8126
0.417037 73.687 22.6974
0.420059 73.651 22.5799
0.423103 73.615 22.4600
0.426169 73.578 22.3376
0.429257 73.541 22.2127
0.432368 73.504 22.0852
0.435501 73.467 21.9552
0.438656 73.429 21.8226
0.441835 73.391 21.6872
0.445037 73.353 21.5492
0.448262 73.314 21.4084
0.451510 73.275 21.2649
0.454782 73.236 21.1184
0.458077 73.197 20.9691
0.461397 73.158 20.8168
0.464740 73.118 20.6615
0.468108 73.077 20.5031
0.471500 73.037 20.3417
0.474917 72.996 20.1770
0.478358 72.955 20.0092
0.481825 72.914 19.8381
0.485316 72.872 19.6636
0.488833 72.830 19.4857
0.492375 72.788 19.3044
0.495943 72.745 19.1196
0.499537 72.702 18.9312
0.503157 72.659 18.7391
0.506803 72.616 18.5433
0.510475 72.572 18.3437
0.514175 72.528 18.1403
0.517900 72.483 17.9329
0.521653 72.438 17.7215
0.525434 72.393 17.5060
0.529241 72.348 17.2864
0.533076 72.302 17.0625
0.536939 72.256 16.8343
0.540830 72.210 16.6017
0.544749 72.163 16.3645
0.548696 72.116 16.1228
0.552673 72.068 15.8764
0.556677 72.020 15.6252
0.560711 71.972 15.3691
0.564774 71.924 15.1080
0.568867 71.875 14.8638
0.572989 71.826 14.6240
0.577141 71.776 14.3792
0.581324 71.726 14.1292
0.585536 71.676 13.8739
0.589779 71.625 13.6131
0.594053 71.574 13.3468
0.598358 71.523 13.0748
0.602694 71.471 12.7971
0.607061 71.419 12.5133
0.611460 71.367 12.2235
0.615891 71.314 11.9275
0.620354 71.261 11.6251
0.624849 71.207 11.3162
0.629377 71.153 11.0007
0.633938 71.098 10.6782
0.638532 71.044 10.3487
0.643159 70.988 10.0121
0.647819 70.933 9.6681
0.652514 70.877 9.3165
0.657242 70.820 8.9571
0.662005 70.764 8.5898
0.666802 70.706 8.2143
0.671634 70.649 7.8304
0.676501 70.591 7.4379
0.681403 70.532 7.0365
0.686341 70.473 6.6260
0.691314 70.414 6.2061
0.696324 70.354 5.7766
0.701370 70.294 5.3372
0.706452 70.233 4.8877
0.711571 70.172 4.4275
0.716728 70.111 3.9566
0.721921 70.049 3.4743
0.727153 69.987 2.9799
0.732422 69.925 2.4723
0.737729 69.864 1.9493
0.743075 69.801 1.4086
0.748460 69.737 0.8485
0.753883 69.671 0.2678
0.759346 69.602 -0.3348
0.764849 69.532 -0.9604
0.770391 69.459 -1.5060
0.775974 69.383 -2.0488
0.781597 69.306 -2.6172
0.787261 69.227 -3.2128
0.792966 69.146 -3.8369
0.798712 69.063 -4.4910
0.804500 68.979 -5.1769
0.810329 68.893 -5.8962
0.816201 68.805 -6.6506
0.822116 68.716 -7.4422
0.828073 68.626 -8.2729
0.834074 68.535 -9.1448
0.840118 68.442 -10.0601
0.846206 68.349 -11.0210
0.852338 68.256 -12.0300
0.858514 68.161 -13.0894
0.864735 68.067 -14.2018
0.871001 67.972 -15.3697
0.877313 67.877 -16.5956
0.883670 67.783 -17.8821
0.890074 67.689 -19.2317
0.896524 67.595 -20.6468
0.903020 67.502 -22.1297
0.909564 67.410 -23.6824
0.916155 67.319 -25.3068
0.922794 67.230 -27.0042
0.929481 67.143 -28.7756
0.936216 67.057 -30.6215
0.943000 66.974 -32.5417
0.949834 66.893 -34.5351
0.956717 66.815 -36.6000
0.963649 66.740 -38.7337
0.970632 66.668 -40.9142
0.977666 66.600 -43.1455
0.984750 66.536 -45.4310
0.991886 66.477 -47.7638
0.999074 66.422 -50.1361
1.006314 66.372 -52.5392
1.013606 66.328 -54.9638
1.020951 66.290 -57.4001
1.028349 66.258 -59.8378
1.035801 66.233 -62.2670
1.043307 66.214 -64.6777
1.050867 66.204 -67.0603
1.058482 66.202 -69.4061
1.066152 66.208 -71.7070
1.073878 66.223 -73.9561
1.081660 66.248 -76.1474
1.089498 66.283 -78.2762
1.097393 66.330 -80.3395
1.105345 66.389 -82.3360
1.113355 66.461 -84.2654
1.121423 66.547 -86.1274
1.129549 66.646 -87.9215
1.137734 66.759 -89.6475
1.145979 66.885 -91.3057
1.154283 67.024 -92.8967
1.162647 67.175 -94.4217
1.171072 67.338 -95.8828
1.179558 67.513 -97.2813
1.188106 67.699 -98.6183
1.196715 67.895 -99.8955
1.205387 68.101 -101.1151
1.214122 68.317 -102.2789
1.222920 68.542 -103.3890
1.231782 68.776 -104.4474
1.240708 69.017 -105.4563
1.249699 69.265 -106.4175
1.258754 69.519 -107.3330
1.267876 69.779 -108.2046
1.277063 70.045 -109.0344
1.286318 70.314 -109.8238
1.295639 70.586 -110.5747
1.305027 70.861 -111.2887
1.314484 71.137 -111.9673
1.324009 71.414 -112.6119
1.333604 71.691 -113.2240
1.343268 71.966 -113.8049
1.353002 72.238 -114.3558
1.362806 72.507 -114.8779
1.372681 72.772 -115.3677
1.382628 73.030 -115.8285
1.392647 73.281 -116.2637
1.402739 73.523 -116.6742
1.412904 73.755 -117.0608
1.423142 73.977 -117.4245
1.433455 74.185 -117.7661
1.443843 74.380 -118.0863
1.454305 74.561 -118.3859
1.464844 74.727 -118.6661
1.475459 74.881 -118.9279
1.486150 75.025 -119.1725
1.496920 75.160 -119.4008
1.507767 75.288 -119.6137
1.518693 75.408 -119.8115
1.529698 75.522 -119.9951
1.540783 75.628 -120.1648
1.551948 75.728 -120.3211
1.563194 75.821 -120.4646
1.574521 75.909 -120.5908
1.585931 75.991 -120.7033
1.597423 76.067 -120.8043
1.608999 76.139 -120.8940
1.620658 76.206 -120.9728
1.632402 76.268 -121.0410
1.644232 76.327 -121.0991
1.656146 76.383 -121.1473
1.668147 76.435 -121.1860
1.680235 76.485 -121.2153
1.692411 76.533 -121.2356
1.704675 76.579 -121.2472
1.717028 76.625 -121.2503
1.729470 76.670 -121.2452
1.742003 76.716 -121.2320
1.754626 76.762 -121.2110
1.767341 76.809 -121.1830
1.780147 76.859 -121.1531
1.793047 76.912 -121.1161
1.806040 76.968 -121.0721
1.819128 77.027 -121.0212
1.832310 77.089 -120.9638
1.845587 77.153 -120.9000
1.858961 77.217 -120.8299
1.872432 77.280 -120.7537
1.886001 77.341 -120.6715
1.899667 77.401 -120.5834
1.913433 77.460 -120.4895
1.927299 77.517 -120.3898
1.941265 77.573 -120.2845
1.955332 77.628 -120.1736
1.969501 77.682 -120.0586
1.983773 77.736 -119.9426
1.998148 77.788 -119.8213
2.012627 77.839 -119.6947
2.027212 77.890 -119.5628
2.041902 77.940 -119.4256
2.056698 77.990 -119.2833
2.071602 78.039 -119.1359
2.086614 78.089 -118.9833
2.101734 78.138 -118.8257
2.116964 78.187 -118.6630
2.132304 78.236 -118.4954
2.147756 78.286 -118.3228
2.163320 78.336 -118.1452
2.178996 78.386 -117.9694
2.194786 78.437 -117.7903
2.210690 78.488 -117.6066
2.226710 78.538 -117.4186
2.242845 78.589 -117.2263
2.259098 78.638 -117.0298
2.275468 78.687 -116.8291
2.291957 78.736 -116.6240
2.308566 78.784 -116.4148
2.325295 78.832 -116.2012
2.342145 78.880 -115.9832
2.359117 78.927 -115.7610
2.376212 78.974 -115.5409
2.393431 79.021 -115.3209
2.410775 79.067 -115.0966
2.428244 79.114 -114.8678
2.445840 79.161 -114.6346
2.463564 79.208 -114.3970
2.481416 79.255 -114.1549
2.499397 79.302 -113.9082
2.517509 79.350 -113.6570
2.535752 79.398 -113.4011
2.554127 79.447 -113.1407
2.572635 79.496 -112.8818
2.591277 79.545 -112.6294
2.610055 79.594 -112.3726
2.628968 79.643 -112.1117
2.648019 79.692 -111.8465
2.667208 79.741 -111.5772
2.686535 79.790 -111.3039
2.706003 79.839 -111.0265
2.725612 79.888 -110.7452
2.745363 79.938 -110.4600
2.765257 79.987 -110.1708
2.785295 80.037 -109.8930
2.805478 80.088 -109.6121
2.825808 80.138 -109.3276
2.846285 80.189 -109.0394
2.866910 80.241 -108.7476
2.887685 80.293 -108.4521
2.908611 80.346 -108.1528
2.929688 80.400 -107.8493
2.950917 80.454 -107.5408
2.972301 80.508 -107.2318
2.993839 80.563 -106.9291
3.015534 80.618 -106.6215
3.037386 80.673 -106.3095
3.059396 80.729 -105.9938
3.081565 80.785 -105.6749
3.103896 80.842 -105.3533
3.126388 80.899 -105.0296
3.149043 80.958 -104.7042
3.171862 81.017 -104.3819
3.194847 81.077 -104.0707
3.217998 81.137 -103.7595
3.241317 81.199 -103.4485
3.264805 81.263 -103.1378
3.288463 81.327 -102.8266
3.312293 81.392 -102.5131
3.336295 81.459 -102.1952
3.360471 81.527 -101.8722
3.384822 81.595 -101.5576
3.409350 81.665 -101.2437
3.434056 81.736 -100.9283
3.458940 81.808 -100.6129
3.484005 81.881 -100.2990
3.509252 81.955 -99.9882
3.534681 82.030 -99.6817
3.560295 82.106 -99.3809
3.586094 82.184 -99.1016
3.612081 82.262 -98.8344
3.638255 82.341 -98.5752
3.664620 82.422 -98.3224
3.691175 82.504 -98.0725
3.717923 82.588 -97.8226
3.744864 82.673 -97.5725
3.772001 82.759 -97.3275
3.799335 82.847 -97.1007
3.826866 82.936 -96.8788
3.854597 83.026 -96.6636
3.882529 83.116 -96.4573
3.910664 83.208 -96.2618
3.939002 83.300 -96.0788
3.967546 83.392 -95.9109
3.996296 83.485 -95.7762
4.025255 83.578 -95.6557
4.054423 83.672 -95.5465
4.083804 83.767 -95.4450
4.113396 83.863 -95.3499
4.143204 83.960 -95.2616
4.173227 84.057 -95.1857
4.203468 84.155 -95.1341
4.233928 84.253 -95.0932
4.264609 84.350 -95.0643
4.295512 84.448 -95.0488
4.326639 84.545 -95.0483
4.357992 84.641 -95.0638
4.389572 84.737 -95.1105
4.421380 84.831 -95.1779
4.453419 84.926 -95.2590
4.485691 85.020 -95.3521
4.518196 85.114 -95.4563
4.550936 85.207 -95.5708
4.583914 85.299 -95.7054
4.617131 85.390 -95.8583
4.650589 85.480 -96.0206
4.684289 85.569 -96.1924
4.718233 85.655 -96.3744
4.752424 85.740 -96.5676
4.786862 85.823 -96.7850
4.821549 85.904 -97.0243
4.856488 85.983 -97.2771
4.891680 86.061 -97.5414
4.927127 86.137 -97.8141
4.962831 86.211 -98.0925
4.998794 86.283 -98.3900
5.035017 86.352 -98.6901
5.071503 86.419 -98.9897
5.108253 86.484 -99.2892
5.145270 86.545 -99.5917
5.182555 86.604 -99.9097
5.220110 86.660 -100.2464
5.257937 86.713 -100.5901
5.296038 86.764 -100.9368
5.334415 86.812 -101.2817
5.373071 86.857 -101.6235
5.412006 86.900 -101.9696
5.451224 86.940 -102.3024
5.490725 86.977 -102.6220
5.530514 87.011 -102.9330
5.570590 87.042 -103.2425
5.610957 87.070 -103.5653
5.651616 87.095 -103.8823
5.692570 87.117 -104.1888
5.733821 87.137 -104.4797
5.775370 87.156 -104.7539
5.817221 87.172 -105.0169
5.859375 87.188 -105.2536
5.901834 87.201 -105.4663
5.944602 87.212 -105.6588
5.987679 87.220 -105.8412
6.031068 87.227 -106.0125
6.074771 87.233 -106.1618
6.118792 87.239 -106.2864
6.163131 87.246 -106.3831
6.207792 87.254 -106.4643
6.252776 87.263 -106.5141
6.298086 87.272 -106.5318
6.343725 87.282 -106.5191
6.389694 87.293 -106.4874
6.435996 87.305 -106.4394
6.482634 87.320 -106.3699
6.529610 87.339 -106.2809
6.576926 87.361 -106.1760
6.624585 87.389 -106.0607
6.672590 87.420 -105.9209
6.720942 87.455 -105.7585
6.769645 87.494 -105.5800
6.818700 87.537 -105.4055
6.868111 87.584 -105.2286
6.917881 87.635 -105.0548
6.968010 87.692 -104.8865
7.018504 87.753 -104.7332
7.069362 87.820 -104.5796
7.120590 87.891 -104.4278
7.172189 87.966 -104.2843
7.224161 88.044 -104.1655
7.276511 88.123 -104.0645
7.329239 88.204 -103.9843
7.382350 88.287 -103.9287
7.435845 88.373 -103.9005
7.489729 88.460 -103.8877
7.544002 88.548 -103.8887
7.598669 88.636 -103.9112
7.653732 88.723 -103.9527
7.709194 88.808 -104.0085
7.765058 88.891 -104.0804
7.821327 88.973 -104.1802
7.878004 89.053 -104.2887
7.935091 89.132 -104.3989
7.992592 89.208 -104.5095
8.050510 89.282 -104.6183
8.108847 89.352 -104.7205
8.167607 89.420 -104.8182
8.226793 89.485 -104.9198
8.286408 89.549 -105.0083
8.346454 89.611 -105.0772
8.406936 89.674 -105.1291
8.467856 89.736 -105.1578
8.529218 89.797 -105.1614
8.591024 89.858 -105.1466
8.653278 89.920 -105.1172
8.715983 89.985 -105.0667
8.779143 90.054 -104.9963
8.842760 90.126 -104.9100
8.906839 90.202 -104.8005
8.971381 90.281 -104.6757
9.036392 90.366 -104.5545
9.101873 90.455 -104.4372
9.167829 90.551 -104.3282
9.234263 90.653 -104.2342
9.301178 90.762 -104.1485
9.368578 90.875 -104.0810
9.436467 90.992 -104.0543
9.504847 91.112 -104.0680
9.573723 91.235 -104.1262
9.643099 91.361 -104.2348
9.712976 91.489 -104.3836
9.783361 91.615 -104.5784
9.854255 91.736 -104.8290
9.925663 91.853 -105.1316
9.997588 91.964 -105.4850
10.070035 92.069 -105.9089
10.143007 92.166 -106.3693
10.216507 92.255 -106.8594
10.290540 92.334 -107.3786
10.365109 92.403 -107.9287
10.440219 92.462 -108.5014
10.515873 92.511 -109.0813
10.592076 92.550 -109.6546
10.668830 92.577 -110.2167
10.746141 92.593 -110.7696
10.824012 92.599 -111.3056
10.902447 92.596 -111.8090
10.981451 92.585 -112.2654
11.061027 92.567 -112.7010
11.141180 92.541 -113.0950
11.221913 92.510 -113.4341
11.303232 92.475 -113.7102
11.385140 92.439 -113.9159
11.467641 92.401 -114.0492
11.550741 92.363 -114.1155
11.634442 92.328 -114.1228
11.718750 92.299 -114.0767
11.803669 92.277 -113.9785
11.889203 92.261 -113.8345
11.975357 92.253 -113.6613
12.062136 92.254 -113.5039
12.149543 92.265 -113.3571
12.237583 92.285 -113.2148
12.326262 92.313 -113.0885
12.415583 92.349 -112.9939
12.505552 92.392 -112.9414
12.596172 92.441 -112.9323
12.687449 92.494 -112.9663
12.779387 92.548 -113.0445
12.871992 92.600 -113.1682
12.965268 92.650 -113.3355
13.059220 92.697 -113.5589
13.153852 92.739 -113.8198
13.249170 92.776 -114.0995
13.345179 92.808 -114.3944
13.441884 92.835 -114.6951
13.539289 92.857 -114.9904
13.637401 92.875 -115.2739
13.736223 92.889 -115.5436
13.835761 92.901 -115.7959
13.936021 92.913 -116.0266
14.037007 92.924 -116.2447
14.138725 92.937 -116.4606
14.241180 92.952 -116.6600
14.344377 92.969 -116.8458
14.448323 92.989 -117.0199
14.553021 93.012 -117.1870
14.658478 93.038 -117.3524
14.764700 93.067 -117.5187
14.871691 93.098 -117.6859
14.979457 93.130 -117.8537
15.088005 93.165 -118.0451
15.197339 93.200 -118.2404
15.307465 93.237 -118.4289
15.418389 93.275 -118.6055
15.530117 93.314 -118.7674
15.642655 93.355 -118.9117
15.756008 93.401 -119.0352
15.870182 93.451 -119.1366
15.985184 93.507 -119.2201
16.101019 93.571 -119.3106
16.217694 93.644 -119.3985
16.335214 93.726 -119.4905
16.453586 93.817 -119.6017
16.572815 93.916 -119.7445
16.692909 94.023 -119.9279
16.813872 94.136 -120.1644
16.935713 94.251 -120.4639
17.058436 94.368 -120.8376
17.182048 94.483 -121.2862
17.306556 94.593 -121.7980
17.431967 94.695 -122.3651
17.558286 94.787 -122.9727
17.685521 94.868 -123.6075
17.813677 94.935 -124.2542
17.942762 94.989 -124.8894
18.072783 95.029 -125.5057
18.203746 95.056 -126.0834
18.335658 95.071 -126.5921
18.468526 95.077 -127.0172
18.602356 95.077 -127.3483
18.737156 95.073 -127.5755
18.872934 95.070 -127.6968
19.009695 95.070 -127.7196
19.147447 95.077 -127.6649
19.286197 95.093 -127.5351
19.425953 95.122 -127.3538
19.566721 95.162 -127.1419
19.708510 95.214 -126.9231
19.851326 95.277 -126.7221
19.995177 95.349 -126.5543
20.140070 95.426 -126.4480
20.286013 95.506 -126.3965
20.433014 95.585 -126.3980
20.581080 95.661 -126.4470
20.730219 95.732 -126.5351
20.880439 95.797 -126.6480
21.031747 95.855 -126.7761
21.184152 95.906 -126.9164
21.337661 95.953 -127.0460
21.492282 95.996 -127.1609
21.648024 96.038 -127.2612
21.804895 96.081 -127.3513
21.962902 96.126 -127.4422
22.122054 96.172 -127.5557
22.282360 96.220 -127.6969
22.443827 96.267 -127.8739
22.606464 96.311 -128.0891
22.770280 96.349 -128.3380
22.935283 96.379 -128.6089
23.101481 96.398 -128.8856
23.268884 96.406 -129.1400
23.437500 96.405 -129.3357
23.607338 96.398 -129.4444
23.778406 96.392 -129.4489
23.950714 96.395 -129.3430
24.124271 96.413 -129.1533
24.299086 96.456 -128.9119
24.475167 96.526 -128.6690
24.652524 96.625 -128.4943
24.831166 96.748 -128.4481
25.011103 96.888 -128.5866
25.192344 97.034 -128.9424
25.374898 97.174 -129.5113
25.558775 97.297 -130.2688
25.743984 97.394 -131.1653
25.930536 97.460 -132.1419
26.118439 97.493 -133.1305
26.307704 97.494 -134.0626
26.498341 97.470 -134.8682
26.690359 97.429 -135.5055
26.883768 97.383 -135.9504
27.078579 97.341 -136.2114
27.274801 97.314 -136.3202
27.472446 97.307 -136.3223
27.671522 97.321 -136.2753
27.872042 97.355 -136.2314
28.074014 97.402 -136.2317
28.277450 97.458 -136.2960
28.482360 97.515 -136.4186
28.688755 97.571 -136.5853
28.896645 97.624 -136.7796
29.106042 97.674 -136.9894
29.316957 97.723 -137.2085
29.529400 97.772 -137.4346
29.743382 97.822 -137.6757
29.958915 97.871 -137.9400
30.176009 97.918 -138.2372
30.394677 97.960 -138.5607
30.614929 97.996 -138.8994
30.836778 98.026 -139.2384
31.060234 98.048 -139.5663
31.285309 98.068 -139.8773
31.512015 98.085 -140.1634
31.740364 98.103 -140.4295
31.970368 98.122 -140.6848
32.202039 98.141 -140.9419
32.435388 98.160 -141.1975
32.670428 98.177 -141.4440
32.907171 98.192 -141.6700
33.145630 98.207 -141.8660
33.385817 98.225 -142.0267
33.627745 98.251 -142.1576
33.871425 98.286 -142.2799
34.116871 98.331 -142.4251
34.364096 98.385 -142.6207
34.613113 98.442 -142.8798
34.863934 98.496 -143.2006
35.116572 98.545 -143.5664
35.371041 98.583 -143.9442
35.627354 98.614 -144.2970
35.885525 98.641 -144.5994
36.145566 98.669 -144.8462
36.407492 98.704 -145.0520
36.671316 98.750 -145.2466
36.937051 98.805 -145.4708
37.204712 98.865 -145.7628
37.474313 98.924 -146.1366
37.745867 98.974 -146.5827
38.019389 99.009 -147.0683
38.294893 99.027 -147.5477
38.572394 99.031 -147.9646
38.851905 99.026 -148.2823
39.133442 99.023 -148.4915
39.417019 99.029 -148.6172
39.702651 99.049 -148.7092
39.990353 99.085 -148.8282
40.280140 99.130 -149.0270
40.572026 99.174 -149.3205
40.866028 99.209 -149.6873
41.162160 99.229 -150.0802
41.460438 99.237 -150.4420
41.760877 99.237 -150.7272
42.063494 99.241 -150.9258
42.368303 99.256 -151.0701
42.675322 99.286 -151.2080
42.984565 99.329 -151.3978
43.296048 99.380 -151.6815
43.609789 99.430 -152.0721
43.925804 99.469 -152.5513
44.244108 99.494 -153.0791
44.564719 99.503 -153.6015
44.887654 99.499 -154.0665
45.212928 99.486 -154.4393
45.540560 99.475 -154.7035
45.870565 99.473 -154.8735
46.202962 99.488 -154.9983
46.537768 99.520 -155.1429
46.875000 99.565 -155.3650
47.214676 99.612 -155.6931
47.556813 99.653 -156.1088
47.901429 99.680 -156.5604
48.248542 99.696 -156.9916
48.598171 99.706 -157.3622
48.950334 99.717 -157.6663
49.305048 99.736 -157.9318
49.662333 99.764 -158.1949
50.022206 99.797 -158.4877
50.384688 99.832 -158.8279
50.749796 99.863 -159.2140
51.117550 99.888 -159.6337
51.487969 99.903 -160.0641
51.861072 99.906 -160.4704
52.236879 99.900 -160.8193
52.615409 99.889 -161.0837
52.996681 99.881 -161.2616
53.380717 99.882 -161.3842
53.767536 99.893 -161.4954
54.157158 99.913 -161.6349
54.549603 99.937 -161.8205
54.944892 99.961 -162.0502
55.343045 99.984 -162.3194
55.744084 100.006 -162.6236
56.148028 100.027 -162.9655
56.554900 100.044 -163.3405
56.964720 100.055 -163.7265
57.377510 100.063 -164.0979
57.793291 100.072 -164.4485
58.212085 100.085 -164.7980
58.633914 100.101 -165.1739
59.058799 100.117 -165.5839
59.486764 100.127 -166.0064
59.917829 100.133 -166.4021
60.352019 100.140 -166.7546
60.789354 100.155 -167.0896
61.229859 100.175 -167.4613
61.673556 100.193 -167.8988
62.120468 100.200 -168.3709
62.570618 100.193 -168.8039
63.024031 100.180 -169.1402
63.480729 100.176 -169.3954
63.940736 100.186 -169.6453
64.404077 100.206 -169.9831
64.870776 100.220 -170.4417
65.340856 100.214 -170.9556
65.814343 100.188 -171.3941
66.291261 100.159 -171.6733
66.771635 100.148 -171.8398
67.255489 100.161 -172.0383
67.742850 100.182 -172.3728
68.233743 100.192 -172.8046
68.728193 100.186 -173.2052
69.226226 100.183 -173.5103
69.727867 100.198 -173.8040
70.233144 100.222 -174.2189
70.742083 100.231 -174.7607
71.254709 100.216 -175.2876
71.771050 100.190 -175.6670
72.291132 100.177 -175.9197
72.814984 100.183 -176.1757
73.342631 100.193 -176.5112
73.874102 100.198 -176.8793
74.409424 100.201 -177.2121
74.948626 100.210 -177.5196
75.491734 100.225 -177.8650
76.038779 100.238 -178.2639
76.589787 100.242 -178.6796
77.144788 100.237 -179.0788
77.703811 100.226 -179.4519
