* Measurement data measured by REW V5.30.9
* Source: Microphone (Realtek USB2.0 Audio), MICROPHONE (Master Volume), L, volume: 0.500
* Format: 512k Log Swept Sine, 1 sweep at -12.0 dBFS with no timing reference
* Dated: 06 8, 24 8:50:21 AM
* REW Settings:
*  C-weighting compensation: Off
*  Target level: 75.0 dB
* Note: ; 
* Measurement: vader DDDU R
* Smoothing: None
* Frequency Step: 1/48 octave
* Start Frequency: 1.000 Hz
*
* Freq(Hz)	SPL(dB)	Phase(degrees)
1.000000	51.047	-35.0745
1.015000	50.860	-34.8924
1.030000	50.663	-34.6986
1.044000	50.468	-34.5118
1.060000	50.236	-34.2859
1.075000	50.009	-34.0568
1.090000	49.774	-33.8057
1.106000	49.517	-33.5078
1.120000	49.287	-33.2169
1.138000	48.987	-32.7945
1.150000	48.785	-32.4785
1.172000	48.411	-31.8182
1.180000	48.276	-31.5495
1.206000	47.837	-30.5585
1.220000	47.604	-29.9434
1.241000	47.262	-28.9026
1.250000	47.118	-28.4102
1.265000	46.884	-27.5233
1.280000	46.658	-26.5496
1.315000	46.166	-23.9104
1.320000	46.100	-23.4887
1.340000	45.852	-21.6823
1.360000	45.621	-19.6436
1.380000	45.390	-17.2941
1.400000	45.158	-14.6647
1.430000	44.817	-10.2768
1.450000	44.597	-7.1095
1.475000	44.333	-2.9435
1.500000	44.087	1.3851
1.525000	43.862	5.8040
1.550000	43.663	10.2409
1.575000	43.494	14.6234
1.600000	43.360	18.8792
1.625000	43.264	22.9360
1.650000	43.212	26.7215
1.675000	43.207	30.1634
1.700000	43.260	33.2755
1.725000	43.380	36.2628
1.750000	43.561	39.1384
1.775000	43.793	41.9020
1.800000	44.065	44.5532
1.825000	44.370	47.0918
1.850000	44.696	49.5174
1.875000	45.035	51.8297
1.900000	45.377	54.0283
1.925000	45.712	56.1129
1.950000	46.031	58.0832
1.975000	46.326	59.9388
2.000000	46.585	61.6794
2.030000	46.840	63.6031
2.060000	47.073	65.2303
2.090000	47.293	66.5732
2.120000	47.501	67.6825
2.140000	47.632	68.3174
2.180000	47.877	69.4037
2.200000	47.991	69.8853
2.240000	48.201	70.8006
2.270000	48.342	71.5045
2.300000	48.468	72.2798
2.330000	48.581	73.1772
2.360000	48.678	74.2441
2.400000	48.773	75.7006
2.430000	48.817	76.7535
2.470000	48.849	78.1527
2.500000	48.856	79.2314
2.540000	48.851	80.7570
2.580000	48.837	82.4371
2.620000	48.822	84.3318
2.650000	48.817	85.9297
2.690000	48.824	88.3441
2.720000	48.828	90.3812
2.760000	48.811	93.3567
2.800000	48.778	96.5907
2.850000	48.736	100.9346
2.900000	48.719	105.5387
2.950000	48.752	110.3230
3.000000	48.864	115.2074
3.040000	49.026	119.1479
3.070000	49.189	122.2373
3.110000	49.449	126.5571
3.150000	49.754	131.0349
3.200000	50.185	136.7354
3.250000	50.658	142.4088
3.300000	51.157	147.9030
3.350000	51.668	153.0658
3.400000	52.194	157.8164
3.450000	52.770	162.2998
3.500000	53.383	166.5717
3.550000	54.012	170.6787
3.600000	54.641	174.6673
3.650000	55.250	178.5841
3.700000	55.822	-177.5245
3.750000	56.362	-173.6552
3.820000	57.096	-168.3472
3.870000	57.603	-164.6546
3.950000	58.376	-158.9598
4.000000	58.833	-155.5580
4.060000	59.352	-151.6505
4.120000	59.839	-147.8593
4.180000	60.296	-144.2086
4.250000	60.796	-140.2007
4.310000	61.198	-137.0440
4.370000	61.579	-134.2026
4.440000	61.993	-131.3203
4.500000	62.320	-129.1778
4.550000	62.575	-127.5942
4.620000	62.909	-125.6405
4.680000	63.177	-124.1686
4.750000	63.472	-122.6752
4.820000	63.739	-121.5366
4.870000	63.914	-120.8976
4.940000	64.144	-120.1650
5.000000	64.332	-119.6150
5.080000	64.575	-118.9020
5.150000	64.768	-118.4048
5.220000	64.948	-118.0154
5.300000	65.150	-117.6353
5.380000	65.360	-117.2497
5.450000	65.549	-116.8904
5.520000	65.736	-116.5464
5.600000	65.956	-116.1760
5.700000	66.259	-115.7535
5.800000	66.601	-115.3488
5.900000	66.974	-114.9554
6.000000	67.376	-114.6854
6.080000	67.718	-114.6296
6.150000	68.037	-114.6671
6.220000	68.373	-114.7839
6.300000	68.767	-115.0437
6.400000	69.260	-115.6075
6.500000	69.761	-116.4587
6.600000	70.269	-117.5602
6.700000	70.765	-118.8750
6.800000	71.238	-120.4044
6.900000	71.699	-122.1805
7.000000	72.138	-124.0969
7.100000	72.546	-126.0553
7.200000	72.924	-128.1339
7.300000	73.275	-130.2630
7.400000	73.597	-132.3135
7.500000	73.886	-134.2997
7.620000	74.194	-136.6105
7.750000	74.495	-138.7603
7.880000	74.753	-140.5104
8.000000	74.971	-141.7620
8.120000	75.201	-142.5317
8.250000	75.447	-142.7974
8.380000	75.728	-142.6245
8.500000	76.055	-142.1068
8.620000	76.430	-141.2115
8.750000	76.905	-140.2438
8.850000	77.332	-139.5597
9.000000	78.050	-138.6095
9.120000	78.652	-138.2482
9.250000	79.343	-138.2761
9.380000	80.041	-138.6831
9.500000	80.655	-139.4194
9.620000	81.256	-140.5105
9.750000	81.864	-141.9354
9.880000	82.416	-143.5831
10.000000	82.881	-145.2897
10.150000	83.390	-147.4424
10.300000	83.818	-149.6652
10.440000	84.153	-151.6114
10.600000	84.454	-153.6280
10.750000	84.675	-155.2362
10.900000	84.846	-156.4451
11.060000	84.985	-157.3145
11.200000	85.101	-157.6338
11.380000	85.239	-157.4869
11.500000	85.360	-157.1240
11.720000	85.634	-155.9002
11.800000	85.760	-155.4374
12.060000	86.271	-153.8412
12.200000	86.587	-153.2389
12.410000	87.107	-152.7073
12.500000	87.325	-152.6553
12.650000	87.690	-152.8083
12.800000	88.033	-153.1820
13.150000	88.696	-154.7843
13.200000	88.743	-155.0592
13.400000	88.826	-156.2298
13.600000	88.808	-157.3008
13.800000	88.716	-158.2541
14.000000	88.607	-159.0209
14.300000	88.435	-159.8723
14.500000	88.327	-160.2688
14.750000	88.201	-160.6075
15.000000	88.099	-160.9493
15.250000	88.020	-161.3647
15.500000	87.955	-161.8765
15.750000	87.885	-162.4278
16.000000	87.821	-163.0168
16.250000	87.770	-163.6321
16.500000	87.732	-164.2591
16.750000	87.698	-164.8649
17.000000	87.679	-165.5067
17.250000	87.673	-166.1987
17.500000	87.676	-166.9388
17.750000	87.672	-167.6787
18.000000	87.669	-168.4087
18.250000	87.670	-169.1081
18.500000	87.676	-169.7554
18.750000	87.682	-170.3228
19.000000	87.698	-170.8552
19.250000	87.725	-171.3766
19.500000	87.758	-171.9048
19.750000	87.785	-172.4330
20.000000	87.810	-172.9696
20.299999	87.834	-173.6029
20.600000	87.847	-174.1751
20.900000	87.850	-174.6465
21.200001	87.857	-175.0456
21.400000	87.865	-175.2831
21.799999	87.884	-175.7293
22.000000	87.897	-175.9789
22.400000	87.922	-176.5662
22.700001	87.929	-177.0547
23.000000	87.925	-177.5639
23.299999	87.913	-178.0798
23.600000	87.894	-178.5599
24.000000	87.865	-179.1216
24.299999	87.851	-179.5327
24.700001	87.838	179.9128
25.000000	87.831	179.4685
25.400000	87.822	178.8196
25.799999	87.805	178.2106
26.200001	87.792	177.6857
26.500000	87.795	177.3529
26.900000	87.817	176.9316
27.200001	87.852	176.5271
27.600000	87.902	175.7986
28.000000	87.924	174.8794
28.500000	87.885	173.6848
29.000000	87.776	172.9489
29.500000	87.673	172.8916
30.000000	87.651	173.2491
30.400000	87.707	173.3911
30.700001	87.767	173.2674
31.100000	87.838	172.7615
31.500000	87.872	172.0002
32.000000	87.849	171.0639
32.500000	87.795	170.3503
33.000000	87.750	169.8518
33.500000	87.730	169.3142
34.000000	87.711	168.6711
34.500000	87.681	167.9783
35.000000	87.639	167.4048
35.500000	87.614	166.9332
36.000000	87.607	166.4955
36.500000	87.615	165.9543
37.000000	87.616	165.3541
37.500000	87.608	164.7421
38.200001	87.581	164.0057
38.700001	87.562	163.5650
39.500000	87.539	162.9046
40.000000	87.525	162.4593
40.599998	87.497	161.8929
41.200001	87.456	161.4046
41.799999	87.423	161.0027
42.500000	87.407	160.4660
43.099998	87.390	159.8558
43.700001	87.355	159.2171
44.400002	87.310	158.6252
45.000000	87.290	158.1494
45.500000	87.278	157.6709
46.200001	87.243	156.9790
46.799999	87.206	156.5023
47.500000	87.177	156.0621
48.200001	87.162	155.5923
48.700001	87.152	155.2285
49.400002	87.140	154.7270
50.000000	87.133	154.2380
50.799999	87.103	153.4682
51.500000	87.051	152.9630
52.200001	87.028	152.6677
53.000000	87.046	152.0219
53.799999	87.011	151.0788
54.500000	86.947	150.5576
55.200001	86.918	150.1645
56.000000	86.883	149.5119
57.000000	86.815	148.9952
58.000000	86.797	148.3543
59.000000	86.706	147.7819
60.000000	86.715	147.6054
60.799999	86.724	146.6904
61.500000	86.639	146.0199
62.200001	86.575	145.8701
63.000000	86.582	145.5115
64.000000	86.550	144.5002
65.000000	86.457	143.8183
66.000000	86.426	143.4733
67.000000	86.444	142.5924
68.000000	86.346	141.5236
69.000000	86.258	141.2894
70.000000	86.237	140.8511
71.000000	86.198	140.4662
72.000000	86.213	139.9364
73.000000	86.166	139.0296
74.000000	86.081	138.4431
75.000000	86.009	138.0078
76.199997	85.968	137.5060
77.500000	85.889	136.5910
78.800003	85.815	136.0868
80.000000	85.756	135.3873
81.199997	85.695	134.9135
82.500000	85.647	134.2614
83.800003	85.587	133.6137
85.000000	85.516	133.0557
86.199997	85.458	132.5732
87.500000	85.380	132.0325
88.500000	85.329	131.6904
90.000000	85.249	131.0994
91.199997	85.175	130.5656
92.500000	85.096	130.2500
93.800003	85.027	129.5196
95.000000	84.904	129.4237
96.199997	84.886	129.3615
97.500000	84.839	129.1087
98.800003	84.837	129.0155
100.000000	84.836	128.6167
101.500000	84.813	128.2802
103.000000	84.801	127.9770
104.400002	84.847	127.4848
106.000000	84.820	126.7385
107.500000	84.818	125.8819
109.000000	84.782	125.0718
110.599998	84.708	124.1646
112.000000	84.657	123.4347
113.800003	84.577	122.8947
115.000000	84.531	122.3157
117.199997	84.417	121.6385
118.000000	84.374	121.4854
120.599998	84.235	120.1798
122.000000	84.273	120.1924
124.099998	84.124	119.1491
125.000000	84.176	119.1296
126.500000	84.086	118.2115
128.000000	84.032	118.0537
131.500000	83.901	116.9184
132.000000	83.876	116.7853
134.000000	83.837	116.2600
136.000000	83.753	115.7876
138.000000	83.722	115.3624
140.000000	83.620	114.8237
143.000000	83.557	114.1603
145.000000	83.515	113.7552
147.500000	83.432	113.0966
150.000000	83.376	112.5120
152.500000	83.329	111.9110
155.000000	83.276	111.3018
157.500000	83.190	110.7104
160.000000	83.132	110.1189
162.500000	83.030	109.5178
165.000000	82.975	109.1988
167.500000	82.872	108.6389
170.000000	82.772	108.2202
172.500000	82.694	107.7073
175.000000	82.604	107.2393
177.500000	82.535	106.8991
180.000000	82.402	106.6749
182.500000	82.297	106.2999
185.000000	82.223	106.0200
187.500000	82.135	105.8906
190.000000	82.050	105.8293
192.500000	81.963	106.1262
195.000000	81.901	106.6056
197.500000	81.915	107.1309
200.000000	82.007	107.5702
203.000000	82.191	107.2812
206.000000	82.305	106.3323
209.000000	82.356	105.1186
212.000000	82.354	104.0028
214.000000	82.340	103.3609
218.000000	82.296	102.2083
220.000000	82.264	101.6076
224.000000	82.179	100.7796
227.000000	82.140	100.1811
230.000000	82.085	99.6180
233.000000	82.040	99.0927
236.000000	81.982	98.6560
240.000000	81.914	98.0931
243.000000	81.878	97.6624
247.000000	81.837	97.1864
250.000000	81.799	96.8130
254.000000	81.739	96.2557
258.000000	81.697	95.8411
262.000000	81.656	95.4236
265.000000	81.621	95.0982
269.000000	81.568	94.6802
272.000000	81.549	94.3846
276.000000	81.511	94.0094
280.000000	81.479	93.6722
285.000000	81.423	93.1186
290.000000	81.398	92.7537
295.000000	81.358	92.3483
300.000000	81.322	91.8647
304.000000	81.294	91.5861
307.000000	81.277	91.3639
311.000000	81.260	91.0777
315.000000	81.245	90.8304
320.000000	81.215	90.4946
325.000000	81.188	90.1073
330.000000	81.171	89.8592
335.000000	81.154	89.5490
340.000000	81.145	89.1909
345.000000	81.130	88.9004
350.000000	81.120	88.6629
355.000000	81.101	88.4038
360.000000	81.095	88.2694
365.000000	81.085	87.8780
370.000000	81.069	87.6476
375.000000	81.077	87.4035
382.000000	81.064	87.1178
387.000000	81.077	86.8413
395.000000	81.076	86.5543
400.000000	81.079	86.3807
406.000000	81.090	86.0860
412.000000	81.090	85.8606
418.000000	81.107	85.6194
425.000000	81.101	85.4632
431.000000	81.121	85.2533
437.000000	81.122	85.0214
444.000000	81.137	84.8242
450.000000	81.152	84.6857
455.000000	81.165	84.6072
462.000000	81.179	84.3402
468.000000	81.193	84.1524
475.000000	81.217	84.0153
482.000000	81.231	83.9224
487.000000	81.259	83.8007
494.000000	81.277	83.6227
500.000000	81.304	83.5517
508.000000	81.330	83.4000
515.000000	81.359	83.3706
522.000000	81.390	83.2260
530.000000	81.427	83.0978
538.000000	81.453	82.9979
545.000000	81.488	82.9150
552.000000	81.526	82.8417
560.000000	81.557	82.6939
570.000000	81.613	82.6937
580.000000	81.655	82.6638
590.000000	81.713	82.5348
600.000000	81.773	82.4983
608.000000	81.812	82.3687
615.000000	81.844	82.4314
622.000000	81.884	82.4572
630.000000	81.945	82.4519
640.000000	82.006	82.3761
650.000000	82.065	82.3519
660.000000	82.123	82.4362
670.000000	82.188	82.4317
680.000000	82.267	82.4252
690.000000	82.330	82.4758
700.000000	82.409	82.4898
710.000000	82.475	82.5364
720.000000	82.550	82.5746
730.000000	82.635	82.5610
740.000000	82.719	82.6129
750.000000	82.796	82.6401
762.000000	82.902	82.5742
775.000000	83.027	82.3941
788.000000	83.135	81.9643
800.000000	83.105	81.2098
812.000000	83.080	81.9784
825.000000	83.117	82.0335
838.000000	83.165	83.0982
850.000000	83.300	83.8045
862.000000	83.436	84.0456
875.000000	83.578	84.3213
885.000000	83.676	84.5492
900.000000	83.825	84.8421
912.000000	83.964	85.0561
925.000000	84.115	85.1783
938.000000	84.261	85.2853
950.000000	84.361	85.4545
962.000000	84.499	85.6762
975.000000	84.667	85.8059
988.000000	84.833	85.8567
1000.000000	84.980	85.9321
1015.000000	85.155	85.9165
1030.000000	85.337	85.8863
1044.000000	85.511	85.7804
1060.000000	85.697	85.6555
1075.000000	85.866	85.5058
1090.000000	86.040	85.3241
1106.000000	86.226	85.0451
1120.000000	86.378	84.8444
1138.000000	86.560	84.5235
1150.000000	86.689	84.3020
1172.000000	86.916	83.7777
1180.000000	87.004	83.5824
1206.000000	87.242	82.9874
1220.000000	87.371	82.6797
1241.000000	87.556	82.1261
1250.000000	87.634	81.8794
1265.000000	87.761	81.4961
1280.000000	87.881	81.0986
1315.000000	88.151	80.2648
1320.000000	88.186	80.1631
1340.000000	88.343	79.6811
1360.000000	88.480	79.1996
1380.000000	88.610	78.8109
1400.000000	88.745	78.3977
1430.000000	88.944	77.8136
1450.000000	89.069	77.4622
1475.000000	89.219	77.0812
1500.000000	89.380	76.6860
1525.000000	89.540	76.3136
1550.000000	89.684	76.0036
1575.000000	89.838	75.7211
1600.000000	89.999	75.3990
1625.000000	90.156	75.1549
1650.000000	90.301	74.8992
1675.000000	90.459	74.6794
1700.000000	90.627	74.4099
1725.000000	90.789	74.1753
1750.000000	90.947	73.9362
1775.000000	91.103	73.7305
1800.000000	91.272	73.4871
1825.000000	91.444	73.2213
1850.000000	91.612	72.9664
1875.000000	91.778	72.7320
1900.000000	91.947	72.4706
1925.000000	92.126	72.1395
1950.000000	92.305	71.8304
1975.000000	92.481	71.5142
2000.000000	92.649	71.1907
2030.000000	92.870	70.7534
2060.000000	93.094	70.2402
2090.000000	93.316	69.7234
2120.000000	93.525	69.2193
2140.000000	93.667	68.8465
2180.000000	93.963	67.9998
2200.000000	94.109	67.5435
2240.000000	94.394	66.6025
2270.000000	94.596	65.8532
2300.000000	94.806	65.0593
2330.000000	95.014	64.1908
2360.000000	95.214	63.3330
2400.000000	95.464	62.1768
2430.000000	95.644	61.2770
2470.000000	95.893	60.0604
2500.000000	96.088	59.1795
2540.000000	96.370	57.9656
2580.000000	96.658	56.3838
2620.000000	96.946	54.5210
2650.000000	97.125	52.8916
2690.000000	97.311	50.7633
2720.000000	97.443	49.0310
2760.000000	97.573	47.0222
2800.000000	97.695	44.7304
2850.000000	97.770	42.2682
2900.000000	97.799	39.5957
2950.000000	97.835	37.5904
3000.000000	97.803	35.3753
3040.000000	97.778	34.1928
3070.000000	97.822	33.0492
3110.000000	97.810	31.8421
3150.000000	97.814	29.9478
3200.000000	97.718	28.2308
3250.000000	97.687	26.3130
3300.000000	97.627	25.1644
3350.000000	97.459	23.4013
3400.000000	97.350	21.3388
3450.000000	97.208	19.7666
3500.000000	97.080	19.3361
3550.000000	96.941	17.7026
3600.000000	96.767	17.6898
3650.000000	96.559	16.1664
3700.000000	96.450	15.1679
3750.000000	96.216	15.5479
3820.000000	96.053	14.4715
3870.000000	95.943	14.7849
3950.000000	95.770	14.3311
4000.000000	95.456	13.8259
4060.000000	95.246	14.0882
4120.000000	95.308	13.4036
4180.000000	95.168	13.9964
4250.000000	95.040	14.2007
4310.000000	94.968	14.8891
4370.000000	94.796	13.6435
4440.000000	94.660	14.0362
4500.000000	94.549	14.2455
4550.000000	94.494	14.1508
4620.000000	94.512	14.8816
4680.000000	94.334	14.5968
4750.000000	94.303	15.4608
4820.000000	94.144	14.6765
4870.000000	94.165	14.9746
4940.000000	94.133	15.5918
5000.000000	94.166	15.3798
5080.000000	93.960	15.9989
5150.000000	93.876	16.4360
5220.000000	93.823	16.2177
5300.000000	93.675	16.6366
5380.000000	93.496	16.8525
5450.000000	93.638	17.4749
5520.000000	93.545	17.8578
5600.000000	93.593	17.7500
5700.000000	93.386	17.4583
5800.000000	93.297	18.3327
5900.000000	93.349	18.7940
6000.000000	93.399	18.6014
6080.000000	93.281	18.5794
6150.000000	93.151	19.3449
6220.000000	93.150	19.0770
6300.000000	93.281	19.8008
6400.000000	93.466	19.5715
6500.000000	93.434	19.1007
6600.000000	93.628	20.8538
6700.000000	93.889	20.1300
6800.000000	94.173	20.2892
6900.000000	94.358	20.9370
7000.000000	94.519	20.0058
7100.000000	94.963	19.1088
7200.000000	95.433	18.4816
7300.000000	95.878	16.4786
7400.000000	96.207	15.8407
7500.000000	96.780	12.0547
7620.000000	97.395	9.6810
7750.000000	97.835	3.7616
7880.000000	98.339	-3.8438
8000.000000	98.806	-10.3657
8120.000000	98.406	-18.4690
8250.000000	97.756	-26.4650
8380.000000	96.866	-33.3937
8500.000000	96.030	-38.7379
8620.000000	94.804	-41.6563
8750.000000	93.848	-43.5442
8850.000000	92.928	-44.2370
9000.000000	91.721	-44.5908
9120.000000	90.886	-42.4237
9250.000000	89.943	-40.8127
9380.000000	89.070	-37.9450
9500.000000	88.435	-35.8285
9620.000000	87.639	-31.9880
9750.000000	87.073	-28.3455
9880.000000	86.570	-24.5649
10000.000000	86.286	-19.5428
10150.000000	85.954	-13.9267
10300.000000	85.636	-9.6524
10440.000000	85.655	-4.2619
10600.000000	85.530	0.6389
10750.000000	85.503	3.6460
10900.000000	85.628	8.1562
11060.000000	85.544	11.3968
11200.000000	85.834	14.6785
11380.000000	85.871	18.7225
11500.000000	85.946	19.6595
11720.000000	86.361	23.4407
11800.000000	86.486	24.2428
12060.000000	86.877	25.7257
12200.000000	87.003	26.6450
12410.000000	87.495	27.1969
12500.000000	87.766	27.3174
12650.000000	88.183	25.0196
12800.000000	88.569	21.1538
13150.000000	88.824	9.4885
13200.000000	88.848	8.3638
13400.000000	88.434	1.3367
13600.000000	87.918	-4.2967
13800.000000	87.513	-8.7481
14000.000000	86.801	-11.7690
14300.000000	86.423	-15.3198
14500.000000	86.170	-15.9055
14750.000000	86.435	-18.0187
15000.000000	86.748	-20.7119
15250.000000	87.040	-24.7002
15500.000000	87.159	-32.6547
15750.000000	86.498	-42.0822
16000.000000	84.951	-49.6512
16250.000000	83.637	-51.7905
16500.000000	81.866	-51.0162
16750.000000	80.334	-45.7400
17000.000000	78.918	-38.8440
17250.000000	77.648	-29.7043
17500.000000	76.370	-19.3913
17750.000000	75.464	-9.5130
18000.000000	74.647	2.8045
18250.000000	73.912	13.9881
18500.000000	73.174	26.8261
18750.000000	72.795	38.8075
19000.000000	72.261	49.7843
19250.000000	71.742	61.3743
19500.000000	71.372	72.6364
19750.000000	70.858	81.2823
