* Measurement data measured by REW V5.30.9
* Source: Microphone (Realtek USB2.0 Audio), MICROPHONE (Master Volume), L, volume: 0.500
* Format: 512k Log Swept Sine, 1 sweep at -12.0 dBFS with no timing reference
* Dated: 06 8, 24 8:53:51 AM
* REW Settings:
*  C-weighting compensation: Off
*  Target level: 75.0 dB
* Note: ; 
* Measurement: vader UUDD L
* Smoothing: None
* Frequency Step: 1/48 octave
* Start Frequency: 1.000 Hz
*
* Freq(Hz)	SPL(dB)	Phase(degrees)
1.000000	48.538	-70.5470
1.015000	48.356	-71.3842
1.030000	48.173	-72.2041
1.044000	48.003	-72.9513
1.060000	47.808	-73.7861
1.075000	47.624	-74.5524
1.090000	47.439	-75.3050
1.106000	47.237	-76.0951
1.120000	47.058	-76.7775
1.138000	46.822	-77.6458
1.150000	46.661	-78.2204
1.172000	46.355	-79.2695
1.180000	46.240	-79.6505
1.206000	45.853	-80.8925
1.220000	45.634	-81.5663
1.241000	45.290	-82.5882
1.250000	45.137	-83.0316
1.265000	44.873	-83.7793
1.280000	44.597	-84.5399
1.315000	43.904	-86.3764
1.320000	43.799	-86.6470
1.340000	43.363	-87.7528
1.360000	42.896	-89.1012
1.380000	42.384	-91.1851
1.400000	41.834	-93.8861
1.430000	40.948	-98.7572
1.450000	40.325	-102.3257
1.475000	39.518	-106.8761
1.500000	38.691	-111.2445
1.525000	37.855	-115.1295
1.550000	37.019	-118.2294
1.575000	36.195	-120.2425
1.600000	35.393	-120.8672
1.625000	34.624	-119.8018
1.650000	33.898	-116.7447
1.675000	33.226	-111.3942
1.700000	32.595	-103.2118
1.725000	31.944	-91.6480
1.750000	31.281	-77.2074
1.775000	30.619	-60.4472
1.800000	29.967	-41.9243
1.825000	29.339	-22.1957
1.850000	28.744	-1.8186
1.875000	28.195	18.6502
1.900000	27.703	38.6535
1.925000	27.279	57.6344
1.950000	26.936	75.0359
1.975000	26.683	90.3010
2.000000	26.534	102.8725
2.030000	26.508	113.7498
2.060000	26.668	120.9472
2.090000	26.994	125.2460
2.120000	27.459	127.1602
2.140000	27.834	127.3656
2.180000	28.701	125.8922
2.200000	29.178	124.5180
2.240000	30.180	121.2569
2.270000	30.942	118.9620
2.300000	31.684	117.3681
2.330000	32.379	116.9893
2.360000	33.001	118.3203
2.400000	33.793	121.7150
2.430000	34.391	124.8631
2.470000	35.195	129.6395
2.500000	35.802	133.5035
2.540000	36.616	138.8074
2.580000	37.436	144.0291
2.620000	38.261	148.8897
2.650000	38.883	152.1303
2.690000	39.717	155.6877
2.720000	40.353	157.7829
2.760000	41.229	160.0975
2.800000	42.122	161.9516
2.850000	43.247	163.7647
2.900000	44.359	165.1886
2.950000	45.432	166.4069
3.000000	46.445	167.6032
3.040000	47.195	168.6488
3.070000	47.729	169.3506
3.110000	48.411	170.1197
3.150000	49.061	170.7513
3.200000	49.835	171.4349
3.250000	50.572	172.1057
3.300000	51.277	172.8759
3.350000	51.957	173.8581
3.400000	52.613	175.0823
3.450000	53.231	176.3872
3.500000	53.816	177.7841
3.550000	54.372	179.2972
3.600000	54.905	-179.0496
3.650000	55.421	-177.2320
3.700000	55.925	-175.2261
3.750000	56.411	-172.9749
3.820000	57.055	-169.4269
3.870000	57.492	-166.7021
3.950000	58.162	-162.2015
4.000000	58.568	-159.4067
4.060000	59.048	-156.1553
4.120000	59.509	-152.8142
4.180000	59.953	-149.4103
4.250000	60.455	-145.5058
4.310000	60.875	-142.3413
4.370000	61.291	-139.4607
4.440000	61.768	-136.4547
4.500000	62.166	-134.0892
4.550000	62.492	-132.2678
4.620000	62.943	-129.9486
4.680000	63.326	-128.1769
4.750000	63.770	-126.3771
4.820000	64.209	-124.9004
4.870000	64.519	-124.0162
4.940000	64.950	-122.9711
5.000000	65.315	-122.2140
5.080000	65.799	-121.3543
5.150000	66.218	-120.8121
5.220000	66.633	-120.4512
5.300000	67.102	-120.2070
5.380000	67.564	-120.0826
5.450000	67.962	-120.0813
5.520000	68.355	-120.2131
5.600000	68.798	-120.4789
5.700000	69.339	-120.9020
5.800000	69.866	-121.3918
5.900000	70.379	-121.9995
6.000000	70.879	-122.6606
6.080000	71.269	-123.1847
6.150000	71.603	-123.6529
6.220000	71.930	-124.1342
6.300000	72.295	-124.6915
6.400000	72.742	-125.3836
6.500000	73.176	-126.0659
6.600000	73.598	-126.7483
6.700000	74.011	-127.4366
6.800000	74.417	-128.1357
6.900000	74.812	-128.8427
7.000000	75.200	-129.5558
7.100000	75.584	-130.2727
7.200000	75.961	-130.9920
7.300000	76.333	-131.7172
7.400000	76.700	-132.4530
7.500000	77.064	-133.2053
7.620000	77.495	-134.1227
7.750000	77.955	-135.1121
7.880000	78.409	-136.0939
8.000000	78.821	-136.9932
8.120000	79.225	-137.8766
8.250000	79.655	-138.8190
8.380000	80.075	-139.7409
8.500000	80.453	-140.5699
8.620000	80.822	-141.3796
8.750000	81.211	-142.2285
8.850000	81.503	-142.8578
9.000000	81.930	-143.7687
9.120000	82.262	-144.4756
9.250000	82.612	-145.2206
9.380000	82.953	-145.9404
9.500000	83.262	-146.5790
9.620000	83.563	-147.1930
9.750000	83.884	-147.8392
9.880000	84.200	-148.4678
10.000000	84.486	-149.0328
10.150000	84.838	-149.7308
10.300000	85.184	-150.4196
10.440000	85.500	-151.0522
10.600000	85.854	-151.7619
10.750000	86.178	-152.4173
10.900000	86.494	-153.0674
11.060000	86.821	-153.7511
11.200000	87.099	-154.3379
11.380000	87.445	-155.0750
11.500000	87.668	-155.5438
11.720000	88.063	-156.3583
11.800000	88.203	-156.6375
12.060000	88.645	-157.4810
12.200000	88.877	-157.9000
12.410000	89.218	-158.4833
12.500000	89.364	-158.7171
12.650000	89.605	-159.0804
12.800000	89.845	-159.4401
13.150000	90.385	-160.3094
13.200000	90.430	-160.4465
13.400000	90.542	-161.0230
13.600000	90.601	-161.6250
13.800000	90.624	-162.2609
14.000000	90.651	-162.9471
14.300000	90.682	-164.0528
14.500000	90.692	-164.7999
14.750000	90.682	-165.6721
15.000000	90.662	-166.4842
15.250000	90.642	-167.2369
15.500000	90.625	-167.9214
15.750000	90.604	-168.5016
16.000000	90.596	-169.0542
16.250000	90.602	-169.6190
16.500000	90.622	-170.2174
16.750000	90.636	-170.8300
17.000000	90.652	-171.4878
17.250000	90.667	-172.1840
17.500000	90.681	-172.9002
17.750000	90.680	-173.5836
18.000000	90.678	-174.2455
18.250000	90.675	-174.8849
18.500000	90.675	-175.4990
18.750000	90.669	-176.0718
19.000000	90.666	-176.6364
19.250000	90.666	-177.2003
19.500000	90.666	-177.7626
19.750000	90.658	-178.2978
20.000000	90.650	-178.8161
20.299999	90.642	-179.4108
20.600000	90.635	-179.9615
20.900000	90.628	179.5300
21.200001	90.631	179.0089
21.400000	90.637	178.6420
21.799999	90.642	177.8700
22.000000	90.641	177.4538
22.400000	90.631	176.5901
22.700001	90.610	175.9850
23.000000	90.583	175.4393
23.299999	90.559	174.9415
23.600000	90.540	174.4930
24.000000	90.524	173.9266
24.299999	90.520	173.4598
24.700001	90.513	172.7911
25.000000	90.501	172.2742
25.400000	90.482	171.5853
25.799999	90.455	170.9789
26.200001	90.438	170.4200
26.500000	90.432	170.0022
26.900000	90.425	169.4229
27.200001	90.422	168.9336
27.600000	90.409	168.2485
28.000000	90.381	167.5791
28.500000	90.339	166.7921
29.000000	90.288	166.1314
29.500000	90.245	165.5582
30.000000	90.210	165.0708
30.400000	90.196	164.6691
30.700001	90.190	164.3486
31.100000	90.187	163.8568
31.500000	90.182	163.2707
32.000000	90.158	162.4960
32.500000	90.119	161.7357
33.000000	90.072	161.0869
33.500000	90.033	160.4710
34.000000	89.994	159.8687
34.500000	89.956	159.2503
35.000000	89.911	158.6962
35.500000	89.874	158.1833
36.000000	89.842	157.6977
36.500000	89.816	157.1507
37.000000	89.782	156.6005
37.500000	89.747	156.0722
38.200001	89.703	155.3914
38.700001	89.676	154.8657
39.500000	89.617	153.9548
40.000000	89.566	153.4622
40.599998	89.516	152.9914
41.200001	89.487	152.5434
41.799999	89.469	151.9723
42.500000	89.433	151.1976
43.099998	89.386	150.5906
43.700001	89.343	150.0499
44.400002	89.300	149.4293
45.000000	89.258	148.8794
45.500000	89.219	148.4374
46.200001	89.165	147.8877
46.799999	89.127	147.4087
47.500000	89.077	146.8038
48.200001	89.016	146.2458
48.700001	88.977	145.8978
49.400002	88.933	145.4033
50.000000	88.898	144.9260
50.799999	88.847	144.2705
51.500000	88.802	143.7099
52.200001	88.757	143.1320
53.000000	88.697	142.4910
53.799999	88.640	141.9111
54.500000	88.592	141.4083
55.200001	88.543	140.9341
56.000000	88.497	140.4082
57.000000	88.436	139.5796
58.000000	88.339	138.9427
59.000000	88.299	138.4881
60.000000	88.261	137.5818
60.799999	88.181	136.9455
61.500000	88.122	136.6122
62.200001	88.081	136.2485
63.000000	88.029	135.7684
64.000000	87.964	135.2670
65.000000	87.908	134.6898
66.000000	87.838	134.1208
67.000000	87.775	133.6135
68.000000	87.716	132.9985
69.000000	87.647	132.4147
70.000000	87.584	131.8682
71.000000	87.523	131.2598
72.000000	87.457	130.7251
73.000000	87.396	130.1928
74.000000	87.329	129.6642
75.000000	87.261	129.1844
76.199997	87.185	128.6390
77.500000	87.110	127.9785
78.800003	87.018	127.3501
80.000000	86.956	126.7892
81.199997	86.876	126.1495
82.500000	86.797	125.6224
83.800003	86.721	125.0317
85.000000	86.653	124.5394
86.199997	86.584	123.9760
87.500000	86.502	123.4177
88.500000	86.446	122.9895
90.000000	86.358	122.3235
91.199997	86.292	121.8462
92.500000	86.222	121.3158
93.800003	86.151	120.8251
95.000000	86.084	120.3575
96.199997	86.012	119.9043
97.500000	85.935	119.4300
98.800003	85.864	118.9223
100.000000	85.788	118.4705
101.500000	85.707	117.9595
103.000000	85.625	117.4381
104.400002	85.537	116.9475
106.000000	85.445	116.4481
107.500000	85.354	115.9386
109.000000	85.258	115.4996
110.599998	85.169	115.0391
112.000000	85.081	114.6729
113.800003	84.954	114.2047
115.000000	84.893	113.9647
117.199997	84.757	113.6548
118.000000	84.685	113.4237
120.599998	84.599	112.8231
122.000000	84.405	113.5663
124.099998	84.468	113.3753
125.000000	84.349	112.7938
126.500000	84.259	113.8822
128.000000	84.262	113.5644
131.500000	84.317	113.9283
132.000000	84.357	113.7479
134.000000	84.380	113.2510
136.000000	84.425	112.4761
138.000000	84.431	111.9171
140.000000	84.437	111.1103
143.000000	84.400	109.8610
145.000000	84.375	109.0178
147.500000	84.355	108.1503
150.000000	84.274	107.2641
152.500000	84.206	106.3952
155.000000	84.129	105.5400
157.500000	84.049	104.8531
160.000000	83.971	104.1355
162.500000	83.870	103.4698
165.000000	83.780	102.7524
167.500000	83.692	102.1713
170.000000	83.598	101.6819
172.500000	83.514	101.0516
175.000000	83.428	100.4917
177.500000	83.340	100.0604
180.000000	83.265	99.8593
182.500000	83.159	99.0738
185.000000	83.098	98.6012
187.500000	83.018	98.0925
190.000000	82.939	97.7302
192.500000	82.861	97.2881
195.000000	82.782	96.9303
197.500000	82.702	96.5727
200.000000	82.638	96.1831
203.000000	82.571	95.8026
206.000000	82.496	95.3478
209.000000	82.429	95.0251
212.000000	82.367	94.6635
214.000000	82.329	94.4328
218.000000	82.262	94.1107
220.000000	82.225	93.9044
224.000000	82.183	93.5128
227.000000	82.150	93.2934
230.000000	82.147	93.0515
233.000000	82.139	92.5783
236.000000	82.117	91.9674
240.000000	82.100	91.4561
243.000000	82.034	90.8271
247.000000	81.978	90.1080
250.000000	81.943	89.6704
254.000000	81.881	89.1881
258.000000	81.822	88.7192
262.000000	81.760	88.2932
265.000000	81.727	87.9490
269.000000	81.651	87.4478
272.000000	81.633	87.1919
276.000000	81.578	86.8132
280.000000	81.521	86.5141
285.000000	81.455	86.0231
290.000000	81.406	85.6753
295.000000	81.382	85.3238
300.000000	81.346	85.0436
304.000000	81.332	84.6054
307.000000	81.315	84.2574
311.000000	81.329	83.9478
315.000000	81.283	83.6000
320.000000	81.247	83.0801
325.000000	81.220	82.6319
330.000000	81.179	82.1750
335.000000	81.158	81.7961
340.000000	81.123	81.4899
345.000000	81.084	81.1271
350.000000	81.050	80.6523
355.000000	81.043	80.4005
360.000000	80.970	80.0162
365.000000	80.986	79.8396
370.000000	80.942	79.4322
375.000000	80.936	79.0821
382.000000	80.913	78.7340
387.000000	80.903	78.4832
395.000000	80.879	77.9551
400.000000	80.870	77.8374
406.000000	80.854	77.5033
412.000000	80.842	77.1947
418.000000	80.841	77.0094
425.000000	80.818	76.6111
431.000000	80.822	76.4138
437.000000	80.814	76.1041
444.000000	80.811	75.8495
450.000000	80.816	75.6127
455.000000	80.808	75.4807
462.000000	80.816	75.1999
468.000000	80.816	75.0705
475.000000	80.814	74.7936
482.000000	80.822	74.5761
487.000000	80.831	74.4359
494.000000	80.837	74.2417
500.000000	80.848	74.0779
508.000000	80.857	73.8308
515.000000	80.869	73.6399
522.000000	80.887	73.4881
530.000000	80.903	73.3871
538.000000	80.910	73.0908
545.000000	80.939	73.0418
552.000000	80.971	72.9559
560.000000	80.971	72.6731
570.000000	81.005	72.5241
580.000000	81.025	72.3649
590.000000	81.058	72.2966
600.000000	81.092	72.1459
608.000000	81.115	72.0119
615.000000	81.133	71.8893
622.000000	81.156	71.8466
630.000000	81.194	71.7254
640.000000	81.235	71.7091
650.000000	81.282	71.6224
660.000000	81.324	71.5239
670.000000	81.380	71.4354
680.000000	81.428	71.3954
690.000000	81.479	71.4283
700.000000	81.524	71.3223
710.000000	81.582	71.3176
720.000000	81.624	71.3195
730.000000	81.678	71.3327
740.000000	81.739	71.2778
750.000000	81.805	71.2837
762.000000	81.877	71.3001
775.000000	81.959	71.3021
788.000000	82.045	71.2608
800.000000	82.118	71.1925
812.000000	82.202	71.2583
825.000000	82.281	71.2818
838.000000	82.372	71.2273
850.000000	82.442	71.1345
862.000000	82.491	71.1466
875.000000	82.585	71.4070
885.000000	82.654	71.5208
900.000000	82.783	71.6726
912.000000	82.884	71.7362
925.000000	82.987	71.7573
938.000000	83.097	71.8597
950.000000	83.209	71.9584
962.000000	83.324	72.0744
975.000000	83.475	72.0955
988.000000	83.608	72.0151
1000.000000	83.736	71.8567
1015.000000	83.882	71.6957
1030.000000	84.045	71.5163
1044.000000	84.172	71.2844
1060.000000	84.327	71.0340
1075.000000	84.478	70.8024
1090.000000	84.619	70.4970
1106.000000	84.774	70.0884
1120.000000	84.911	69.7574
1138.000000	85.067	69.3144
1150.000000	85.175	68.9650
1172.000000	85.360	68.3606
1180.000000	85.427	68.0844
1206.000000	85.630	67.2730
1220.000000	85.732	66.8446
1241.000000	85.883	66.1589
1250.000000	85.934	65.8375
1265.000000	86.046	65.4096
1280.000000	86.137	64.9109
1315.000000	86.345	63.8238
1320.000000	86.373	63.6994
1340.000000	86.482	63.1003
1360.000000	86.583	62.5276
1380.000000	86.681	61.9962
1400.000000	86.774	61.4778
1430.000000	86.910	60.7797
1450.000000	86.994	60.3432
1475.000000	87.099	59.8982
1500.000000	87.208	59.4636
1525.000000	87.313	59.0186
1550.000000	87.422	58.6358
1575.000000	87.524	58.2459
1600.000000	87.628	57.8602
1625.000000	87.726	57.5461
1650.000000	87.820	57.2530
1675.000000	87.929	56.9491
1700.000000	88.037	56.7124
1725.000000	88.135	56.4685
1750.000000	88.245	56.2811
1775.000000	88.355	56.0600
1800.000000	88.468	55.8519
1825.000000	88.577	55.6924
1850.000000	88.683	55.4995
1875.000000	88.797	55.3082
1900.000000	88.915	55.0779
1925.000000	89.029	54.9357
1950.000000	89.151	54.7417
1975.000000	89.267	54.5417
2000.000000	89.396	54.3353
2030.000000	89.556	54.0609
2060.000000	89.717	53.7641
2090.000000	89.877	53.4677
2120.000000	90.037	53.1908
2140.000000	90.145	52.9664
2180.000000	90.364	52.4849
2200.000000	90.473	52.2250
2240.000000	90.689	51.6712
2270.000000	90.848	51.2381
2300.000000	91.012	50.7676
2330.000000	91.169	50.2705
2360.000000	91.324	49.7364
2400.000000	91.527	49.0425
2430.000000	91.678	48.5389
2470.000000	91.884	47.8407
2500.000000	92.052	47.3903
2540.000000	92.317	46.5395
2580.000000	92.573	45.2840
2620.000000	92.804	43.8644
2650.000000	92.932	42.6656
2690.000000	93.075	41.1987
2720.000000	93.195	39.9712
2760.000000	93.310	38.7063
2800.000000	93.424	37.1538
2850.000000	93.504	35.5793
2900.000000	93.572	33.7842
2950.000000	93.673	32.5499
3000.000000	93.713	30.9405
3040.000000	93.750	29.9770
3070.000000	93.830	28.9250
3110.000000	93.847	27.8675
3150.000000	93.864	26.2118
3200.000000	93.776	24.8751
3250.000000	93.774	23.3710
3300.000000	93.761	22.6166
3350.000000	93.646	21.2301
3400.000000	93.587	19.4616
3450.000000	93.497	18.1190
3500.000000	93.430	17.8135
3550.000000	93.347	16.2977
3600.000000	93.210	16.3296
3650.000000	93.043	14.8434
3700.000000	92.990	13.8225
3750.000000	92.795	14.1433
3820.000000	92.668	12.9492
3870.000000	92.567	13.1446
3950.000000	92.421	12.4978
4000.000000	92.115	11.9179
4060.000000	91.895	12.1032
4120.000000	91.953	11.3067
4180.000000	91.815	11.7764
4250.000000	91.672	11.8813
4310.000000	91.579	12.5286
4370.000000	91.381	11.2185
4440.000000	91.220	11.6298
4500.000000	91.088	11.8386
4550.000000	91.014	11.7532
4620.000000	90.998	12.6062
4680.000000	90.795	12.4206
4750.000000	90.752	13.4115
4820.000000	90.590	12.7280
4870.000000	90.599	13.0691
4940.000000	90.560	13.6898
5000.000000	90.580	13.4879
5080.000000	90.364	14.1041
5150.000000	90.266	14.5072
5220.000000	90.187	14.2506
5300.000000	90.013	14.6112
5380.000000	89.818	14.7596
5450.000000	89.939	15.3692
5520.000000	89.826	15.7060
5600.000000	89.836	15.5883
5700.000000	89.597	15.2438
5800.000000	89.471	16.1229
5900.000000	89.490	16.5421
6000.000000	89.510	16.3450
6080.000000	89.378	16.4066
6150.000000	89.242	17.1099
6220.000000	89.243	16.7972
6300.000000	89.364	17.4880
6400.000000	89.545	17.1674
6500.000000	89.508	16.5603
6600.000000	89.702	18.1253
6700.000000	89.940	17.2880
6800.000000	90.216	17.2229
6900.000000	90.391	17.7576
7000.000000	90.541	16.7081
7100.000000	90.974	15.6739
7200.000000	91.429	14.9783
7300.000000	91.864	12.8834
7400.000000	92.181	12.2325
7500.000000	92.713	8.5026
7620.000000	93.290	6.2255
7750.000000	93.686	0.6858
7880.000000	94.150	-6.2771
8000.000000	94.605	-11.8092
8120.000000	94.252	-18.8658
8250.000000	93.733	-25.7557
8380.000000	93.001	-31.8140
8500.000000	92.340	-36.6429
8620.000000	91.301	-39.3141
8750.000000	90.545	-41.1756
8850.000000	89.768	-42.0204
9000.000000	88.743	-42.6921
9120.000000	88.046	-40.8912
9250.000000	87.245	-39.9133
9380.000000	86.506	-37.8459
9500.000000	85.945	-36.4951
9620.000000	85.191	-33.6392
9750.000000	84.646	-31.2124
9880.000000	84.106	-28.6435
10000.000000	83.740	-24.8211
10150.000000	83.232	-20.3769
10300.000000	82.666	-16.8399
10440.000000	82.433	-11.9332
10600.000000	82.000	-7.0603
10750.000000	81.676	-3.5814
10900.000000	81.519	1.4912
11060.000000	81.165	5.8315
11200.000000	81.253	10.2310
11380.000000	81.020	15.8928
11500.000000	80.960	18.0467
11720.000000	81.229	24.1050
11800.000000	81.305	25.6731
12060.000000	81.656	29.0916
12200.000000	81.796	30.4360
12410.000000	82.229	30.8034
12500.000000	82.440	30.5979
12650.000000	82.696	28.2430
12800.000000	82.901	24.5767
13150.000000	82.951	14.0430
13200.000000	82.954	13.0989
13400.000000	82.610	6.0510
13600.000000	82.218	0.0241
13800.000000	81.953	-5.2056
14000.000000	81.410	-9.2323
14300.000000	81.295	-14.1617
14500.000000	81.239	-15.5485
14750.000000	81.704	-18.4807
15000.000000	82.192	-21.5679
15250.000000	82.575	-25.5958
15500.000000	82.712	-32.8138
15750.000000	82.012	-40.3285
16000.000000	80.552	-45.4168
16250.000000	79.427	-45.0556
16500.000000	77.869	-41.9792
16750.000000	76.547	-34.3333
17000.000000	75.377	-25.7546
17250.000000	74.366	-14.7551
17500.000000	73.332	-2.8042
17750.000000	72.613	8.7547
18000.000000	72.123	23.0483
18250.000000	71.644	35.3476
18500.000000	71.132	49.2652
18750.000000	71.004	62.2865
19000.000000	70.611	74.2418
19250.000000	70.323	87.3331
19500.000000	70.235	99.7430
19750.000000	69.710	111.2336
