* Measurement data measured by REW V5.30.9
* Source: Microphone (Realtek USB2.0 Audio), MICROPHONE (Master Volume), L, volume: 0.500
* Format: 512k Log Swept Sine, 1 sweep at -12.0 dBFS with no timing reference
* Dated: 06 8, 24 8:51:40 AM
* REW Settings:
*  C-weighting compensation: Off
*  Target level: 75.0 dB
* Note: ; 
* Measurement: vader DUUU R
* Smoothing: None
* Frequency Step: 1/48 octave
* Start Frequency: 1.000 Hz
*
* Freq(Hz)	SPL(dB)	Phase(degrees)
1.000000	50.295	-94.2528
1.015000	50.217	-95.1543
1.030000	50.137	-96.0400
1.044000	50.060	-96.8515
1.060000	49.971	-97.7607
1.075000	49.885	-98.5952
1.090000	49.797	-99.4122
1.106000	49.700	-100.2640
1.120000	49.614	-100.9925
1.138000	49.500	-101.9056
1.150000	49.421	-102.4996
1.172000	49.273	-103.5571
1.180000	49.218	-103.9315
1.206000	49.033	-105.1102
1.220000	48.929	-105.7204
1.241000	48.768	-106.6031
1.250000	48.697	-106.9692
1.265000	48.576	-107.5631
1.280000	48.451	-108.1363
1.315000	48.145	-109.3918
1.320000	48.100	-109.5617
1.340000	47.914	-110.2171
1.360000	47.720	-110.8456
1.380000	47.518	-111.4764
1.400000	47.307	-112.1035
1.430000	46.978	-113.0192
1.450000	46.749	-113.6009
1.475000	46.456	-114.2814
1.500000	46.153	-114.8948
1.525000	45.843	-115.4251
1.550000	45.527	-115.8562
1.575000	45.205	-116.1719
1.600000	44.879	-116.3562
1.625000	44.549	-116.3930
1.650000	44.217	-116.2662
1.675000	43.885	-115.9595
1.700000	43.545	-115.4537
1.725000	43.181	-114.7413
1.750000	42.798	-113.8423
1.775000	42.402	-112.7776
1.800000	41.996	-111.5683
1.825000	41.588	-110.2353
1.850000	41.181	-108.7998
1.875000	40.781	-107.2826
1.900000	40.394	-105.7049
1.925000	40.025	-104.0877
1.950000	39.679	-102.4518
1.975000	39.362	-100.8185
2.000000	39.078	-99.2086
2.030000	38.790	-97.2996
2.060000	38.555	-95.0834
2.090000	38.367	-92.5601
2.120000	38.217	-89.8390
2.140000	38.134	-87.9689
2.180000	38.000	-84.2399
2.200000	37.945	-82.4458
2.240000	37.845	-79.1601
2.270000	37.770	-77.0879
2.300000	37.688	-75.4732
2.330000	37.591	-74.4251
2.360000	37.470	-74.0475
2.400000	37.248	-74.2642
2.430000	37.043	-74.8333
2.470000	36.744	-76.1429
2.500000	36.519	-77.5441
2.540000	36.243	-79.9800
2.580000	36.022	-83.0745
2.620000	35.891	-86.8387
2.650000	35.869	-90.1079
2.690000	35.969	-95.0703
2.720000	36.142	-99.5562
2.760000	36.474	-106.9781
2.800000	36.909	-115.6023
2.850000	37.577	-127.3321
2.900000	38.357	-139.2300
2.950000	39.223	-150.3455
3.000000	40.147	-159.7284
3.040000	40.916	-165.3957
3.070000	41.553	-168.8131
3.110000	42.490	-172.5743
3.150000	43.500	-175.5439
3.200000	44.817	-178.3376
3.250000	46.140	179.6553
3.300000	47.409	178.1850
3.350000	48.565	177.0011
3.400000	49.579	176.0695
3.450000	50.516	175.8107
3.500000	51.391	176.1402
3.550000	52.214	176.9388
3.600000	52.995	178.0873
3.650000	53.745	179.4666
3.700000	54.474	-179.0425
3.750000	55.175	-177.3197
3.820000	56.087	-174.2848
3.870000	56.699	-171.8087
3.950000	57.625	-167.5910
4.000000	58.181	-164.9520
4.060000	58.832	-161.9105
4.120000	59.452	-158.7452
4.180000	60.040	-155.4731
4.250000	60.695	-151.6852
4.310000	61.235	-148.6050
4.370000	61.761	-145.8089
4.440000	62.353	-142.9026
4.500000	62.839	-140.6117
4.550000	63.229	-138.8439
4.620000	63.759	-136.5853
4.680000	64.200	-134.8506
4.750000	64.702	-133.0774
4.820000	65.184	-131.6159
4.870000	65.517	-130.7321
4.940000	65.971	-129.6667
5.000000	66.351	-128.8672
5.080000	66.845	-127.9076
5.150000	67.263	-127.2428
5.220000	67.668	-126.7281
5.300000	68.119	-126.2696
5.380000	68.561	-125.8893
5.450000	68.939	-125.6234
5.520000	69.307	-125.4521
5.600000	69.719	-125.3376
5.700000	70.225	-125.2578
5.800000	70.722	-125.2154
5.900000	71.208	-125.2465
6.000000	71.686	-125.3345
6.080000	72.065	-125.4332
6.150000	72.393	-125.5359
6.220000	72.717	-125.6604
6.300000	73.084	-125.8392
6.400000	73.535	-126.1338
6.500000	73.979	-126.5015
6.600000	74.415	-126.9417
6.700000	74.841	-127.4731
6.800000	75.255	-128.1137
6.900000	75.659	-128.8583
7.000000	76.050	-129.6828
7.100000	76.425	-130.5664
7.200000	76.786	-131.5317
7.300000	77.133	-132.5543
7.400000	77.466	-133.5931
7.500000	77.784	-134.6574
7.620000	78.145	-135.9672
7.750000	78.521	-137.3177
7.880000	78.877	-138.5809
8.000000	79.193	-139.6704
8.120000	79.507	-140.6418
8.250000	79.842	-141.5579
8.380000	80.179	-142.3667
8.500000	80.501	-143.0243
8.620000	80.829	-143.5897
8.750000	81.197	-144.1877
8.850000	81.492	-144.6446
9.000000	81.948	-145.3303
9.120000	82.317	-145.9730
9.250000	82.726	-146.7650
9.380000	83.134	-147.6516
9.500000	83.499	-148.5720
9.620000	83.860	-149.5898
9.750000	84.232	-150.7504
9.880000	84.582	-151.9715
10.000000	84.886	-153.1375
10.150000	85.235	-154.5299
10.300000	85.549	-155.8778
10.440000	85.820	-156.9819
10.600000	86.099	-158.0148
10.750000	86.349	-158.7520
10.900000	86.598	-159.2026
11.060000	86.869	-159.4237
11.200000	87.132	-159.4434
11.380000	87.502	-159.2528
11.500000	87.776	-159.1458
11.720000	88.337	-158.9669
11.800000	88.550	-159.0075
12.060000	89.282	-159.5306
12.200000	89.667	-160.1284
12.410000	90.223	-161.4247
12.500000	90.440	-162.0787
12.650000	90.776	-163.3285
12.800000	91.069	-164.6484
13.150000	91.560	-167.7920
13.200000	91.578	-168.2075
13.400000	91.541	-169.7393
13.600000	91.406	-170.8333
13.800000	91.209	-171.4870
14.000000	91.021	-171.6335
14.300000	90.808	-171.1576
14.500000	90.731	-170.5564
14.750000	90.715	-169.7222
15.000000	90.772	-169.2129
15.250000	90.868	-169.1509
15.500000	90.969	-169.5524
15.750000	91.027	-170.2676
16.000000	91.046	-171.1320
16.250000	91.033	-172.0197
16.500000	90.997	-172.8231
16.750000	90.942	-173.4404
17.000000	90.898	-173.9430
17.250000	90.871	-174.3979
17.500000	90.863	-174.8657
17.750000	90.859	-175.3817
18.000000	90.859	-175.9805
18.250000	90.860	-176.6451
18.500000	90.856	-177.3422
18.750000	90.840	-178.0012
19.000000	90.824	-178.6232
19.250000	90.812	-179.2108
19.500000	90.807	-179.7703
19.750000	90.802	179.6924
20.000000	90.801	179.1416
20.299999	90.802	178.4575
20.600000	90.799	177.7782
20.900000	90.784	177.1520
21.200001	90.770	176.5844
21.400000	90.762	176.2486
21.799999	90.750	175.6708
22.000000	90.750	175.3876
22.400000	90.763	174.7639
22.700001	90.769	174.2317
23.000000	90.766	173.6410
23.299999	90.751	173.0092
23.600000	90.719	172.4085
24.000000	90.655	171.7581
24.299999	90.610	171.3792
24.700001	90.561	171.0039
25.000000	90.540	170.7442
25.400000	90.532	170.3017
25.799999	90.526	169.7507
26.200001	90.518	169.1081
26.500000	90.511	168.6043
26.900000	90.498	167.9245
27.200001	90.494	167.3552
27.600000	90.481	166.5037
28.000000	90.442	165.6027
28.500000	90.359	164.6078
29.000000	90.266	164.0671
29.500000	90.237	163.8289
30.000000	90.276	163.3921
30.400000	90.315	162.6443
30.700001	90.316	161.9350
31.100000	90.265	161.0161
31.500000	90.177	160.3793
32.000000	90.078	160.1146
32.500000	90.052	160.0451
33.000000	90.069	159.7249
33.500000	90.075	159.0523
34.000000	90.037	158.3624
34.500000	89.988	157.8217
35.000000	89.949	157.3748
35.500000	89.923	156.8288
36.000000	89.883	156.2321
36.500000	89.831	155.6674
37.000000	89.781	155.2162
37.500000	89.750	154.7673
38.200001	89.711	154.0334
38.700001	89.674	153.4702
39.500000	89.604	152.6811
40.000000	89.564	152.2607
40.599998	89.528	151.7513
41.200001	89.492	151.2186
41.799999	89.451	150.6700
42.500000	89.398	150.0752
43.099998	89.356	149.6028
43.700001	89.320	149.0657
44.400002	89.262	148.3763
45.000000	89.194	147.8783
45.500000	89.142	147.5752
46.200001	89.102	147.1855
46.799999	89.081	146.6771
47.500000	89.030	145.9541
48.200001	88.956	145.4024
48.700001	88.916	145.1262
49.400002	88.884	144.6717
50.000000	88.851	144.1524
50.799999	88.785	143.5142
51.500000	88.736	143.0618
52.200001	88.691	142.5141
53.000000	88.610	141.8985
53.799999	88.544	141.5563
54.500000	88.528	141.1379
55.200001	88.495	140.4322
56.000000	88.410	139.7559
57.000000	88.341	139.1895
58.000000	88.278	138.3570
59.000000	88.187	137.6943
60.000000	88.106	137.0746
60.799999	88.027	136.7231
61.500000	87.991	136.5696
62.200001	87.984	136.2125
63.000000	87.948	135.5534
64.000000	87.867	134.9718
65.000000	87.818	134.4572
66.000000	87.758	133.8734
67.000000	87.711	133.3490
68.000000	87.642	132.5759
69.000000	87.532	132.1335
70.000000	87.472	131.8179
71.000000	87.407	131.2295
72.000000	87.334	130.7591
73.000000	87.267	130.1529
74.000000	87.172	129.6818
75.000000	87.123	129.4114
76.199997	87.081	128.6426
77.500000	86.971	127.9789
78.800003	86.887	127.5058
80.000000	86.818	126.9822
81.199997	86.724	126.3694
82.500000	86.630	125.9787
83.800003	86.560	125.3973
85.000000	86.474	124.8697
86.199997	86.389	124.4763
87.500000	86.314	124.0093
88.500000	86.241	123.6304
90.000000	86.125	123.1672
91.199997	86.038	122.8891
92.500000	85.932	122.5906
93.800003	85.846	122.5297
95.000000	85.768	122.4631
96.199997	85.719	122.5326
97.500000	85.662	122.6173
98.800003	85.693	122.7741
100.000000	85.721	122.4904
101.500000	85.751	121.7607
103.000000	85.724	121.2766
104.400002	85.722	120.4185
106.000000	85.675	119.6317
107.500000	85.616	118.8006
109.000000	85.556	117.9403
110.599998	85.453	117.3369
112.000000	85.388	116.7930
113.800003	85.299	116.2216
115.000000	85.232	115.7118
117.199997	85.143	114.8873
118.000000	85.095	114.6720
120.599998	85.028	113.8445
122.000000	84.939	113.1513
124.099998	84.808	112.9988
125.000000	84.773	112.8445
126.500000	84.714	112.2493
128.000000	84.666	112.1607
131.500000	84.544	111.0559
132.000000	84.523	110.8450
134.000000	84.389	110.4888
136.000000	84.324	110.0601
138.000000	84.266	109.6661
140.000000	84.176	109.1000
143.000000	84.085	108.6276
145.000000	84.017	108.3331
147.500000	83.949	107.8902
150.000000	83.885	107.2844
152.500000	83.814	106.7141
155.000000	83.731	106.4052
157.500000	83.667	105.8772
160.000000	83.592	105.3623
162.500000	83.499	104.8441
165.000000	83.383	104.5934
167.500000	83.301	104.0594
170.000000	83.208	103.6826
172.500000	83.124	103.2809
175.000000	83.003	102.8930
177.500000	82.909	102.6609
180.000000	82.803	102.6656
182.500000	82.709	102.3890
185.000000	82.596	101.9683
187.500000	82.494	102.0786
190.000000	82.396	102.3666
192.500000	82.309	102.7916
195.000000	82.273	103.4378
197.500000	82.330	103.9771
200.000000	82.454	104.2018
203.000000	82.644	103.6857
206.000000	82.750	102.4177
209.000000	82.765	101.2435
212.000000	82.729	100.2245
214.000000	82.695	99.5844
218.000000	82.627	98.5263
220.000000	82.586	98.1025
224.000000	82.486	97.2707
227.000000	82.431	96.7511
230.000000	82.381	96.3807
233.000000	82.333	95.8891
236.000000	82.283	95.4950
240.000000	82.212	95.0303
243.000000	82.162	94.6180
247.000000	82.121	94.1348
250.000000	82.074	93.8431
254.000000	81.996	93.4564
258.000000	81.967	92.9733
262.000000	81.899	92.6293
265.000000	81.874	92.3717
269.000000	81.815	92.0386
272.000000	81.779	91.7529
276.000000	81.740	91.3736
280.000000	81.710	91.1980
285.000000	81.654	90.7190
290.000000	81.606	90.3489
295.000000	81.569	89.9471
300.000000	81.528	89.6453
304.000000	81.493	89.3948
307.000000	81.479	89.0909
311.000000	81.450	88.9136
315.000000	81.430	88.6606
320.000000	81.401	88.3163
325.000000	81.368	88.0395
330.000000	81.351	87.7531
335.000000	81.318	87.5166
340.000000	81.291	87.2378
345.000000	81.273	86.9374
350.000000	81.261	86.7409
355.000000	81.251	86.4538
360.000000	81.241	86.3337
365.000000	81.217	86.0578
370.000000	81.202	85.8333
375.000000	81.201	85.6563
382.000000	81.199	85.3943
387.000000	81.188	85.2045
395.000000	81.189	84.8702
400.000000	81.182	84.7210
406.000000	81.182	84.5535
412.000000	81.188	84.3417
418.000000	81.187	84.1044
425.000000	81.198	84.0014
431.000000	81.199	83.8098
437.000000	81.211	83.6161
444.000000	81.224	83.4405
450.000000	81.233	83.3067
455.000000	81.247	83.2489
462.000000	81.256	83.0149
468.000000	81.279	82.8394
475.000000	81.289	82.7231
482.000000	81.311	82.7116
487.000000	81.321	82.6568
494.000000	81.334	82.4242
500.000000	81.359	82.3260
508.000000	81.381	82.2272
515.000000	81.402	82.2549
522.000000	81.423	82.0640
530.000000	81.456	82.0006
538.000000	81.482	81.9544
545.000000	81.507	81.8845
552.000000	81.541	81.8612
560.000000	81.590	81.7256
570.000000	81.622	81.6897
580.000000	81.669	81.7001
590.000000	81.719	81.6307
600.000000	81.778	81.5760
608.000000	81.824	81.6618
615.000000	81.851	81.5597
622.000000	81.894	81.5568
630.000000	81.953	81.5475
640.000000	82.002	81.5583
650.000000	82.057	81.6165
660.000000	82.120	81.6083
670.000000	82.190	81.6353
680.000000	82.257	81.6838
690.000000	82.320	81.7181
700.000000	82.390	81.7814
710.000000	82.454	81.8255
720.000000	82.529	81.8122
730.000000	82.612	81.9052
740.000000	82.677	81.9959
750.000000	82.767	82.0032
762.000000	82.874	81.9630
775.000000	82.991	81.7585
788.000000	83.093	81.2818
800.000000	83.065	80.5384
812.000000	83.038	81.3502
825.000000	83.061	81.4925
838.000000	83.119	82.6309
850.000000	83.244	83.2303
862.000000	83.388	83.5322
875.000000	83.524	83.8619
885.000000	83.620	84.0519
900.000000	83.771	84.3486
912.000000	83.911	84.5955
925.000000	84.059	84.7344
938.000000	84.192	84.8541
950.000000	84.302	85.0160
962.000000	84.434	85.2895
975.000000	84.603	85.4599
988.000000	84.764	85.5219
1000.000000	84.909	85.5951
1015.000000	85.085	85.6148
1030.000000	85.270	85.5058
1044.000000	85.442	85.4287
1060.000000	85.626	85.3301
1075.000000	85.793	85.2461
1090.000000	85.969	85.0477
1106.000000	86.152	84.7779
1120.000000	86.305	84.5912
1138.000000	86.491	84.2759
1150.000000	86.613	84.1006
1172.000000	86.839	83.5820
1180.000000	86.920	83.4046
1206.000000	87.162	82.8369
1220.000000	87.288	82.5078
1241.000000	87.478	81.9801
1250.000000	87.560	81.7632
1265.000000	87.684	81.3705
1280.000000	87.807	80.9915
1315.000000	88.079	80.1402
1320.000000	88.113	80.0705
1340.000000	88.272	79.5867
1360.000000	88.415	79.1462
1380.000000	88.549	78.7700
1400.000000	88.687	78.3275
1430.000000	88.884	77.7820
1450.000000	89.003	77.4660
1475.000000	89.157	77.0703
1500.000000	89.322	76.6588
1525.000000	89.476	76.3110
1550.000000	89.622	76.0269
1575.000000	89.782	75.7390
1600.000000	89.940	75.4444
1625.000000	90.095	75.1910
1650.000000	90.247	74.9503
1675.000000	90.406	74.6952
1700.000000	90.572	74.4584
1725.000000	90.731	74.2523
1750.000000	90.887	74.0415
1775.000000	91.049	73.7977
1800.000000	91.223	73.5383
1825.000000	91.394	73.3022
1850.000000	91.559	73.0674
1875.000000	91.728	72.8121
1900.000000	91.904	72.5236
1925.000000	92.081	72.2406
1950.000000	92.256	71.9261
1975.000000	92.424	71.6163
2000.000000	92.600	71.3067
2030.000000	92.829	70.8253
2060.000000	93.044	70.3501
2090.000000	93.257	69.8522
2120.000000	93.471	69.3365
2140.000000	93.616	68.9388
2180.000000	93.914	68.1113
2200.000000	94.058	67.6606
2240.000000	94.335	66.7353
2270.000000	94.548	65.9835
2300.000000	94.763	65.1965
2330.000000	94.972	64.3264
2360.000000	95.166	63.4825
2400.000000	95.419	62.2818
2430.000000	95.608	61.3545
2470.000000	95.861	60.0952
2500.000000	96.043	59.1494
2540.000000	96.305	57.7999
2580.000000	96.560	56.2040
2620.000000	96.814	54.5673
2650.000000	96.978	53.2566
2690.000000	97.188	51.4405
2720.000000	97.354	49.8193
2760.000000	97.532	47.8303
2800.000000	97.673	45.5168
2850.000000	97.768	43.0255
2900.000000	97.825	40.2259
2950.000000	97.890	38.0307
3000.000000	97.855	35.6311
3040.000000	97.818	34.2768
3070.000000	97.855	33.0010
3110.000000	97.832	31.6994
3150.000000	97.823	29.7800
3200.000000	97.700	28.1076
3250.000000	97.654	26.2308
3300.000000	97.590	25.0834
3350.000000	97.422	23.3436
3400.000000	97.300	21.3436
3450.000000	97.150	19.7833
3500.000000	97.024	19.3872
3550.000000	96.888	17.8245
3600.000000	96.706	17.8497
3650.000000	96.490	16.3833
3700.000000	96.389	15.4085
3750.000000	96.168	15.8075
3820.000000	96.001	14.7914
3870.000000	95.880	15.1853
3950.000000	95.722	14.8129
4000.000000	95.427	14.3406
4060.000000	95.227	14.6492
4120.000000	95.288	13.9226
4180.000000	95.161	14.5060
4250.000000	95.048	14.6451
4310.000000	94.976	15.2755
4370.000000	94.790	13.9758
4440.000000	94.648	14.3733
4500.000000	94.540	14.5673
4550.000000	94.485	14.4667
4620.000000	94.495	15.2761
4680.000000	94.309	15.0504
4750.000000	94.286	15.9563
4820.000000	94.143	15.1771
4870.000000	94.172	15.5033
4940.000000	94.142	16.1300
5000.000000	94.179	15.9286
5080.000000	93.988	16.5104
5150.000000	93.913	16.9321
5220.000000	93.854	16.6819
5300.000000	93.700	17.0920
5380.000000	93.542	17.2288
5450.000000	93.692	17.8596
5520.000000	93.601	18.2507
5600.000000	93.637	18.1473
5700.000000	93.444	17.7932
5800.000000	93.372	18.6274
5900.000000	93.425	19.0873
6000.000000	93.471	18.8755
6080.000000	93.365	18.8677
6150.000000	93.257	19.5938
6220.000000	93.271	19.2993
6300.000000	93.408	19.9904
6400.000000	93.606	19.7178
6500.000000	93.594	19.1522
6600.000000	93.811	20.7633
6700.000000	94.080	19.9044
6800.000000	94.369	19.9431
6900.000000	94.573	20.4871
7000.000000	94.747	19.4153
7100.000000	95.209	18.3370
7200.000000	95.684	17.4709
7300.000000	96.150	15.2240
7400.000000	96.490	14.2810
7500.000000	97.053	10.1436
7620.000000	97.652	7.1886
7750.000000	98.028	0.6051
7880.000000	98.441	-7.6406
8000.000000	98.752	-14.3481
8120.000000	98.200	-22.3578
8250.000000	97.420	-29.7937
8380.000000	96.447	-35.9393
8500.000000	95.582	-40.5463
8620.000000	94.345	-42.8309
8750.000000	93.404	-44.1597
8850.000000	92.514	-44.5465
9000.000000	91.337	-44.4865
9120.000000	90.520	-42.0444
9250.000000	89.607	-40.2206
9380.000000	88.773	-37.1613
9500.000000	88.170	-34.9297
9620.000000	87.393	-30.9471
9750.000000	86.841	-27.2949
9880.000000	86.357	-23.4209
10000.000000	86.099	-18.4670
10150.000000	85.784	-12.7541
10300.000000	85.472	-8.4110
10440.000000	85.509	-2.9863
10600.000000	85.392	1.9451
10750.000000	85.385	4.9456
10900.000000	85.508	9.5619
11060.000000	85.436	12.8131
11200.000000	85.736	16.1481
11380.000000	85.805	20.2081
11500.000000	85.890	21.2531
11720.000000	86.330	25.0018
11800.000000	86.452	25.7932
12060.000000	86.889	27.2487
12200.000000	87.033	28.1816
12410.000000	87.564	28.6698
12500.000000	87.839	28.7109
12650.000000	88.290	26.3807
12800.000000	88.705	22.3046
13150.000000	89.018	10.3158
13200.000000	89.039	9.1310
13400.000000	88.649	1.8871
13600.000000	88.154	-3.8195
13800.000000	87.774	-8.4609
14000.000000	87.102	-11.5587
14300.000000	86.766	-15.4097
14500.000000	86.552	-16.3062
14750.000000	86.858	-18.9449
15000.000000	87.173	-22.4667
15250.000000	87.372	-27.6437
15500.000000	87.311	-36.3513
15750.000000	86.322	-45.6418
16000.000000	84.581	-51.9503
16250.000000	83.197	-52.7236
16500.000000	81.442	-50.7236
16750.000000	79.981	-44.4985
17000.000000	78.582	-37.2347
17250.000000	77.372	-27.8148
17500.000000	76.211	-17.3135
17750.000000	75.315	-7.1117
18000.000000	74.473	5.5259
18250.000000	73.741	16.2323
18500.000000	73.052	29.0082
18750.000000	72.689	41.2583
19000.000000	72.238	51.4540
19250.000000	71.639	62.9576
19500.000000	71.488	73.5353
19750.000000	70.817	80.9576
