* Measurement data measured by REW V5.30.9
* Source: Microphone (Realtek USB2.0 Audio), MICROPHONE (Master Volume), L, volume: 0.500
* Format: 512k Log Swept Sine, 1 sweep at -12.0 dBFS with no timing reference
* Dated: 08 14, 24 11:41:06 AM
* REW Settings:
*  C-weighting compensation: Off
*  Target level: 75.0 dB
* Note: ; 
* Measurement: Wyvern Qing L
* Smoothing: None
* Frequency Step: 1/48 octave
* Start Frequency: 1.000 Hz
*
* Freq(Hz)	SPL(dB)	Phase(degrees)
1.000000	49.228	109.6347
1.015000	49.016	108.7526
1.030000	48.796	107.8460
1.044000	48.580	106.9746
1.060000	48.323	105.9448
1.075000	48.070	104.9428
1.090000	47.805	103.9016
1.106000	47.508	102.7654
1.120000	47.225	101.8642
1.138000	46.832	100.8441
1.150000	46.553	100.2362
1.172000	46.011	99.2356
1.180000	45.805	98.8991
1.206000	45.109	97.8603
1.220000	44.721	97.3111
1.241000	44.126	96.4592
1.250000	43.867	96.0729
1.265000	43.433	95.3859
1.280000	42.998	94.6287
1.315000	41.990	92.4845
1.320000	41.848	92.1249
1.340000	41.289	90.5257
1.360000	40.748	88.6362
1.380000	40.230	86.4122
1.400000	39.741	83.8094
1.430000	39.073	79.0986
1.450000	38.679	75.3558
1.475000	38.250	69.8770
1.500000	37.850	63.1249
1.525000	37.473	55.1923
1.550000	37.118	46.2854
1.575000	36.790	36.6106
1.600000	36.490	26.3743
1.625000	36.219	15.7827
1.650000	35.982	5.0421
1.675000	35.779	-5.6412
1.700000	35.612	-16.0608
1.725000	35.485	-26.0104
1.750000	35.398	-35.2837
1.775000	35.355	-43.6744
1.800000	35.357	-50.9762
1.825000	35.407	-56.9827
1.850000	35.518	-61.7001
1.875000	35.709	-65.5695
1.900000	35.972	-68.6790
1.925000	36.297	-71.0977
1.950000	36.674	-72.8945
1.975000	37.091	-74.1385
2.000000	37.539	-74.8989
2.030000	38.103	-75.2701
2.060000	38.678	-75.1635
2.090000	39.246	-74.6985
2.120000	39.790	-73.9944
2.140000	40.131	-73.4511
2.180000	40.734	-72.3462
2.200000	40.986	-71.8520
2.240000	41.412	-70.3163
2.270000	41.681	-68.5459
2.300000	41.918	-66.3391
2.330000	42.133	-63.7799
2.360000	42.337	-60.9526
2.400000	42.606	-56.9117
2.430000	42.820	-53.7868
2.470000	43.139	-49.6549
2.500000	43.417	-46.6912
2.540000	43.858	-43.0800
2.580000	44.399	-39.9778
2.620000	45.034	-36.9806
2.650000	45.559	-34.7452
2.690000	46.311	-31.8097
2.720000	46.904	-29.6612
2.760000	47.717	-26.8955
2.800000	48.540	-24.2752
2.850000	49.555	-21.2581
2.900000	50.520	-18.5921
2.950000	51.408	-16.3568
3.000000	52.270	-14.6510
3.040000	52.950	-13.6029
3.070000	53.452	-12.9567
3.110000	54.110	-12.2269
3.150000	54.753	-11.5851
3.200000	55.530	-10.8025
3.250000	56.275	-9.9173
3.300000	56.983	-8.7976
3.350000	57.651	-7.5782
3.400000	58.285	-6.3861
3.450000	58.887	-5.1770
3.500000	59.461	-3.9068
3.550000	60.011	-2.5315
3.600000	60.541	-1.0067
3.650000	61.055	0.7117
3.700000	61.551	2.6657
3.750000	62.022	4.8456
3.820000	62.643	8.1809
3.870000	63.064	10.6962
3.950000	63.706	14.8096
4.000000	64.094	17.3563
4.060000	64.547	20.3535
4.120000	64.976	23.4724
4.180000	65.384	26.6611
4.250000	65.839	30.3458
4.310000	66.217	33.3675
4.370000	66.589	36.1652
4.440000	67.016	39.0816
4.500000	67.368	41.3853
4.550000	67.654	43.1775
4.620000	68.045	45.4952
4.680000	68.377	47.3071
4.750000	68.766	49.2212
4.820000	69.157	50.9027
4.870000	69.433	51.9494
4.940000	69.817	53.2252
5.000000	70.146	54.1669
5.080000	70.587	55.2446
5.150000	70.978	56.0526
5.220000	71.372	56.6869
5.300000	71.825	57.2068
5.380000	72.280	57.5508
5.450000	72.676	57.7429
5.520000	73.071	57.8577
5.600000	73.523	57.8435
5.700000	74.088	57.6293
5.800000	74.643	57.2610
5.900000	75.183	56.7951
6.000000	75.712	56.1820
6.080000	76.127	55.6040
6.150000	76.480	55.0586
6.220000	76.823	54.4962
6.300000	77.203	53.8239
6.400000	77.660	52.9149
6.500000	78.099	51.9658
6.600000	78.519	51.0152
6.700000	78.917	50.0508
6.800000	79.296	49.0690
6.900000	79.660	48.1018
7.000000	80.010	47.1757
7.100000	80.343	46.2714
7.200000	80.663	45.3967
7.300000	80.977	44.5688
7.400000	81.285	43.7963
7.500000	81.585	43.0695
7.620000	81.940	42.2636
7.750000	82.329	41.4844
7.880000	82.718	40.8122
8.000000	83.080	40.2500
8.120000	83.447	39.7154
8.250000	83.852	39.1911
8.380000	84.259	38.6794
8.500000	84.635	38.1833
8.620000	85.013	37.6820
8.750000	85.419	37.1163
8.850000	85.726	36.6533
9.000000	86.179	35.9207
9.120000	86.532	35.3089
9.250000	86.902	34.6192
9.380000	87.260	33.8996
9.500000	87.580	33.2369
9.620000	87.889	32.5882
9.750000	88.211	31.8912
9.880000	88.524	31.2149
10.000000	88.804	30.6140
10.150000	89.143	29.8902
10.300000	89.475	29.2069
10.440000	89.777	28.6099
10.600000	90.115	27.9612
10.750000	90.428	27.3806
10.900000	90.735	26.8247
11.060000	91.056	26.2352
11.200000	91.332	25.7239
11.380000	91.678	25.0735
11.500000	91.902	24.6426
11.720000	92.301	23.8649
11.800000	92.442	23.5876
12.060000	92.884	22.7057
12.200000	93.113	22.2441
12.410000	93.444	21.5738
12.500000	93.583	21.3021
12.650000	93.809	20.8721
12.800000	94.031	20.4544
13.150000	94.546	19.4922
13.200000	94.588	19.3560
13.400000	94.638	18.8089
13.600000	94.634	18.2839
13.800000	94.624	17.7967
14.000000	94.616	17.2999
14.300000	94.614	16.5369
14.500000	94.611	16.0534
14.750000	94.602	15.4819
15.000000	94.589	14.9368
15.250000	94.595	14.3210
15.500000	94.598	13.7156
15.750000	94.594	13.1417
16.000000	94.590	12.5877
16.250000	94.597	12.0342
16.500000	94.613	11.4886
16.750000	94.626	10.9890
17.000000	94.649	10.4684
17.250000	94.680	9.9120
17.500000	94.714	9.3051
17.750000	94.736	8.6809
18.000000	94.750	8.0440
18.250000	94.762	7.3957
18.500000	94.762	6.8258
18.750000	94.755	6.3490
19.000000	94.746	5.9775
19.250000	94.755	5.6500
19.500000	94.775	5.3432
19.750000	94.800	5.0320
20.000000	94.829	4.6477
20.299999	94.861	4.0835
20.600000	94.876	3.4510
20.900000	94.864	2.8374
21.200001	94.834	2.3028
21.400000	94.809	2.0320
21.799999	94.756	1.7053
22.000000	94.737	1.6163
22.400000	94.732	1.4403
22.700001	94.745	1.2652
23.000000	94.765	0.9846
23.299999	94.789	0.5562
23.600000	94.803	0.0320
24.000000	94.803	-0.7516
24.299999	94.792	-1.3697
24.700001	94.763	-2.1707
25.000000	94.736	-2.7395
25.400000	94.704	-3.4951
25.799999	94.671	-4.2377
26.200001	94.636	-5.0003
26.500000	94.608	-5.5654
26.900000	94.560	-6.2230
27.200001	94.526	-6.6268
27.600000	94.498	-7.0572
28.000000	94.495	-7.4447
28.500000	94.519	-8.0883
29.000000	94.522	-8.8911
29.500000	94.494	-9.6129
30.000000	94.462	-10.0105
30.400000	94.472	-10.2678
30.700001	94.496	-10.5601
31.100000	94.520	-11.2179
31.500000	94.497	-12.1048
32.000000	94.370	-13.0516
32.500000	94.189	-13.3089
33.000000	94.062	-12.8498
33.500000	94.055	-12.3516
34.000000	94.106	-12.4187
34.500000	94.124	-13.0690
35.000000	94.062	-13.8048
35.500000	93.963	-14.1995
36.000000	93.894	-14.2367
36.500000	93.888	-14.3098
37.000000	93.904	-14.7084
37.500000	93.894	-15.3520
38.200001	93.833	-15.9987
38.700001	93.826	-16.2380
39.500000	93.877	-17.3050
40.000000	93.829	-18.4382
40.599998	93.644	-19.3659
41.200001	93.460	-19.1620
41.799999	93.421	-18.6013
42.500000	93.462	-18.8008
43.099998	93.419	-19.3760
43.700001	93.339	-19.6294
44.400002	93.298	-19.7570
45.000000	93.275	-20.1676
45.500000	93.228	-20.5803
46.200001	93.150	-20.9247
46.799999	93.114	-21.1959
47.500000	93.067	-21.7206
48.200001	92.988	-22.1659
48.700001	92.939	-22.3573
49.400002	92.889	-22.6566
50.000000	92.838	-23.0068
50.799999	92.746	-23.3556
51.500000	92.677	-23.4592
52.200001	92.642	-23.5608
53.000000	92.621	-23.9567
53.799999	92.569	-24.6062
54.500000	92.489	-25.0771
55.200001	92.410	-25.3802
56.000000	92.325	-25.6571
57.000000	92.227	-25.7154
58.000000	92.206	-25.7586
59.000000	92.154	-26.3135
60.000000	92.036	-26.4032
60.799999	92.021	-26.2647
61.500000	92.039	-26.6641
62.200001	91.983	-27.4028
63.000000	91.852	-27.7528
64.000000	91.803	-27.8043
65.000000	91.732	-28.5994
66.000000	91.601	-28.6509
67.000000	91.581	-28.7784
68.000000	91.476	-29.0940
69.000000	91.428	-28.7987
70.000000	91.421	-29.1424
71.000000	91.348	-29.6108
72.000000	91.256	-30.0552
73.000000	91.141	-30.2769
74.000000	91.076	-30.3867
75.000000	91.013	-30.6561
76.199997	90.953	-30.8709
77.500000	90.872	-31.1863
78.800003	90.799	-31.2757
80.000000	90.717	-31.4845
81.199997	90.638	-31.5306
82.500000	90.560	-31.8228
83.800003	90.461	-32.0593
85.000000	90.376	-32.3186
86.199997	90.288	-32.3906
87.500000	90.226	-32.5939
88.500000	90.152	-32.6227
90.000000	90.106	-32.8501
91.199997	89.992	-32.9372
92.500000	89.953	-33.0019
93.800003	89.816	-33.1049
95.000000	89.787	-32.9189
96.199997	89.700	-33.2310
97.500000	89.629	-33.2633
98.800003	89.503	-33.4432
100.000000	89.457	-33.0882
101.500000	89.429	-33.4062
103.000000	89.324	-33.6295
104.400002	89.252	-33.5682
106.000000	89.151	-33.4203
107.500000	89.127	-33.8407
109.000000	88.953	-33.6671
110.599998	88.932	-33.6563
112.000000	88.846	-33.7095
113.800003	88.783	-33.6807
115.000000	88.726	-33.7503
117.199997	88.647	-33.6339
118.000000	88.600	-33.8004
120.599998	88.605	-33.4979
122.000000	88.402	-33.8753
124.099998	88.339	-33.7445
125.000000	88.271	-33.6822
126.500000	88.217	-33.7225
128.000000	88.149	-33.6300
131.500000	88.049	-33.6358
132.000000	88.035	-33.7550
134.000000	87.918	-33.4862
136.000000	87.843	-33.3825
138.000000	87.751	-33.3275
140.000000	87.683	-33.3773
143.000000	87.569	-33.2054
145.000000	87.512	-32.8900
147.500000	87.438	-32.7709
150.000000	87.363	-32.6184
152.500000	87.297	-32.6392
155.000000	87.214	-32.6039
157.500000	87.146	-32.2547
160.000000	87.069	-32.1528
162.500000	86.973	-32.0924
165.000000	86.887	-32.0736
167.500000	86.790	-31.9102
170.000000	86.705	-31.7546
172.500000	86.604	-31.5040
175.000000	86.520	-31.4438
177.500000	86.455	-31.2220
180.000000	86.381	-31.1447
182.500000	86.298	-30.7392
185.000000	86.202	-30.6055
187.500000	86.121	-30.4762
190.000000	86.066	-30.2781
192.500000	85.966	-29.9804
195.000000	85.900	-30.0320
197.500000	85.841	-29.6809
200.000000	85.760	-29.4943
203.000000	85.706	-29.1831
206.000000	85.606	-29.0220
209.000000	85.568	-28.7454
212.000000	85.490	-28.5500
214.000000	85.437	-28.2110
218.000000	85.368	-27.8747
220.000000	85.311	-27.6506
224.000000	85.233	-27.2458
227.000000	85.177	-26.7739
230.000000	85.139	-26.4554
233.000000	85.067	-26.0193
236.000000	85.051	-25.7584
240.000000	84.986	-25.3933
243.000000	84.972	-25.1873
247.000000	84.926	-24.9054
250.000000	84.882	-24.7089
254.000000	84.807	-24.4643
258.000000	84.743	-24.0693
262.000000	84.657	-23.7937
265.000000	84.570	-23.4264
269.000000	84.569	-23.2518
272.000000	84.518	-23.0121
276.000000	84.465	-22.6726
280.000000	84.414	-22.2884
285.000000	84.326	-21.9100
290.000000	84.253	-21.3629
295.000000	84.180	-20.9715
300.000000	84.119	-20.5031
304.000000	84.065	-20.0754
307.000000	84.024	-19.7742
311.000000	83.978	-19.4346
315.000000	83.924	-18.9871
320.000000	83.879	-18.4882
325.000000	83.820	-17.9960
330.000000	83.763	-17.3305
335.000000	83.703	-16.8527
340.000000	83.680	-16.2741
345.000000	83.630	-15.5196
350.000000	83.639	-14.9617
355.000000	83.600	-14.6971
360.000000	83.619	-14.1268
365.000000	83.601	-13.9944
370.000000	83.597	-13.6761
375.000000	83.555	-13.3372
382.000000	83.472	-12.9798
387.000000	83.460	-12.6854
395.000000	83.411	-12.1899
400.000000	83.373	-11.8449
406.000000	83.317	-11.3346
412.000000	83.285	-10.8321
418.000000	83.237	-10.2678
425.000000	83.212	-9.7338
431.000000	83.167	-9.2515
437.000000	83.150	-8.7991
444.000000	83.112	-8.2490
450.000000	83.083	-7.7149
455.000000	83.065	-7.2333
462.000000	83.054	-6.7375
468.000000	83.023	-6.2829
475.000000	83.007	-5.8364
482.000000	82.987	-5.1979
487.000000	82.968	-4.8475
494.000000	82.936	-4.3256
500.000000	82.922	-3.9058
508.000000	82.891	-3.3447
515.000000	82.879	-2.8059
522.000000	82.857	-2.2557
530.000000	82.860	-1.7581
538.000000	82.822	-1.1051
545.000000	82.792	-0.5604
552.000000	82.800	-0.1201
560.000000	82.782	0.5087
570.000000	82.778	1.2079
580.000000	82.781	1.8859
590.000000	82.762	2.6559
600.000000	82.752	3.4036
608.000000	82.750	3.9048
615.000000	82.745	4.4702
622.000000	82.746	4.8608
630.000000	82.725	5.5786
640.000000	82.731	6.3149
650.000000	82.738	7.0252
660.000000	82.745	7.6979
670.000000	82.722	8.4403
680.000000	82.746	9.1796
690.000000	82.743	9.9456
700.000000	82.747	10.6370
710.000000	82.769	11.3352
720.000000	82.774	12.1107
730.000000	82.781	12.8048
740.000000	82.808	13.5553
750.000000	82.817	14.3007
762.000000	82.850	15.1868
775.000000	82.875	16.1552
788.000000	82.915	17.1655
800.000000	82.956	18.1248
812.000000	82.978	19.0503
825.000000	83.018	20.1063
838.000000	83.080	21.0131
850.000000	83.129	21.9993
862.000000	83.201	22.9114
875.000000	83.228	23.8859
885.000000	83.317	24.7859
900.000000	83.414	25.9301
912.000000	83.492	26.7882
925.000000	83.595	27.8296
938.000000	83.708	28.8698
950.000000	83.823	29.5844
962.000000	83.972	30.4789
975.000000	84.083	31.2032
988.000000	84.233	31.9362
1000.000000	84.379	32.5784
1015.000000	84.564	33.0724
1030.000000	84.746	33.6656
1044.000000	84.887	34.0726
1060.000000	85.063	34.3986
1075.000000	85.216	34.6174
1090.000000	85.367	34.8413
1106.000000	85.505	35.0458
1120.000000	85.620	35.2306
1138.000000	85.776	35.4788
1150.000000	85.852	35.5669
1172.000000	86.020	35.9422
1180.000000	86.060	36.0479
1206.000000	86.227	36.5978
1220.000000	86.320	37.2115
1241.000000	86.596	38.2683
1250.000000	86.747	38.2007
1265.000000	86.934	37.7808
1280.000000	87.046	37.4378
1315.000000	87.272	37.2203
1320.000000	87.300	37.2069
1340.000000	87.429	37.2631
1360.000000	87.553	37.3059
1380.000000	87.683	37.3389
1400.000000	87.818	37.4283
1430.000000	88.017	37.5197
1450.000000	88.150	37.6141
1475.000000	88.315	37.7169
1500.000000	88.473	37.8521
1525.000000	88.648	37.8751
1550.000000	88.819	37.8721
1575.000000	88.992	37.8826
1600.000000	89.166	37.8564
1625.000000	89.332	37.8297
1650.000000	89.508	37.7741
1675.000000	89.688	37.6505
1700.000000	89.861	37.5372
1725.000000	90.036	37.4102
1750.000000	90.210	37.2316
1775.000000	90.387	36.9848
1800.000000	90.569	36.7775
1825.000000	90.750	36.4717
1850.000000	90.925	36.1649
1875.000000	91.100	35.7802
1900.000000	91.273	35.4112
1925.000000	91.435	34.8765
1950.000000	91.609	34.4639
1975.000000	91.771	33.8640
2000.000000	91.941	33.3449
2030.000000	92.132	32.5516
2060.000000	92.328	31.7268
2090.000000	92.513	30.8591
2120.000000	92.694	29.9096
2140.000000	92.814	29.2908
2180.000000	93.023	27.8449
2200.000000	93.129	27.1785
2240.000000	93.322	25.5779
2270.000000	93.444	24.4826
2300.000000	93.564	23.2667
2330.000000	93.678	22.0137
2360.000000	93.767	20.7588
2400.000000	93.864	19.2025
2430.000000	93.931	17.8563
2470.000000	93.998	16.3027
2500.000000	94.037	15.0982
2540.000000	94.084	13.6065
2580.000000	94.111	12.0853
2620.000000	94.141	10.6774
2650.000000	94.135	9.6269
2690.000000	94.115	8.3607
2720.000000	94.118	7.2842
2760.000000	94.097	6.3119
2800.000000	94.076	4.9939
2850.000000	94.004	3.9667
2900.000000	93.944	2.6480
2950.000000	93.926	1.9568
3000.000000	93.862	0.9020
3040.000000	93.814	0.5083
3070.000000	93.843	-0.0323
3110.000000	93.819	-0.4167
3150.000000	93.820	-1.3691
3200.000000	93.729	-1.9443
3250.000000	93.749	-2.8159
3300.000000	93.763	-3.0216
3350.000000	93.690	-3.9451
3400.000000	93.686	-5.2879
3450.000000	93.665	-6.2716
3500.000000	93.678	-6.3866
3550.000000	93.684	-7.7835
3600.000000	93.647	-7.7437
3650.000000	93.589	-9.3468
3700.000000	93.639	-10.4921
3750.000000	93.578	-10.6057
3820.000000	93.635	-12.6282
3870.000000	93.651	-13.1086
3950.000000	93.696	-15.4371
4000.000000	93.496	-17.2776
4060.000000	93.388	-18.8350
4120.000000	93.469	-21.3808
4180.000000	93.355	-22.9004
4250.000000	93.179	-25.2303
4310.000000	93.005	-26.8007
4370.000000	92.691	-30.1842
4440.000000	92.349	-32.0404
4500.000000	92.014	-33.6860
4550.000000	91.772	-35.1544
4620.000000	91.461	-36.1978
4680.000000	90.988	-37.7963
4750.000000	90.590	-38.2390
4820.000000	90.045	-40.0239
4870.000000	89.780	-40.2790
4940.000000	89.352	-40.1360
5000.000000	89.043	-40.5735
5080.000000	88.405	-40.0634
5150.000000	87.935	-39.3376
5220.000000	87.498	-39.2959
5300.000000	86.909	-37.9833
5380.000000	86.323	-36.3420
5450.000000	86.317	-34.7057
5520.000000	85.932	-33.8625
5600.000000	85.594	-32.8658
5700.000000	85.033	-31.3383
5800.000000	84.605	-28.4708
5900.000000	84.381	-25.9875
6000.000000	84.150	-23.9565
6080.000000	83.837	-22.1817
6150.000000	83.572	-19.8224
6220.000000	83.422	-18.3699
6300.000000	83.413	-15.6692
6400.000000	83.448	-13.4655
6500.000000	83.323	-11.2547
6600.000000	83.418	-7.3050
6700.000000	83.611	-5.4238
6800.000000	83.846	-2.6855
6900.000000	84.015	0.4384
7000.000000	84.204	2.2196
7100.000000	84.660	4.2180
7200.000000	85.215	6.3812
7300.000000	85.846	7.2020
7400.000000	86.420	9.4048
7500.000000	87.332	8.1100
7620.000000	88.523	8.1166
7750.000000	89.799	2.8938
7880.000000	91.149	-7.6275
8000.000000	91.979	-20.2689
8120.000000	91.283	-35.2696
8250.000000	89.656	-47.5191
8380.000000	87.675	-54.5294
8500.000000	86.013	-57.6126
8620.000000	84.167	-57.1454
8750.000000	82.713	-54.7767
8850.000000	81.517	-52.2212
9000.000000	79.964	-47.3383
9120.000000	78.958	-41.0328
9250.000000	77.912	-34.4130
9380.000000	77.035	-26.4745
9500.000000	76.486	-18.8454
9620.000000	75.927	-9.2481
9750.000000	75.961	0.5485
9880.000000	76.440	9.3024
10000.000000	77.311	16.7029
10150.000000	78.436	21.0386
10300.000000	79.169	20.1620
10440.000000	79.600	19.7880
10600.000000	79.532	19.1921
10750.000000	79.352	18.7169
10900.000000	79.271	20.9829
11060.000000	78.985	22.8197
11200.000000	79.181	25.1278
11380.000000	79.099	28.2234
11500.000000	79.079	28.5435
11720.000000	79.343	32.9754
11800.000000	79.555	34.0718
12060.000000	80.224	33.8570
12200.000000	80.442	32.8440
12410.000000	80.835	29.8504
12500.000000	80.931	28.3850
12650.000000	80.939	24.3126
12800.000000	80.805	20.0669
13150.000000	79.894	12.3664
13200.000000	79.779	12.4781
13400.000000	79.023	10.3214
13600.000000	78.413	10.0779
13800.000000	78.046	10.5087
14000.000000	77.455	12.2346
14300.000000	77.316	15.3656
14500.000000	77.241	19.0274
14750.000000	77.743	22.5522
15000.000000	78.477	26.2103
15250.000000	79.520	28.7971
15500.000000	81.030	25.8548
15750.000000	82.280	15.1432
16000.000000	82.124	-2.7299
16250.000000	80.748	-16.4464
16500.000000	78.308	-22.8154
16750.000000	76.044	-21.6355
17000.000000	73.875	-16.4204
17250.000000	72.219	-7.2130
17500.000000	70.793	2.3557
17750.000000	69.911	11.0950
18000.000000	69.124	20.5849
18250.000000	68.427	26.7654
18500.000000	67.849	34.1161
18750.000000	67.882	37.4934
19000.000000	68.165	28.7927
19250.000000	60.162	38.3999
19500.000000	63.991	46.4395
19750.000000	64.390	38.4451
