* Measurement data measured by REW V5.30.9
* Source: Headset (Odo By VECLAN.COM), MICROPHONE (Master Volume), L, volume: 0.250
* Format: 512k Log Swept Sine, 1 sweep at -12.0 dBFS with no timing reference
* Dated: 09 30, 24 12:56:50 PM
* REW Settings:
*  C-weighting compensation: Off
*  Target level: 75.0 dB
* Note: ; 
* Measurement: xtra transparency R
* Smoothing: None
* Frequency Step: 1/48 octave
* Start Frequency: 1.000 Hz
*
* Freq(Hz)	SPL(dB)	Phase(degrees)
1.000000	24.494	-24.7403
1.015000	24.516	-22.1451
1.030000	24.566	-19.7421
1.044000	24.640	-17.7008
1.060000	24.758	-15.6396
1.075000	24.906	-14.0031
1.090000	25.089	-12.6852
1.106000	25.329	-11.6442
1.120000	25.585	-10.9329
1.138000	25.975	-10.2454
1.150000	26.270	-9.9210
1.172000	26.877	-9.5857
1.180000	27.118	-9.5421
1.206000	27.960	-9.6643
1.220000	28.448	-9.8843
1.241000	29.216	-10.3944
1.250000	29.557	-10.6734
1.265000	30.137	-11.2110
1.280000	30.729	-11.8307
1.315000	32.135	-13.5402
1.320000	32.337	-13.8091
1.340000	33.140	-14.9319
1.360000	33.932	-16.1124
1.380000	34.702	-17.3270
1.400000	35.443	-18.5522
1.430000	36.479	-20.3582
1.450000	37.107	-21.5069
1.475000	37.811	-22.8657
1.500000	38.473	-24.3427
1.525000	39.106	-25.9738
1.550000	39.712	-27.7391
1.575000	40.295	-29.6187
1.600000	40.856	-31.5928
1.625000	41.397	-33.6415
1.650000	41.921	-35.7449
1.675000	42.430	-37.8833
1.700000	42.925	-40.0366
1.725000	43.410	-42.1851
1.750000	43.886	-44.3089
1.775000	44.356	-46.3881
1.800000	44.821	-48.4028
1.825000	45.284	-50.3332
1.850000	45.744	-52.1898
1.875000	46.190	-54.0347
1.900000	46.625	-55.8701
1.925000	47.048	-57.6952
1.950000	47.460	-59.5092
1.975000	47.862	-61.3113
2.000000	48.255	-63.1007
2.030000	48.714	-65.2302
2.060000	49.163	-67.3388
2.090000	49.601	-69.4253
2.120000	50.030	-71.4883
2.140000	50.312	-72.8500
2.180000	50.867	-75.5383
2.200000	51.141	-76.8643
2.240000	51.676	-79.4826
2.270000	52.064	-81.4182
2.300000	52.441	-83.3303
2.330000	52.809	-85.2192
2.360000	53.167	-87.0855
2.400000	53.631	-89.5393
2.430000	53.970	-91.3544
2.470000	54.411	-93.7415
2.500000	54.735	-95.5076
2.540000	55.157	-97.8312
2.580000	55.570	-100.1195
2.620000	55.970	-102.3696
2.650000	56.260	-104.0321
2.690000	56.636	-106.2155
2.720000	56.910	-107.8285
2.760000	57.265	-109.9469
2.800000	57.609	-112.0289
2.850000	58.027	-114.5810
2.900000	58.432	-117.0782
2.950000	58.826	-119.5212
3.000000	59.204	-121.9078
3.040000	59.494	-123.7765
3.070000	59.706	-125.1545
3.110000	59.980	-126.9606
3.150000	60.247	-128.7314
3.200000	60.570	-130.8957
3.250000	60.885	-133.0057
3.300000	61.191	-135.0621
3.350000	61.487	-137.0624
3.400000	61.771	-139.0056
3.450000	62.044	-140.8937
3.500000	62.307	-142.7285
3.550000	62.563	-144.5117
3.600000	62.813	-146.2453
3.650000	63.059	-147.9310
3.700000	63.299	-149.5663
3.750000	63.531	-151.1445
3.820000	63.844	-153.2657
3.870000	64.061	-154.7239
3.950000	64.399	-156.9708
4.000000	64.607	-158.3282
4.060000	64.855	-159.9117
4.120000	65.098	-161.4265
4.180000	65.334	-162.8794
4.250000	65.605	-164.5110
4.310000	65.834	-165.8678
4.370000	66.062	-167.1980
4.440000	66.326	-168.7191
4.500000	66.550	-169.9760
4.550000	66.734	-170.9953
4.620000	66.990	-172.3904
4.680000	67.207	-173.5665
4.750000	67.456	-174.9289
4.820000	67.702	-176.2813
4.870000	67.876	-177.2323
4.940000	68.117	-178.5462
5.000000	68.321	-179.6595
5.080000	68.585	178.8691
5.150000	68.811	177.5886
5.220000	69.031	176.3138
5.300000	69.276	174.8689
5.380000	69.514	173.4431
5.450000	69.715	172.2161
5.520000	69.910	171.0113
5.600000	70.123	169.6501
5.700000	70.378	167.9817
5.800000	70.621	166.3700
5.900000	70.853	164.8333
6.000000	71.071	163.3593
6.080000	71.238	162.2278
6.150000	71.381	161.2770
6.220000	71.521	160.3668
6.300000	71.678	159.3799
6.400000	71.868	158.2212
6.500000	72.054	157.1335
6.600000	72.241	156.1039
6.700000	72.430	155.1470
6.800000	72.618	154.2564
6.900000	72.808	153.4006
7.000000	73.003	152.5546
7.100000	73.202	151.7428
7.200000	73.404	150.9488
7.300000	73.606	150.1435
7.400000	73.810	149.3127
7.500000	74.016	148.4729
7.620000	74.262	147.4425
7.750000	74.521	146.2822
7.880000	74.776	145.0743
8.000000	75.003	143.9359
8.120000	75.219	142.7877
8.250000	75.443	141.5192
8.380000	75.655	140.2558
8.500000	75.841	139.1163
8.620000	76.016	137.9899
8.750000	76.196	136.8027
8.850000	76.331	135.9250
9.000000	76.523	134.6578
9.120000	76.672	133.6833
9.250000	76.832	132.6692
9.380000	76.989	131.6989
9.500000	77.132	130.8245
9.620000	77.277	129.9646
9.750000	77.434	129.0550
9.880000	77.585	128.1494
10.000000	77.715	127.3101
10.150000	77.868	126.2628
10.300000	78.013	125.2110
10.440000	78.142	124.2219
10.600000	78.281	123.0950
10.750000	78.407	122.0473
10.900000	78.528	121.0089
11.060000	78.651	119.9279
11.200000	78.754	119.0031
11.380000	78.883	117.8460
11.500000	78.967	117.0974
11.720000	79.117	115.7608
11.800000	79.172	115.2839
12.060000	79.347	113.7655
12.200000	79.438	112.9568
12.410000	79.574	111.7574
12.500000	79.635	111.2475
12.650000	79.742	110.4017
12.800000	79.849	109.5687
13.150000	80.085	107.6904
13.200000	80.117	107.4325
13.400000	80.245	106.4280
13.600000	80.372	105.4670
13.800000	80.499	104.5522
14.000000	80.627	103.6661
14.300000	80.824	102.3785
14.500000	80.957	101.5262
14.750000	81.124	100.4585
15.000000	81.289	99.3854
15.250000	81.450	98.3166
15.500000	81.607	97.2679
15.750000	81.761	96.2467
16.000000	81.916	95.2596
16.250000	82.075	94.2916
16.500000	82.238	93.3304
16.750000	82.404	92.3553
17.000000	82.570	91.3527
17.250000	82.733	90.3233
17.500000	82.892	89.2710
17.750000	83.047	88.2153
18.000000	83.197	87.1643
18.250000	83.345	86.1269
18.500000	83.495	85.0950
18.750000	83.646	84.0515
19.000000	83.800	82.9797
19.250000	83.955	81.8528
19.500000	84.107	80.6666
19.750000	84.253	79.4190
20.000000	84.389	78.1252
20.299999	84.539	76.5403
20.600000	84.676	74.9454
20.900000	84.801	73.3568
21.200001	84.918	71.7706
21.400000	84.992	70.7020
21.799999	85.126	68.5240
22.000000	85.183	67.4159
22.400000	85.272	65.1928
22.700001	85.315	63.5737
23.000000	85.342	62.0504
23.299999	85.360	60.6417
23.600000	85.376	59.3296
24.000000	85.402	57.6639
24.299999	85.421	56.4207
24.700001	85.436	54.7498
25.000000	85.430	53.5293
25.400000	85.403	52.0432
25.799999	85.368	50.7970
26.200001	85.348	49.7516
26.500000	85.348	49.0137
26.900000	85.363	47.9908
27.200001	85.373	47.1745
27.600000	85.375	46.0713
28.000000	85.366	45.0458
28.500000	85.356	43.9153
29.000000	85.361	42.8280
29.500000	85.363	41.6888
30.000000	85.346	40.6101
30.400000	85.328	39.9029
30.700001	85.323	39.4638
31.100000	85.338	38.9084
31.500000	85.371	38.2789
32.000000	85.416	37.3180
32.500000	85.441	36.2498
33.000000	85.442	35.2213
33.500000	85.426	34.3271
34.000000	85.407	33.6441
34.500000	85.413	33.1747
35.000000	85.468	32.7276
35.500000	85.554	31.9924
36.000000	85.617	30.9128
36.500000	85.620	29.8009
37.000000	85.595	29.0045
37.500000	85.599	28.4618
38.200001	85.656	27.4328
38.700001	85.660	26.4112
39.500000	85.578	25.2430
40.000000	85.556	24.9371
40.599998	85.598	24.4592
41.200001	85.642	23.5584
41.799999	85.640	22.5634
42.500000	85.620	21.6588
43.099998	85.625	20.9634
43.700001	85.640	20.1875
44.400002	85.647	19.2637
45.000000	85.652	18.5628
45.500000	85.666	18.0396
46.200001	85.707	17.2836
46.799999	85.747	16.5117
47.500000	85.773	15.5305
48.200001	85.777	14.6172
48.700001	85.773	14.0172
49.400002	85.756	13.2735
50.000000	85.743	12.8192
50.799999	85.778	12.2935
51.500000	85.835	11.4794
52.200001	85.848	10.3909
53.000000	85.805	9.3431
53.799999	85.771	8.6344
54.500000	85.774	8.0487
55.200001	85.790	7.3058
56.000000	85.779	6.3329
57.000000	85.737	5.4513
58.000000	85.753	4.6542
59.000000	85.746	3.5923
60.000000	85.728	2.7999
60.799999	85.733	2.0778
61.500000	85.712	1.4177
62.200001	85.688	0.9879
63.000000	85.703	0.5234
64.000000	85.707	-0.4546
65.000000	85.652	-1.1365
66.000000	85.651	-1.6560
67.000000	85.639	-2.4550
68.000000	85.616	-3.1151
69.000000	85.614	-3.7804
70.000000	85.640	-4.5154
71.000000	85.658	-5.5588
72.000000	85.637	-6.3489
73.000000	85.660	-7.0366
74.000000	85.659	-7.7438
75.000000	85.699	-8.2520
76.199997	85.722	-9.3824
77.500000	85.722	-10.1466
78.800003	85.731	-11.2892
80.000000	85.760	-12.0140
81.199997	85.818	-13.3929
82.500000	85.813	-14.7224
83.800003	85.839	-16.0767
85.000000	85.855	-17.4353
86.199997	85.845	-18.9368
87.500000	85.822	-20.4650
88.500000	85.795	-21.7717
90.000000	85.728	-23.6764
91.199997	85.645	-25.2951
92.500000	85.535	-26.8104
93.800003	85.411	-28.4120
95.000000	85.272	-29.6791
96.199997	85.135	-30.8862
97.500000	84.974	-32.0685
98.800003	84.812	-33.1162
100.000000	84.650	-34.0586
101.500000	84.445	-34.8728
103.000000	84.253	-35.9190
104.400002	84.078	-36.5409
106.000000	83.882	-37.5461
107.500000	83.738	-38.4334
109.000000	83.515	-38.8955
110.599998	83.372	-39.5986
112.000000	83.251	-39.8253
113.800003	83.015	-40.9459
115.000000	82.886	-41.1001
117.199997	82.662	-41.7390
118.000000	82.564	-42.0038
120.599998	82.386	-42.5854
122.000000	82.176	-43.0984
124.099998	81.977	-43.5914
125.000000	81.878	-43.8538
126.500000	81.728	-44.0957
128.000000	81.603	-44.3405
131.500000	81.284	-45.0742
132.000000	81.237	-45.1628
134.000000	81.021	-45.4009
136.000000	80.813	-45.8623
138.000000	80.653	-45.8850
140.000000	80.451	-46.0421
143.000000	80.160	-46.3192
145.000000	79.970	-46.4001
147.500000	79.729	-46.4834
150.000000	79.501	-46.2598
152.500000	79.259	-46.1556
155.000000	79.039	-46.0720
157.500000	78.827	-45.8611
160.000000	78.610	-45.3365
162.500000	78.386	-44.8395
165.000000	78.160	-44.5332
167.500000	77.946	-43.9814
170.000000	77.746	-43.2354
172.500000	77.558	-42.8333
175.000000	77.334	-41.8331
177.500000	77.218	-41.4031
180.000000	77.010	-40.2712
182.500000	76.882	-39.3326
185.000000	76.727	-38.8948
187.500000	76.581	-38.0436
190.000000	76.480	-37.1147
192.500000	76.353	-36.0972
195.000000	76.244	-35.5631
197.500000	76.147	-34.5356
200.000000	76.111	-33.3423
203.000000	76.011	-32.3581
206.000000	75.999	-31.5222
209.000000	75.964	-30.5953
212.000000	75.870	-29.5583
214.000000	75.791	-29.2305
218.000000	75.813	-27.9775
220.000000	75.799	-27.2582
224.000000	75.796	-26.3804
227.000000	75.774	-25.4882
230.000000	75.757	-24.7703
233.000000	75.727	-23.9178
236.000000	75.768	-23.5432
240.000000	75.814	-22.3298
243.000000	75.775	-21.9068
247.000000	75.859	-21.5608
250.000000	75.843	-21.1198
254.000000	75.795	-20.1957
258.000000	75.842	-19.8539
262.000000	75.857	-19.3063
265.000000	75.876	-18.2297
269.000000	75.855	-18.2722
272.000000	75.930	-17.2421
276.000000	75.988	-17.2380
280.000000	75.973	-17.3419
285.000000	75.943	-16.0754
290.000000	75.955	-16.1040
295.000000	75.984	-15.7409
300.000000	76.084	-15.6161
304.000000	76.044	-15.2748
307.000000	76.073	-14.8182
311.000000	76.092	-14.7012
315.000000	76.094	-14.4597
320.000000	76.136	-14.0742
325.000000	76.093	-14.1793
330.000000	76.197	-14.1074
335.000000	76.107	-13.7556
340.000000	76.162	-13.2460
345.000000	76.157	-12.8097
350.000000	76.097	-13.2685
355.000000	76.282	-12.5812
360.000000	76.079	-12.8383
365.000000	76.272	-12.7633
370.000000	76.221	-12.8145
375.000000	76.302	-12.0712
382.000000	76.205	-12.5991
387.000000	76.317	-12.5164
395.000000	76.301	-12.1012
400.000000	76.251	-12.0847
406.000000	76.220	-12.2112
412.000000	76.198	-12.0255
418.000000	76.243	-11.4493
425.000000	76.198	-11.3088
431.000000	76.209	-11.4260
437.000000	76.180	-11.1635
444.000000	76.257	-11.2417
450.000000	76.223	-11.2162
455.000000	76.177	-11.1390
462.000000	76.190	-11.0309
468.000000	76.189	-10.8297
475.000000	76.139	-11.0006
482.000000	76.163	-10.8274
487.000000	76.133	-10.7672
494.000000	76.116	-10.9504
500.000000	76.074	-10.5591
508.000000	76.070	-10.1600
515.000000	76.087	-10.2692
522.000000	75.994	-10.0258
530.000000	75.976	-9.8289
538.000000	75.990	-9.7186
545.000000	75.936	-9.2416
552.000000	75.851	-9.1365
560.000000	75.883	-9.3925
570.000000	75.859	-8.9620
580.000000	75.864	-8.5623
590.000000	75.724	-8.3893
600.000000	75.746	-8.6899
608.000000	75.737	-7.5919
615.000000	75.674	-7.5331
622.000000	75.677	-7.1121
630.000000	75.637	-7.3649
640.000000	75.622	-6.9831
650.000000	75.561	-6.5587
660.000000	75.547	-6.0915
670.000000	75.510	-5.8859
680.000000	75.493	-5.3853
690.000000	75.466	-5.0084
700.000000	75.442	-4.6393
710.000000	75.409	-4.3386
720.000000	75.389	-3.9172
730.000000	75.360	-3.6637
740.000000	75.370	-3.1995
750.000000	75.319	-2.8414
762.000000	75.237	-2.2631
775.000000	75.274	-1.7301
788.000000	75.271	-1.4393
800.000000	75.231	-0.4557
812.000000	75.251	-0.5212
825.000000	75.124	-0.2361
838.000000	75.077	2.0359
850.000000	75.129	2.6125
862.000000	75.231	3.2238
875.000000	75.238	3.6162
885.000000	75.249	4.5572
900.000000	75.233	5.0282
912.000000	75.283	5.4917
925.000000	75.352	6.3836
938.000000	75.428	7.3797
950.000000	75.478	7.2789
962.000000	75.495	7.8878
975.000000	75.571	8.4774
988.000000	75.629	9.4030
1000.000000	75.585	9.8000
1015.000000	75.704	10.0366
1030.000000	75.770	10.8197
1044.000000	75.860	11.2704
1060.000000	75.951	11.7045
1075.000000	76.022	12.4445
1090.000000	76.051	12.8943
1106.000000	76.205	13.1852
1120.000000	76.265	13.6357
1138.000000	76.363	13.9331
1150.000000	76.463	14.5031
1172.000000	76.559	14.7642
1180.000000	76.542	15.0836
1206.000000	76.670	15.8151
1220.000000	76.833	15.7798
1241.000000	76.946	16.1689
1250.000000	76.958	16.2622
1265.000000	77.067	16.3172
1280.000000	77.095	16.7723
1315.000000	77.312	16.8998
1320.000000	77.301	16.8937
1340.000000	77.423	17.0993
1360.000000	77.478	17.3992
1380.000000	77.570	17.3986
1400.000000	77.718	17.6863
1430.000000	77.792	18.0112
1450.000000	77.852	18.0012
1475.000000	77.959	18.7498
1500.000000	78.182	18.5479
1525.000000	78.242	18.9531
1550.000000	78.311	19.3754
1575.000000	78.474	19.1768
1600.000000	78.587	19.8345
1625.000000	78.624	20.1577
1650.000000	78.771	20.5668
1675.000000	78.880	20.6481
1700.000000	79.001	21.0807
1725.000000	79.148	21.3522
1750.000000	79.188	21.5958
1775.000000	79.402	21.8646
1800.000000	79.567	22.3135
1825.000000	79.662	22.6234
1850.000000	79.801	22.7145
1875.000000	80.006	22.9766
1900.000000	80.237	23.1364
1925.000000	80.369	23.2285
1950.000000	80.549	23.6166
1975.000000	80.751	23.6334
2000.000000	80.896	23.8486
2030.000000	81.181	23.5132
2060.000000	81.468	23.2606
2090.000000	81.779	22.7380
2120.000000	82.035	22.2740
2140.000000	82.234	22.0671
2180.000000	82.587	20.2766
2200.000000	82.730	19.5142
2240.000000	83.029	17.4236
2270.000000	83.150	16.4142
2300.000000	83.299	15.2750
2330.000000	83.392	13.8552
2360.000000	83.498	12.7672
2400.000000	83.614	11.2150
2430.000000	83.681	10.1157
2470.000000	83.770	8.7190
2500.000000	83.814	7.8863
2540.000000	83.921	6.4289
2580.000000	84.014	5.0236
2620.000000	83.557	3.3416
2650.000000	84.204	6.5179
2690.000000	84.461	3.5951
2720.000000	84.529	1.9097
2760.000000	84.557	-0.0882
2800.000000	84.553	-2.0454
2850.000000	84.503	-4.1277
2900.000000	84.429	-5.9199
2950.000000	84.309	-7.3104
3000.000000	84.224	-8.5800
3040.000000	84.151	-9.4765
3070.000000	84.110	-10.0477
3110.000000	84.052	-10.9196
3150.000000	83.974	-11.7861
3200.000000	83.843	-12.7413
3250.000000	83.701	-13.6047
3300.000000	83.549	-14.4235
3350.000000	83.397	-15.1792
3400.000000	83.250	-15.7517
3450.000000	83.102	-16.1031
3500.000000	82.967	-16.2875
3550.000000	82.846	-16.4059
3600.000000	82.719	-16.3799
3650.000000	82.617	-16.3870
3700.000000	82.519	-16.3002
3750.000000	82.424	-16.2078
3820.000000	82.323	-16.0833
3870.000000	82.272	-16.1412
3950.000000	82.174	-16.2349
4000.000000	82.109	-16.3176
4060.000000	82.054	-16.3914
4120.000000	81.997	-16.4420
4180.000000	81.944	-16.5272
4250.000000	81.882	-16.6337
4310.000000	81.821	-16.7261
4370.000000	81.760	-16.7655
4440.000000	81.666	-16.6649
4500.000000	81.553	-16.5518
4550.000000	81.453	-16.3304
4620.000000	81.298	-15.8102
4680.000000	81.140	-15.1453
4750.000000	80.979	-13.8236
4820.000000	80.837	-11.9937
4870.000000	80.807	-10.3977
4940.000000	80.833	-7.7686
5000.000000	80.982	-5.6839
5080.000000	81.258	-3.3790
5150.000000	81.589	-2.1321
5220.000000	81.967	-1.5200
5300.000000	82.344	-1.7903
5380.000000	82.657	-2.9399
5450.000000	82.877	-3.9716
5520.000000	83.012	-5.3552
5600.000000	83.156	-7.2942
5700.000000	83.201	-10.0861
5800.000000	83.139	-11.9146
5900.000000	82.950	-14.5710
6000.000000	82.696	-16.2233
6080.000000	82.400	-16.8922
6150.000000	82.159	-17.1322
6220.000000	81.964	-17.7160
6300.000000	81.764	-17.9108
6400.000000	81.440	-18.2709
6500.000000	81.293	-17.7949
6600.000000	80.934	-17.1824
6700.000000	80.698	-16.2791
6800.000000	80.544	-15.2344
6900.000000	80.280	-13.4980
7000.000000	80.120	-12.1984
7100.000000	79.997	-11.2275
7200.000000	79.962	-9.1664
7300.000000	79.968	-7.1920
7400.000000	79.842	-5.5800
7500.000000	79.890	-3.9933
7620.000000	79.909	-1.8276
7750.000000	79.863	1.0659
7880.000000	80.011	3.7893
8000.000000	80.105	6.6349
8120.000000	80.468	9.0038
8250.000000	80.934	11.8525
8380.000000	81.579	14.0272
8500.000000	82.596	12.1259
8620.000000	83.220	7.0845
8750.000000	83.471	-0.5674
8850.000000	83.360	-5.4971
9000.000000	82.563	-11.4645
9120.000000	81.833	-14.0369
9250.000000	81.067	-15.6953
9380.000000	80.361	-15.4636
9500.000000	79.659	-14.6166
9620.000000	79.168	-13.3480
9750.000000	78.558	-10.9678
9880.000000	78.213	-9.6487
10000.000000	78.004	-7.4467
10150.000000	77.626	-4.0117
10300.000000	77.656	-1.6702
10440.000000	77.536	1.7628
10600.000000	77.700	4.3553
10750.000000	78.189	4.7676
10900.000000	78.721	5.5813
11060.000000	79.251	3.1918
11200.000000	79.996	-0.0723
11380.000000	80.821	-16.9874
11500.000000	79.241	-37.5815
11720.000000	72.699	-1.3698
11800.000000	75.109	6.3829
12060.000000	77.687	-8.7242
12200.000000	76.928	-18.7538
12410.000000	75.624	-26.7413
12500.000000	74.772	-27.6978
12650.000000	73.636	-27.7850
12800.000000	72.182	-27.9445
13150.000000	69.702	-21.8517
13200.000000	69.378	-22.2374
13400.000000	67.440	-9.3865
13600.000000	67.920	-8.1125
13800.000000	66.728	-3.0603
14000.000000	65.946	4.2244
14300.000000	65.008	14.5841
14500.000000	64.614	21.5481
14750.000000	64.272	32.1318
15000.000000	64.032	43.5918
15250.000000	64.021	51.8339
15500.000000	64.400	61.6184
15750.000000	65.293	70.3585
16000.000000	66.061	77.8892
16250.000000	68.313	85.9666
16500.000000	71.642	78.7026
16750.000000	74.151	55.7643
17000.000000	72.174	22.8226
17250.000000	69.200	7.1204
17500.000000	63.912	6.5823
17750.000000	62.479	14.9888
18000.000000	59.571	28.3203
18250.000000	57.836	36.7904
18500.000000	56.258	49.2964
18750.000000	54.935	61.7032
19000.000000	54.508	71.8820
19250.000000	53.422	83.0806
19500.000000	53.281	94.5866
19750.000000	53.371	106.5009
