* Measurement data measured by REW V5.30.9
* Source: Headset (Odo By VECLAN.COM), MICROPHONE (Master Volume), L, volume: 0.250
* Format: 1M Log Swept Sine, 1 sweep at -12.0 dBFS with no timing reference
* Dated: 10 13, 24 7:52:44 PM
* REW Settings:
*  C-weighting compensation: Off
*  Target level: 75.0 dB
* Note: ; 
* Measurement: xuanji L
* Smoothing: None
* Frequency Step: 1/48 octave
* Start Frequency: 1.000 Hz
*
* Freq(Hz)	SPL(dB)	Phase(degrees)
1.000000	70.249	-85.0319
1.015000	70.756	-85.0639
1.030000	71.248	-85.0920
1.044000	71.695	-85.1144
1.060000	72.186	-85.1346
1.075000	72.627	-85.1479
1.090000	73.048	-85.1551
1.106000	73.473	-85.2329
1.120000	73.834	-85.3915
1.138000	74.286	-85.6191
1.150000	74.579	-85.7846
1.172000	75.102	-86.1141
1.180000	75.287	-86.2416
1.206000	75.870	-86.6817
1.220000	76.173	-86.9331
1.241000	76.612	-87.3265
1.250000	76.796	-87.5002
1.265000	77.094	-87.7958
1.280000	77.383	-88.0976
1.315000	78.025	-88.8194
1.320000	78.113	-88.9239
1.340000	78.456	-89.3430
1.360000	78.784	-89.7620
1.380000	79.098	-90.1781
1.400000	79.398	-90.5882
1.430000	79.822	-91.1855
1.450000	80.088	-91.5675
1.475000	80.401	-92.0240
1.500000	80.676	-92.4758
1.525000	80.915	-92.9279
1.550000	81.121	-93.3799
1.575000	81.298	-93.8316
1.600000	81.451	-94.2828
1.625000	81.583	-94.7331
1.650000	81.699	-95.1825
1.675000	81.802	-95.6305
1.700000	81.898	-96.0770
1.725000	81.989	-96.5218
1.750000	82.080	-96.9644
1.775000	82.176	-97.4048
1.800000	82.279	-97.8427
1.825000	82.395	-98.2778
1.850000	82.520	-98.7103
1.875000	82.643	-99.1412
1.900000	82.763	-99.5704
1.925000	82.880	-99.9980
1.950000	82.994	-100.4237
1.975000	83.105	-100.8475
2.000000	83.214	-101.2695
2.030000	83.341	-101.7731
2.060000	83.466	-102.2737
2.090000	83.588	-102.7712
2.120000	83.707	-103.2654
2.140000	83.785	-103.5929
2.180000	83.940	-104.2434
2.200000	84.016	-104.5662
2.240000	84.165	-105.2073
2.270000	84.273	-105.6841
2.300000	84.379	-106.1577
2.330000	84.481	-106.6280
2.360000	84.581	-107.0952
2.400000	84.711	-107.7131
2.430000	84.807	-108.1730
2.470000	84.930	-108.7814
2.500000	85.021	-109.2343
2.540000	85.140	-109.8336
2.580000	85.256	-110.4280
2.620000	85.368	-111.0190
2.650000	85.450	-111.4599
2.690000	85.557	-112.0438
2.720000	85.634	-112.4781
2.760000	85.735	-113.0517
2.800000	85.833	-113.6182
2.850000	85.951	-114.3147
2.900000	86.064	-114.9966
2.950000	86.174	-115.6626
3.000000	86.279	-116.3168
3.040000	86.359	-116.8317
3.070000	86.417	-117.2126
3.110000	86.491	-117.7128
3.150000	86.564	-118.2039
3.200000	86.652	-118.8038
3.250000	86.737	-119.3872
3.300000	86.820	-119.9529
3.350000	86.900	-120.5012
3.400000	86.977	-121.0330
3.450000	87.050	-121.5488
3.500000	87.121	-122.0489
3.550000	87.189	-122.5338
3.600000	87.257	-123.0038
3.650000	87.323	-123.4593
3.700000	87.389	-123.8994
3.750000	87.452	-124.3220
3.820000	87.537	-124.8869
3.870000	87.597	-125.2736
3.950000	87.691	-125.8678
4.000000	87.750	-126.2265
4.060000	87.821	-126.6445
4.120000	87.891	-127.0412
4.180000	87.960	-127.4198
4.250000	88.041	-127.8449
4.310000	88.110	-128.2006
4.370000	88.180	-128.5535
4.440000	88.262	-128.9624
4.500000	88.334	-129.3013
4.550000	88.393	-129.5781
4.620000	88.477	-129.9622
4.680000	88.548	-130.2932
4.750000	88.632	-130.6879
4.820000	88.717	-131.0916
4.870000	88.778	-131.3810
4.940000	88.863	-131.7898
5.000000	88.936	-132.1457
5.080000	89.032	-132.6317
5.150000	89.114	-133.0708
5.220000	89.195	-133.5220
5.300000	89.287	-134.0503
5.380000	89.376	-134.5906
5.450000	89.452	-135.0720
5.520000	89.523	-135.5611
5.600000	89.602	-136.1356
5.700000	89.696	-136.8699
5.800000	89.784	-137.6081
5.900000	89.863	-138.3384
6.000000	89.936	-139.0741
6.080000	89.989	-139.6600
6.150000	90.032	-140.1631
6.220000	90.072	-140.6512
6.300000	90.114	-141.1925
6.400000	90.160	-141.8521
6.500000	90.202	-142.4841
6.600000	90.242	-143.0788
6.700000	90.278	-143.6333
6.800000	90.311	-144.1527
6.900000	90.343	-144.6420
7.000000	90.378	-145.1037
7.100000	90.414	-145.5289
7.200000	90.450	-145.9287
7.300000	90.489	-146.3192
7.400000	90.531	-146.7047
7.500000	90.576	-147.0742
7.620000	90.633	-147.5198
7.750000	90.697	-148.0334
7.880000	90.766	-148.5685
8.000000	90.829	-149.0873
8.120000	90.889	-149.6401
8.250000	90.951	-150.2766
8.380000	91.010	-150.9396
8.500000	91.056	-151.5709
8.620000	91.098	-152.2279
8.750000	91.136	-152.9404
8.850000	91.157	-153.4751
9.000000	91.179	-154.2735
9.120000	91.189	-154.8824
9.250000	91.195	-155.4920
9.380000	91.194	-156.0605
9.500000	91.191	-156.5393
9.620000	91.188	-156.9645
9.750000	91.183	-157.3707
9.880000	91.175	-157.7369
10.000000	91.165	-158.0421
10.150000	91.148	-158.3782
10.300000	91.134	-158.6866
10.440000	91.125	-158.9439
10.600000	91.118	-159.2250
10.750000	91.116	-159.4870
10.900000	91.119	-159.7521
11.060000	91.125	-160.0960
11.200000	91.134	-160.4518
11.380000	91.142	-160.9235
11.500000	91.144	-161.2379
11.720000	91.142	-161.8113
11.800000	91.139	-162.0127
12.060000	91.121	-162.6491
12.200000	91.109	-162.9848
12.410000	91.091	-163.4685
12.500000	91.088	-163.6539
12.650000	91.087	-163.9322
12.800000	91.090	-164.1934
13.150000	91.106	-164.7788
13.200000	91.109	-164.8631
13.400000	91.124	-165.2051
13.600000	91.140	-165.5477
13.800000	91.155	-165.8841
14.000000	91.170	-166.2493
14.300000	91.191	-166.8512
14.500000	91.201	-167.2633
14.750000	91.206	-167.7698
15.000000	91.202	-168.2613
15.250000	91.195	-168.7703
15.500000	91.181	-169.2353
15.750000	91.164	-169.6391
16.000000	91.149	-169.9905
16.250000	91.141	-170.3242
16.500000	91.141	-170.6539
16.750000	91.144	-170.9873
17.000000	91.147	-171.3666
17.250000	91.147	-171.7868
17.500000	91.139	-172.2351
17.750000	91.119	-172.6438
18.000000	91.092	-172.9929
18.250000	91.063	-173.2629
18.500000	91.041	-173.4233
18.750000	91.032	-173.5131
19.000000	91.042	-173.5709
19.250000	91.071	-173.7088
19.500000	91.109	-173.9539
19.750000	91.150	-174.3267
20.000000	91.177	-174.8204
20.299999	91.188	-175.4857
20.600000	91.170	-176.1226
20.900000	91.133	-176.6242
21.200001	91.092	-176.9650
21.400000	91.072	-177.1250
21.799999	91.051	-177.3770
22.000000	91.048	-177.5197
22.400000	91.046	-177.9141
22.700001	91.034	-178.2491
23.000000	91.012	-178.5467
23.299999	90.988	-178.7795
23.600000	90.971	-178.9569
24.000000	90.967	-179.2063
24.299999	90.970	-179.4987
24.700001	90.962	179.9540
25.000000	90.933	179.5090
25.400000	90.864	179.0319
25.799999	90.786	178.8357
26.200001	90.735	178.8632
26.500000	90.725	178.9066
26.900000	90.741	178.8569
27.200001	90.763	178.6836
27.600000	90.787	178.2915
28.000000	90.794	177.8030
28.500000	90.777	177.1762
29.000000	90.737	176.6856
29.500000	90.694	176.4337
30.000000	90.685	176.3524
30.400000	90.709	176.1887
30.700001	90.730	175.9215
31.100000	90.732	175.4144
31.500000	90.689	174.9442
32.000000	90.610	174.7816
32.500000	90.585	175.0066
33.000000	90.641	174.9316
33.500000	90.677	174.1196
34.000000	90.582	173.0685
34.500000	90.383	172.7536
35.000000	90.237	173.5284
35.500000	90.278	174.4932
36.000000	90.442	174.4465
36.500000	90.549	173.2226
37.000000	90.492	171.7159
37.500000	90.318	170.8933
38.200001	90.147	171.1980
38.700001	90.175	171.5022
39.500000	90.262	170.7467
40.000000	90.227	170.0885
40.599998	90.152	169.9012
41.200001	90.159	170.1098
41.799999	90.232	169.9150
42.500000	90.251	169.1101
43.099998	90.182	168.6309
43.700001	90.109	168.6021
44.400002	90.078	168.7177
45.000000	90.073	168.5904
45.500000	90.052	168.2885
46.200001	89.959	167.8380
46.799999	89.837	167.8475
47.500000	89.754	168.4952
48.200001	89.814	169.0357
48.700001	89.896	168.8663
49.400002	89.947	167.9870
50.000000	89.904	167.2176
50.799999	89.797	166.7047
51.500000	89.726	166.6450
52.200001	89.702	166.6718
53.000000	89.710	166.3307
53.799999	89.644	165.6121
54.500000	89.522	165.4522
55.200001	89.461	165.7831
56.000000	89.475	165.9316
57.000000	89.552	165.8850
58.000000	89.702	164.3642
59.000000	89.453	162.3112
60.000000	89.208	163.4232
60.799999	89.282	163.8719
61.500000	89.275	163.6149
62.200001	89.247	163.7413
63.000000	89.268	163.6378
64.000000	89.182	163.2339
65.000000	89.130	163.4415
66.000000	89.097	163.0947
67.000000	89.027	163.0041
68.000000	89.011	162.7357
69.000000	88.959	162.3385
70.000000	88.914	162.0887
71.000000	88.860	161.8088
72.000000	88.807	161.7441
73.000000	88.785	161.6696
74.000000	88.752	161.3868
75.000000	88.684	161.2123
76.199997	88.635	161.2460
77.500000	88.593	160.9819
78.800003	88.536	160.8397
80.000000	88.486	160.5779
81.199997	88.424	160.5289
82.500000	88.399	160.1870
83.800003	88.278	160.0149
85.000000	88.266	160.2548
86.199997	88.245	159.9091
87.500000	88.180	159.7776
88.500000	88.144	159.9155
90.000000	88.173	159.5128
91.199997	88.054	159.1088
92.500000	88.001	159.2221
93.800003	87.929	159.2701
95.000000	87.938	159.2150
96.199997	87.849	158.7142
97.500000	87.728	159.0683
98.800003	87.736	159.0043
100.000000	87.621	158.7306
101.500000	87.567	158.2969
103.000000	87.362	159.6671
104.400002	87.597	159.3650
106.000000	87.526	159.0520
107.500000	87.407	158.7232
109.000000	87.375	159.2971
110.599998	87.320	159.3993
112.000000	87.306	159.0510
113.800003	87.198	159.2234
115.000000	87.197	159.2232
117.199997	87.145	159.2106
118.000000	87.103	159.0679
120.599998	87.071	159.2672
122.000000	87.034	159.4205
124.099998	86.983	159.0466
125.000000	86.941	158.9181
126.500000	86.858	159.1625
128.000000	86.874	159.4302
131.500000	86.737	158.2801
132.000000	86.694	158.2783
134.000000	86.677	159.1543
136.000000	86.574	159.3351
138.000000	86.506	159.5924
140.000000	86.504	158.5641
143.000000	86.539	158.5366
145.000000	86.503	158.9256
147.500000	86.419	158.6931
150.000000	86.331	159.1048
152.500000	86.500	158.5686
155.000000	86.379	159.7252
157.500000	86.225	158.7661
160.000000	86.322	158.9360
162.500000	86.168	159.8938
165.000000	85.957	160.7961
167.500000	85.870	159.2105
170.000000	85.946	160.0035
172.500000	85.771	159.7850
175.000000	85.717	159.9750
177.500000	85.646	160.0503
180.000000	85.660	160.6705
182.500000	85.591	160.5954
185.000000	85.536	160.5151
187.500000	85.377	160.7920
190.000000	85.375	160.5515
192.500000	85.290	160.8421
195.000000	85.255	161.4166
197.500000	85.230	161.9724
200.000000	85.229	161.3984
203.000000	85.188	161.7464
206.000000	85.073	161.8530
209.000000	85.047	162.4461
212.000000	85.120	162.7044
214.000000	85.045	162.4918
218.000000	84.886	162.3970
220.000000	84.913	162.2253
224.000000	84.852	162.7822
227.000000	84.808	163.0370
230.000000	84.748	163.7827
233.000000	84.658	163.7805
236.000000	84.627	163.8668
240.000000	84.728	164.1477
243.000000	84.619	164.0826
247.000000	84.524	164.7897
250.000000	84.507	164.7070
254.000000	84.463	164.9973
258.000000	84.464	165.4792
262.000000	84.342	165.4801
265.000000	84.401	167.0772
269.000000	84.350	167.5494
272.000000	84.209	165.6311
276.000000	84.156	167.6758
280.000000	84.206	168.2351
285.000000	84.197	167.3474
290.000000	84.076	167.7034
295.000000	84.095	167.6556
300.000000	84.102	168.5590
304.000000	84.036	168.3989
307.000000	84.032	168.9566
311.000000	83.958	169.0779
315.000000	83.896	169.0461
320.000000	83.884	168.7334
325.000000	83.825	169.6697
330.000000	83.771	170.5240
335.000000	83.711	170.8406
340.000000	83.637	172.5000
345.000000	83.309	172.0218
350.000000	83.507	173.6846
355.000000	83.588	171.5737
360.000000	83.353	175.2701
365.000000	83.444	173.1994
370.000000	83.671	173.8068
375.000000	83.889	172.4237
382.000000	83.688	176.2897
387.000000	83.336	174.2424
395.000000	83.318	175.6943
400.000000	83.443	174.3970
406.000000	83.307	175.9432
412.000000	83.439	176.0143
418.000000	83.124	174.9663
425.000000	83.564	178.6471
431.000000	83.889	177.3971
437.000000	83.037	176.3929
444.000000	83.470	177.1027
450.000000	83.279	178.5620
455.000000	83.166	178.4630
462.000000	83.281	178.4047
468.000000	83.241	178.9598
475.000000	83.180	179.2533
482.000000	83.146	-179.5781
487.000000	83.109	-179.9002
494.000000	83.093	-179.2361
500.000000	83.150	-178.1873
508.000000	83.078	-178.4534
515.000000	83.041	-177.8343
522.000000	83.018	-177.2030
530.000000	82.964	-176.6726
538.000000	83.027	-176.3916
545.000000	83.023	-175.7257
552.000000	82.868	-175.7633
560.000000	82.992	-174.0600
570.000000	82.882	-174.1044
580.000000	82.710	-173.6280
590.000000	82.660	-171.3847
600.000000	82.663	-169.2128
608.000000	83.089	-166.7399
615.000000	83.290	-167.6221
622.000000	83.321	-168.8975
630.000000	83.344	-168.9866
640.000000	83.301	-168.9984
650.000000	83.433	-168.9523
660.000000	83.121	-169.2174
670.000000	83.007	-168.3698
680.000000	83.276	-167.8115
690.000000	83.302	-166.9017
700.000000	83.280	-166.9864
710.000000	83.251	-166.2906
720.000000	83.264	-165.3871
730.000000	83.315	-164.7427
740.000000	83.283	-164.5080
750.000000	83.252	-163.3695
762.000000	83.317	-162.2621
775.000000	83.277	-161.5060
788.000000	83.319	-161.0326
800.000000	83.368	-160.3008
812.000000	83.390	-159.5166
825.000000	83.429	-158.3154
838.000000	83.516	-157.3851
850.000000	83.562	-156.5684
862.000000	83.597	-155.8351
875.000000	83.693	-155.1791
885.000000	83.745	-154.5208
900.000000	83.810	-153.8326
912.000000	83.915	-152.9464
925.000000	83.949	-152.1388
938.000000	84.122	-151.4247
950.000000	84.082	-151.0183
962.000000	84.210	-150.4094
975.000000	84.307	-149.6181
988.000000	84.474	-148.8821
1000.000000	84.511	-148.3835
1015.000000	84.662	-148.0009
1030.000000	84.807	-147.0556
1044.000000	84.974	-146.8957
1060.000000	85.048	-146.2420
1075.000000	85.237	-145.8421
1090.000000	85.356	-145.4541
1106.000000	85.515	-145.0961
1120.000000	85.671	-144.9850
1138.000000	85.785	-144.5804
1150.000000	85.901	-144.5450
1172.000000	86.088	-144.1758
1180.000000	86.122	-143.8837
1206.000000	86.360	-143.8009
1220.000000	86.449	-143.5850
1241.000000	86.587	-143.4552
1250.000000	86.670	-143.3715
1265.000000	86.762	-143.2297
1280.000000	86.874	-143.3611
1315.000000	87.124	-143.3337
1320.000000	87.164	-143.2620
1340.000000	87.289	-143.2182
1360.000000	87.408	-143.2092
1380.000000	87.538	-143.1375
1400.000000	87.682	-143.1215
1430.000000	87.849	-143.0244
1450.000000	87.965	-143.0931
1475.000000	88.113	-143.0970
1500.000000	88.244	-143.0367
1525.000000	88.407	-143.1365
1550.000000	88.538	-143.0387
1575.000000	88.675	-143.1464
1600.000000	88.818	-143.2399
1625.000000	88.982	-143.1985
1650.000000	89.115	-143.3931
1675.000000	89.257	-143.3916
1700.000000	89.396	-143.5582
1725.000000	89.546	-143.7415
1750.000000	89.691	-143.9411
1775.000000	89.814	-144.0873
1800.000000	89.940	-144.3921
1825.000000	90.050	-144.5836
1850.000000	90.176	-144.7668
1875.000000	90.319	-145.1701
1900.000000	90.435	-145.3818
1925.000000	90.544	-145.5831
1950.000000	90.662	-145.9496
1975.000000	90.761	-146.2404
2000.000000	90.883	-146.5011
2030.000000	91.006	-146.4309
2060.000000	91.151	-146.5728
2090.000000	91.319	-146.4789
2120.000000	91.534	-146.3912
2140.000000	91.706	-146.5271
2180.000000	92.107	-147.5420
2200.000000	92.281	-148.3256
2240.000000	92.558	-150.1336
2270.000000	92.727	-151.6597
2300.000000	92.842	-153.1948
2330.000000	92.924	-154.6669
2360.000000	93.007	-156.0530
2400.000000	93.045	-157.8090
2430.000000	93.061	-158.9757
2470.000000	93.088	-160.5164
2500.000000	93.076	-161.5120
2540.000000	93.075	-162.6795
2580.000000	93.105	-163.6193
2620.000000	93.122	-164.4925
2650.000000	93.172	-165.2862
2690.000000	93.261	-166.4032
2720.000000	93.316	-167.3799
2760.000000	93.349	-168.9664
2800.000000	93.352	-170.5008
2850.000000	93.314	-172.4365
2900.000000	93.216	-174.3923
2950.000000	93.078	-175.7643
3000.000000	92.965	-177.4285
3040.000000	92.840	-178.4474
3070.000000	92.725	-179.1331
3110.000000	92.616	-179.7941
3150.000000	92.507	179.7642
3200.000000	92.279	178.5471
3250.000000	92.057	177.5959
3300.000000	91.904	176.9354
3350.000000	91.640	176.5271
3400.000000	91.488	176.0545
3450.000000	91.307	175.7010
3500.000000	91.077	175.2212
3550.000000	90.871	174.9697
3600.000000	90.670	174.8909
3650.000000	90.469	174.5901
3700.000000	90.263	174.5270
3750.000000	90.052	174.6283
3820.000000	89.777	174.8461
3870.000000	89.588	175.1104
3950.000000	89.323	175.6087
4000.000000	89.152	175.9152
4060.000000	88.964	176.3478
4120.000000	88.785	176.7870
4180.000000	88.607	177.2018
4250.000000	88.387	177.8022
4310.000000	88.197	178.3500
4370.000000	87.996	179.0169
4440.000000	87.718	-179.8674
4500.000000	87.513	-177.9577
4550.000000	87.588	-175.9431
4620.000000	87.699	-176.0379
4680.000000	87.592	-176.3170
4750.000000	87.399	-175.9627
4820.000000	87.213	-175.2681
4870.000000	87.084	-174.6952
4940.000000	86.920	-173.6868
5000.000000	86.785	-172.8191
5080.000000	86.592	-171.5009
5150.000000	86.429	-170.3546
5220.000000	86.273	-169.0735
5300.000000	86.104	-167.5447
5380.000000	85.970	-166.0061
5450.000000	85.856	-164.5855
5520.000000	85.769	-163.0836
5600.000000	85.686	-161.4190
5700.000000	85.604	-159.2329
5800.000000	85.566	-156.9751
5900.000000	85.566	-154.7686
6000.000000	85.603	-152.5500
6080.000000	85.649	-150.7595
6150.000000	85.730	-149.2260
6220.000000	85.813	-147.6973
6300.000000	85.934	-145.9574
6400.000000	86.168	-143.8150
6500.000000	86.458	-141.7120
6600.000000	86.790	-139.6715
6700.000000	87.177	-137.7375
6800.000000	87.625	-136.0866
6900.000000	88.121	-134.5867
7000.000000	88.664	-133.3902
7100.000000	89.276	-132.5719
7200.000000	89.944	-132.1913
7300.000000	90.655	-132.5248
7400.000000	91.419	-133.4938
7500.000000	92.173	-135.4041
7620.000000	93.046	-139.2189
7750.000000	93.884	-144.8799
7880.000000	94.439	-152.0318
8000.000000	94.631	-159.3076
8120.000000	94.438	-166.2473
8250.000000	93.968	-172.4103
8380.000000	93.338	-177.0021
8500.000000	92.738	-179.7958
8620.000000	92.158	178.4959
8750.000000	91.587	177.4545
8850.000000	91.239	177.0405
9000.000000	90.819	176.8372
9120.000000	90.578	176.6409
9250.000000	90.387	176.2012
9380.000000	90.280	175.2341
9500.000000	90.179	173.6601
9620.000000	90.085	171.5315
9750.000000	89.893	168.2321
9880.000000	89.551	164.4599
10000.000000	89.075	160.5456
10150.000000	88.292	156.2808
10300.000000	87.327	153.3328
10440.000000	86.284	151.9700
10600.000000	85.147	152.5137
10750.000000	84.222	154.8231
10900.000000	83.539	158.0802
11060.000000	83.108	161.9131
11200.000000	82.976	165.1771
11380.000000	83.126	166.5339
11500.000000	83.157	166.4410
11720.000000	82.986	166.3857
11800.000000	82.906	166.5166
12060.000000	82.882	167.8987
12200.000000	83.043	168.9594
12410.000000	83.644	170.1658
12500.000000	84.065	170.2543
12650.000000	84.946	168.9009
12800.000000	86.058	164.2888
13150.000000	87.738	133.8766
13200.000000	87.442	127.8028
13400.000000	85.215	108.3904
13600.000000	82.176	100.1469
13800.000000	79.412	99.0742
14000.000000	76.990	102.1153
14300.000000	74.097	110.1059
14500.000000	72.512	116.1921
14750.000000	70.686	124.3401
15000.000000	69.066	131.8287
15250.000000	67.493	138.9095
15500.000000	65.867	145.7567
15750.000000	64.215	150.6378
16000.000000	62.426	153.6929
16250.000000	60.557	154.4154
16500.000000	58.350	150.4519
16750.000000	56.361	141.2852
17000.000000	54.835	127.0993
17250.000000	55.025	111.0333
17500.000000	56.261	102.2691
17750.000000	57.745	99.7970
18000.000000	59.170	102.2574
18250.000000	60.739	106.6919
18500.000000	62.097	110.8400
18750.000000	63.122	114.2155
19000.000000	63.358	115.2387
19250.000000	62.926	118.3999
19500.000000	61.863	127.9034
19750.000000	61.012	141.9434
