* Measurement data measured by REW V5.30.9
* Source: Headset (Odo By VECLAN.COM), MICROPHONE (Master Volume), L, volume: 0.250
* Format: 512k Log Swept Sine, 1 sweep at -12.0 dBFS with no timing reference
* Dated: 11 5, 24 1:52:50 PM
* REW Settings:
*  C-weighting compensation: Off
*  Target level: 75.0 dB
* Note: ; 
* Measurement: zephyr L
* Smoothing: None
* Frequency Step: 1/48 octave
* Start Frequency: 1.000 Hz
*
* Freq(Hz)	SPL(dB)	Phase(degrees)
1.000000	66.138	50.1400
1.015000	66.059	48.6531
1.030000	65.985	47.0748
1.044000	65.920	45.5126
1.060000	65.854	43.6141
1.075000	65.799	41.7168
1.090000	65.753	39.6982
1.106000	65.713	37.3959
1.120000	65.676	35.2154
1.138000	65.624	32.1914
1.150000	65.586	30.0496
1.172000	65.515	25.8900
1.180000	65.488	24.3103
1.206000	65.400	18.9657
1.220000	65.353	15.9745
1.241000	65.285	11.3722
1.250000	65.257	9.3663
1.265000	65.213	5.9903
1.280000	65.172	2.5866
1.315000	65.096	-5.3789
1.320000	65.087	-6.5113
1.340000	65.061	-11.0049
1.360000	65.047	-15.4139
1.380000	65.048	-19.7025
1.400000	65.066	-23.8352
1.430000	65.128	-29.6635
1.450000	65.195	-33.2498
1.475000	65.312	-37.3619
1.500000	65.472	-41.2749
1.525000	65.673	-45.0464
1.550000	65.908	-48.6769
1.575000	66.172	-52.1669
1.600000	66.460	-55.5168
1.625000	66.765	-58.7270
1.650000	67.083	-61.7981
1.675000	67.407	-64.7304
1.700000	67.732	-67.5244
1.725000	68.053	-70.1806
1.750000	68.364	-72.6994
1.775000	68.660	-75.0813
1.800000	68.934	-77.3267
1.825000	69.181	-79.4360
1.850000	69.404	-81.3831
1.875000	69.619	-83.1144
1.900000	69.827	-84.6468
1.925000	70.028	-85.9998
1.950000	70.223	-87.1930
1.975000	70.411	-88.2461
2.000000	70.592	-89.1787
2.030000	70.802	-90.1664
2.060000	71.004	-91.0428
2.090000	71.198	-91.8417
2.120000	71.383	-92.5971
2.140000	71.503	-93.0932
2.180000	71.733	-94.1129
2.200000	71.844	-94.6559
2.240000	72.051	-95.6787
2.270000	72.193	-96.3521
2.300000	72.325	-96.9532
2.330000	72.448	-97.4894
2.360000	72.565	-97.9679
2.400000	72.710	-98.5288
2.430000	72.813	-98.9011
2.470000	72.946	-99.3470
2.500000	73.044	-99.6528
2.540000	73.173	-100.0365
2.580000	73.303	-100.4016
2.620000	73.426	-100.7025
2.650000	73.513	-100.8825
2.690000	73.623	-101.0687
2.720000	73.702	-101.1729
2.760000	73.804	-101.2715
2.800000	73.905	-101.3323
2.850000	74.030	-101.3684
2.900000	74.158	-101.3765
2.950000	74.291	-101.3665
3.000000	74.424	-101.2912
3.040000	74.528	-101.1854
3.070000	74.607	-101.0857
3.110000	74.712	-100.9334
3.150000	74.818	-100.7677
3.200000	74.953	-100.5562
3.250000	75.091	-100.3575
3.300000	75.235	-100.1898
3.350000	75.384	-100.0262
3.400000	75.538	-99.8477
3.450000	75.695	-99.6673
3.500000	75.855	-99.4983
3.550000	76.016	-99.3536
3.600000	76.178	-99.2463
3.650000	76.341	-99.1896
3.700000	76.504	-99.1852
3.750000	76.670	-99.2137
3.820000	76.906	-99.3103
3.870000	77.074	-99.4223
3.950000	77.340	-99.6815
4.000000	77.501	-99.8963
4.060000	77.689	-100.2119
4.120000	77.874	-100.5961
4.180000	78.055	-101.0413
4.250000	78.262	-101.6263
4.310000	78.431	-102.1737
4.370000	78.592	-102.7542
4.440000	78.767	-103.4738
4.500000	78.910	-104.1476
4.550000	79.023	-104.7418
4.620000	79.173	-105.6090
4.680000	79.292	-106.3714
4.750000	79.420	-107.2653
4.820000	79.536	-108.1699
4.870000	79.611	-108.8382
4.940000	79.706	-109.7904
5.000000	79.778	-110.6086
5.080000	79.864	-111.6800
5.150000	79.928	-112.5814
5.220000	79.980	-113.4736
5.300000	80.026	-114.4796
5.380000	80.061	-115.4499
5.450000	80.085	-116.2524
5.520000	80.103	-116.9990
5.600000	80.113	-117.8033
5.700000	80.112	-118.7326
5.800000	80.105	-119.5598
5.900000	80.099	-120.2664
6.000000	80.086	-120.8491
6.080000	80.075	-121.2385
6.150000	80.068	-121.5319
6.220000	80.067	-121.7884
6.300000	80.072	-122.0226
6.400000	80.084	-122.2196
6.500000	80.107	-122.3600
6.600000	80.144	-122.4966
6.700000	80.198	-122.6088
6.800000	80.265	-122.6944
6.900000	80.344	-122.8048
7.000000	80.432	-122.9840
7.100000	80.533	-123.2061
7.200000	80.643	-123.4749
7.300000	80.754	-123.8074
7.400000	80.866	-124.2177
7.500000	80.981	-124.6993
7.620000	81.117	-125.3489
7.750000	81.254	-126.1196
7.880000	81.382	-126.9831
8.000000	81.491	-127.8160
8.120000	81.588	-128.6410
8.250000	81.679	-129.5548
8.380000	81.760	-130.4469
8.500000	81.827	-131.2170
8.620000	81.884	-131.9530
8.750000	81.942	-132.6945
8.850000	81.984	-133.2124
9.000000	82.043	-133.9098
9.120000	82.091	-134.4135
9.250000	82.148	-134.9078
9.380000	82.208	-135.3442
9.500000	82.268	-135.7287
9.620000	82.334	-136.1069
9.750000	82.411	-136.4990
9.880000	82.486	-136.9078
10.000000	82.549	-137.3168
10.150000	82.623	-137.8535
10.300000	82.690	-138.4110
10.440000	82.745	-138.9574
10.600000	82.799	-139.5847
10.750000	82.839	-140.1532
10.900000	82.870	-140.7111
11.060000	82.898	-141.2952
11.200000	82.916	-141.8051
11.380000	82.934	-142.3903
11.500000	82.941	-142.7168
11.720000	82.953	-143.2238
11.800000	82.959	-143.3797
12.060000	82.982	-143.8084
12.200000	83.001	-144.0478
12.410000	83.040	-144.4146
12.500000	83.062	-144.5838
12.650000	83.107	-144.8749
12.800000	83.154	-145.1980
13.150000	83.251	-146.1301
13.200000	83.261	-146.2730
13.400000	83.296	-146.8834
13.600000	83.316	-147.4637
13.800000	83.319	-147.9806
14.000000	83.316	-148.4198
14.300000	83.307	-148.9223
14.500000	83.308	-149.1320
14.750000	83.327	-149.3324
15.000000	83.366	-149.5178
15.250000	83.425	-149.8540
15.500000	83.485	-150.3188
15.750000	83.537	-150.8959
16.000000	83.568	-151.5410
16.250000	83.577	-152.1517
16.500000	83.580	-152.6652
16.750000	83.573	-152.9824
17.000000	83.582	-153.1588
17.250000	83.614	-153.2637
17.500000	83.677	-153.3952
17.750000	83.759	-153.6832
18.000000	83.844	-154.1646
18.250000	83.916	-154.8801
18.500000	83.954	-155.6981
18.750000	83.955	-156.5014
19.000000	83.918	-157.1803
19.250000	83.863	-157.6093
19.500000	83.809	-157.7782
19.750000	83.773	-157.6930
20.000000	83.776	-157.5025
20.299999	83.828	-157.3530
20.600000	83.912	-157.4523
20.900000	83.998	-157.8726
21.200001	84.052	-158.5582
21.400000	84.062	-159.0464
21.799999	84.029	-159.8783
22.000000	83.999	-160.1413
22.400000	83.950	-160.3294
22.700001	83.950	-160.2893
23.000000	83.990	-160.3071
23.299999	84.052	-160.5531
23.600000	84.112	-161.0538
24.000000	84.150	-162.0160
24.299999	84.130	-162.7652
24.700001	84.049	-163.4912
25.000000	83.975	-163.6796
25.400000	83.911	-163.4650
25.799999	83.931	-163.0126
26.200001	84.034	-162.8063
26.500000	84.134	-163.0102
26.900000	84.240	-163.7409
27.200001	84.271	-164.4610
27.600000	84.239	-165.3093
28.000000	84.163	-165.6943
28.500000	84.106	-165.5143
29.000000	84.156	-165.2804
29.500000	84.246	-165.6867
30.000000	84.254	-166.5825
30.400000	84.179	-167.1350
30.700001	84.101	-167.2231
31.100000	84.028	-166.9240
31.500000	84.029	-166.4762
32.000000	84.110	-166.3119
32.500000	84.182	-166.7708
33.000000	84.185	-167.3817
33.500000	84.153	-167.7043
34.000000	84.152	-167.7892
34.500000	84.192	-168.0305
35.000000	84.224	-168.5632
35.500000	84.212	-169.1703
36.000000	84.168	-169.5719
36.500000	84.130	-169.7227
37.000000	84.121	-169.7670
37.500000	84.138	-169.8805
38.200001	84.173	-170.3175
38.700001	84.180	-170.7977
39.500000	84.145	-171.4537
40.000000	84.131	-171.6777
40.599998	84.152	-172.0025
41.200001	84.172	-172.6481
41.799999	84.129	-173.3175
42.500000	84.042	-173.3764
43.099998	84.063	-172.8897
43.700001	84.183	-172.7537
44.400002	84.298	-173.3921
45.000000	84.296	-173.9476
45.500000	84.273	-174.0121
46.200001	84.298	-173.8316
46.799999	84.344	-173.9743
47.500000	84.338	-174.3207
48.200001	84.305	-174.3787
48.700001	84.306	-174.3961
49.400002	84.304	-174.7146
50.000000	84.260	-174.9977
50.799999	84.215	-174.9499
51.500000	84.253	-175.0054
52.200001	84.285	-175.5048
53.000000	84.257	-176.0098
53.799999	84.244	-176.1161
54.500000	84.264	-176.2783
55.200001	84.257	-176.4826
56.000000	84.248	-176.3299
57.000000	84.352	-176.3353
58.000000	84.368	-177.3850
59.000000	84.246	-177.6001
60.000000	84.270	-177.4609
60.799999	84.287	-177.9565
61.500000	84.256	-178.2745
62.200001	84.242	-178.4024
63.000000	84.245	-178.5843
64.000000	84.246	-178.8004
65.000000	84.255	-178.9542
66.000000	84.287	-179.1062
67.000000	84.310	-179.6597
68.000000	84.249	179.9401
69.000000	84.230	179.9467
70.000000	84.235	179.7074
71.000000	84.224	179.5108
72.000000	84.230	179.3756
73.000000	84.254	179.1884
74.000000	84.268	178.8445
75.000000	84.266	178.5740
76.199997	84.265	178.1835
77.500000	84.219	177.9400
78.800003	84.228	177.8523
80.000000	84.222	177.5616
81.199997	84.229	177.3377
82.500000	84.212	176.9308
83.800003	84.201	176.6884
85.000000	84.180	176.4041
86.199997	84.167	176.2184
87.500000	84.167	176.0679
88.500000	84.177	175.7639
90.000000	84.143	175.4777
91.199997	84.136	175.2310
92.500000	84.128	175.1081
93.800003	84.126	174.7156
95.000000	84.111	174.5876
96.199997	84.110	174.2439
97.500000	84.076	174.1065
98.800003	84.079	173.9847
100.000000	84.075	173.7141
101.500000	84.050	173.5363
103.000000	84.058	173.2245
104.400002	84.024	172.8456
106.000000	83.991	172.6355
107.500000	83.956	172.4200
109.000000	83.974	172.1682
110.599998	83.948	171.7147
112.000000	83.923	171.6323
113.800003	83.983	171.2095
115.000000	83.916	170.9269
117.199997	83.858	170.9071
118.000000	83.852	170.8445
120.599998	83.815	170.6857
122.000000	83.801	170.2054
124.099998	83.775	169.7439
125.000000	83.759	169.6870
126.500000	83.748	169.4168
128.000000	83.732	169.2371
131.500000	83.670	168.7162
132.000000	83.666	168.6761
134.000000	83.667	168.4127
136.000000	83.645	168.3014
138.000000	83.571	167.9614
140.000000	83.593	167.6834
143.000000	83.518	167.4075
145.000000	83.516	167.2222
147.500000	83.448	166.8368
150.000000	83.408	166.6799
152.500000	83.374	166.3739
155.000000	83.323	166.2573
157.500000	83.297	165.9866
160.000000	83.247	165.7842
162.500000	83.178	165.5415
165.000000	83.133	165.2956
167.500000	83.076	165.0843
170.000000	83.010	164.9448
172.500000	82.924	164.8448
175.000000	82.864	164.6305
177.500000	82.835	164.4623
180.000000	82.780	164.4715
182.500000	82.714	164.3679
185.000000	82.653	164.2905
187.500000	82.591	164.1679
190.000000	82.540	164.0442
192.500000	82.475	163.8667
195.000000	82.427	163.8375
197.500000	82.406	163.7820
200.000000	82.323	163.6360
203.000000	82.278	163.7347
206.000000	82.213	163.4566
209.000000	82.136	163.4368
212.000000	82.081	163.3107
214.000000	82.064	163.3049
218.000000	82.013	163.3820
220.000000	81.959	163.3177
224.000000	81.902	163.0707
227.000000	81.878	163.2696
230.000000	81.783	163.1379
233.000000	81.719	163.2376
236.000000	81.671	163.2272
240.000000	81.570	163.5788
243.000000	81.553	163.3880
247.000000	81.496	163.3898
250.000000	81.442	163.4501
254.000000	81.377	163.6233
258.000000	81.319	163.6927
262.000000	81.255	163.6609
265.000000	81.223	163.8015
269.000000	81.113	164.0390
272.000000	81.064	163.9804
276.000000	80.999	164.2270
280.000000	80.930	164.1875
285.000000	80.889	164.4769
290.000000	80.804	164.8571
295.000000	80.730	165.1952
300.000000	80.670	165.4446
304.000000	80.627	165.7107
307.000000	80.587	165.7911
311.000000	80.546	166.0966
315.000000	80.506	166.2168
320.000000	80.457	166.4555
325.000000	80.398	166.7288
330.000000	80.348	166.9488
335.000000	80.281	167.2240
340.000000	80.242	167.5003
345.000000	80.162	168.0160
350.000000	80.174	168.2886
355.000000	80.140	168.4309
360.000000	80.228	167.9291
365.000000	80.071	169.2303
370.000000	80.050	169.2799
375.000000	80.002	169.4539
382.000000	79.935	169.8520
387.000000	79.875	169.9213
395.000000	79.831	170.6644
400.000000	79.797	170.5346
406.000000	79.741	171.0016
412.000000	79.725	171.2673
418.000000	79.654	171.7684
425.000000	79.601	172.1148
431.000000	79.575	172.4642
437.000000	79.550	172.8553
444.000000	79.506	173.2962
450.000000	79.488	173.6544
455.000000	79.453	174.0145
462.000000	79.401	174.4763
468.000000	79.393	174.9219
475.000000	79.357	175.3195
482.000000	79.342	175.7026
487.000000	79.327	176.0316
494.000000	79.300	176.4347
500.000000	79.289	176.8403
508.000000	79.249	177.3031
515.000000	79.228	177.7365
522.000000	79.218	178.2007
530.000000	79.201	178.7159
538.000000	79.181	179.1320
545.000000	79.161	179.5413
552.000000	79.143	-179.9569
560.000000	79.136	-179.4709
570.000000	79.120	-178.7850
580.000000	79.110	-178.1805
590.000000	79.097	-177.5772
600.000000	79.095	-176.9509
608.000000	79.093	-176.4642
615.000000	79.092	-176.0372
622.000000	79.098	-175.5724
630.000000	79.094	-175.0768
640.000000	79.098	-174.4846
650.000000	79.102	-173.9149
660.000000	79.117	-173.2478
670.000000	79.122	-172.6894
680.000000	79.127	-172.0549
690.000000	79.159	-171.4798
700.000000	79.175	-170.9102
710.000000	79.200	-170.2962
720.000000	79.220	-169.6550
730.000000	79.256	-169.1335
740.000000	79.290	-168.5150
750.000000	79.323	-167.9904
762.000000	79.374	-167.3839
775.000000	79.446	-166.7585
788.000000	79.509	-166.5026
800.000000	79.449	-166.5342
812.000000	79.384	-165.1322
825.000000	79.474	-163.8733
838.000000	79.562	-163.0646
850.000000	79.638	-162.4000
862.000000	79.715	-161.7871
875.000000	79.800	-161.1312
885.000000	79.859	-160.6850
900.000000	79.955	-160.0174
912.000000	80.036	-159.4746
925.000000	80.128	-158.9831
938.000000	80.232	-158.5460
950.000000	80.320	-158.2121
962.000000	80.393	-157.9844
975.000000	80.434	-157.6390
988.000000	80.500	-156.8384
1000.000000	80.609	-156.2285
1015.000000	80.757	-155.7121
1030.000000	80.895	-155.3238
1044.000000	81.024	-154.9652
1060.000000	81.162	-154.7029
1075.000000	81.298	-154.4427
1090.000000	81.433	-154.2692
1106.000000	81.566	-154.1015
1120.000000	81.691	-153.9952
1138.000000	81.845	-153.9643
1150.000000	81.950	-153.9633
1172.000000	82.127	-153.9385
1180.000000	82.185	-153.9633
1206.000000	82.392	-154.1035
1220.000000	82.497	-154.2342
1241.000000	82.656	-154.4183
1250.000000	82.717	-154.5500
1265.000000	82.824	-154.7240
1280.000000	82.933	-154.9520
1315.000000	83.164	-155.4471
1320.000000	83.196	-155.5515
1340.000000	83.320	-155.9013
1360.000000	83.446	-156.3042
1380.000000	83.561	-156.6982
1400.000000	83.673	-157.1227
1430.000000	83.831	-157.7759
1450.000000	83.928	-158.2268
1475.000000	84.051	-158.8676
1500.000000	84.162	-159.4829
1525.000000	84.268	-160.1874
1550.000000	84.365	-160.8842
1575.000000	84.458	-161.5822
1600.000000	84.540	-162.3275
1625.000000	84.615	-163.0709
1650.000000	84.686	-163.8802
1675.000000	84.746	-164.6477
1700.000000	84.801	-165.4925
1725.000000	84.844	-166.2764
1750.000000	84.878	-167.1005
1775.000000	84.903	-167.8784
1800.000000	84.916	-168.7138
1825.000000	84.928	-169.4737
1850.000000	84.929	-170.3040
1875.000000	84.926	-171.0622
1900.000000	84.908	-171.7539
1925.000000	84.886	-172.5154
1950.000000	84.859	-173.2348
1975.000000	84.822	-173.8942
2000.000000	84.777	-174.5507
2030.000000	84.718	-175.2183
2060.000000	84.661	-175.9059
2090.000000	84.592	-176.4802
2120.000000	84.517	-177.0600
2140.000000	84.464	-177.3590
2180.000000	84.359	-177.9559
2200.000000	84.303	-178.1716
2240.000000	84.187	-178.5881
2270.000000	84.100	-178.8477
2300.000000	84.009	-179.0392
2330.000000	83.923	-179.1527
2360.000000	83.835	-179.2354
2400.000000	83.719	-179.2336
2430.000000	83.629	-179.1707
2470.000000	83.520	-179.0475
2500.000000	83.440	-178.8889
2540.000000	83.347	-178.6041
2580.000000	83.259	-178.2366
2620.000000	83.175	-177.7928
2650.000000	83.116	-177.4048
2690.000000	83.054	-176.8348
2720.000000	83.009	-176.3725
2760.000000	82.967	-175.7276
2800.000000	82.935	-175.0469
2850.000000	82.910	-174.2139
2900.000000	82.890	-173.3540
2950.000000	82.888	-172.4313
3000.000000	82.899	-171.4586
3040.000000	82.923	-170.6427
3070.000000	82.950	-170.0609
3110.000000	82.987	-169.2937
3150.000000	83.037	-168.5596
3200.000000	83.095	-167.6101
3250.000000	83.166	-166.6873
3300.000000	83.251	-165.7608
3350.000000	83.357	-164.8670
3400.000000	83.477	-164.0195
3450.000000	83.614	-163.2054
3500.000000	83.769	-162.4962
3550.000000	83.946	-161.7810
3600.000000	84.140	-161.2018
3650.000000	84.356	-160.6880
3700.000000	84.591	-160.3448
3750.000000	84.843	-160.0465
3820.000000	85.230	-160.0123
3870.000000	85.523	-160.2340
3950.000000	86.021	-161.1291
4000.000000	86.336	-162.1659
4060.000000	86.740	-163.7358
4120.000000	87.099	-166.1179
4180.000000	87.410	-168.9590
4250.000000	87.612	-172.9437
4310.000000	87.619	-176.3804
4370.000000	87.463	-179.2509
4440.000000	87.215	178.7634
4500.000000	87.088	178.2431
4550.000000	87.135	178.0865
4620.000000	87.393	176.9799
4680.000000	87.671	174.5710
4750.000000	87.862	170.2311
4820.000000	87.803	165.0952
4870.000000	87.597	161.5052
4940.000000	87.147	157.2054
5000.000000	86.659	154.2070
5080.000000	85.898	151.3723
5150.000000	85.216	149.8470
5220.000000	84.541	149.0742
5300.000000	83.790	148.8771
5380.000000	83.098	149.3558
5450.000000	82.530	150.1111
5520.000000	82.004	151.2214
5600.000000	81.433	152.8270
5700.000000	80.757	155.2401
5800.000000	80.192	159.6004
5900.000000	79.947	162.4325
6000.000000	79.683	164.4920
6080.000000	79.393	166.6524
6150.000000	79.184	168.8589
6220.000000	79.022	171.1324
6300.000000	78.867	173.8094
6400.000000	78.799	177.1700
6500.000000	78.804	-179.4450
6600.000000	78.865	-176.0528
6700.000000	79.001	-172.7594
6800.000000	79.214	-169.4729
6900.000000	79.490	-166.3326
7000.000000	79.852	-163.3186
7100.000000	80.299	-160.5736
7200.000000	80.846	-157.9913
7300.000000	81.504	-156.0688
7400.000000	82.262	-154.5394
7500.000000	83.159	-154.0934
7620.000000	84.369	-154.9944
7750.000000	85.831	-159.2864
7880.000000	87.221	-168.1905
8000.000000	88.007	179.0953
8120.000000	87.736	164.3304
8250.000000	86.446	151.5849
8380.000000	84.756	144.1550
8500.000000	83.213	141.0153
8620.000000	81.782	140.3933
8750.000000	80.468	141.5903
8850.000000	79.569	143.2701
9000.000000	78.455	146.6809
9120.000000	77.703	149.8327
9250.000000	77.055	153.4257
9380.000000	76.518	157.1006
9500.000000	76.126	160.2695
9620.000000	75.814	163.1586
9750.000000	75.543	166.0817
9880.000000	75.301	168.5068
10000.000000	75.057	170.4036
10150.000000	74.762	172.4586
10300.000000	74.424	174.5386
10440.000000	74.054	177.1548
10600.000000	73.611	-179.1889
10750.000000	73.243	-174.8378
10900.000000	73.037	-169.5937
11060.000000	73.114	-163.8124
11200.000000	73.225	-160.2156
11380.000000	73.360	-154.6261
11500.000000	73.586	-150.8009
11720.000000	74.259	-143.4736
11800.000000	74.633	-141.2119
12060.000000	76.263	-135.3480
12200.000000	77.388	-134.3110
12410.000000	79.290	-136.1095
12500.000000	80.172	-138.3257
12650.000000	81.562	-145.8407
12800.000000	82.590	-157.2272
13150.000000	81.740	171.8640
13200.000000	81.362	168.9642
13400.000000	79.601	160.5930
13600.000000	78.014	157.1543
13800.000000	76.610	156.1517
14000.000000	75.477	156.7072
14300.000000	74.086	158.2810
14500.000000	73.282	159.2869
14750.000000	72.226	160.3530
15000.000000	71.115	166.3920
15250.000000	70.989	167.1554
15500.000000	69.949	167.1602
15750.000000	68.888	169.7741
16000.000000	67.874	173.9520
16250.000000	67.254	179.3727
16500.000000	66.933	-174.0264
16750.000000	67.094	-167.2271
17000.000000	67.838	-162.7645
17250.000000	69.202	-163.7443
17500.000000	70.940	-175.9409
17750.000000	71.528	148.4552
18000.000000	65.261	76.8169
18250.000000	62.440	-84.9649
18500.000000	66.166	-144.7018
18750.000000	64.902	-172.1326
19000.000000	61.915	176.6072
19250.000000	58.475	-179.7082
19500.000000	56.607	-162.8360
19750.000000	56.590	-145.5326
