* Measurement data measured by REW V5.31.3
* Source: Headset (Odo By VECLAN.COM), MICROPHONE (Master Volume), L, volume: 0.720. Timing signal peak level -16.1 dBFS, measurement signal peak level -14.9 dBFS
* Format: 2M Log Swept Sine, 1 sweep at -20.2 dBFS using an acoustic timing reference
* Dated: 11 17, 24 11:10:08 AM
* REW Settings:
*  C-weighting compensation: Off
*  Target level: 85.0 dB
* Note: ; Delay -0.0673 ms (-23 mm, -0.91 in) using estimated IR delay relative to Acoustic reference played from SPEAKER L with no timing offset
* Measurement: Zero Red L
* Smoothing: 1/24 octave
* Frequency Step: 96 ppo
* Start Frequency: 0.36621094 Hz
*
* Freq(Hz) SPL(dB) Phase(degrees)
0.366211 72.523 44.1215
0.368865 72.506 44.0538
0.371538 72.482 43.9730
0.374230 72.454 43.8859
0.376942 72.425 43.7955
0.379673 72.395 43.7031
0.382424 72.365 43.6089
0.385196 72.335 43.5129
0.387987 72.305 43.4154
0.390798 72.274 43.3161
0.393630 72.243 43.2150
0.396483 72.212 43.1122
0.399356 72.180 43.0077
0.402250 72.149 42.9012
0.405165 72.117 42.7930
0.408101 72.085 42.6828
0.411058 72.053 42.5707
0.414037 72.020 42.4566
0.417037 71.988 42.3405
0.420059 71.955 42.2224
0.423103 71.921 42.1022
0.426169 71.888 41.9799
0.429257 71.854 41.8554
0.432368 71.820 41.7287
0.435501 71.786 41.5998
0.438656 71.752 41.4685
0.441835 71.717 41.3349
0.445037 71.682 41.1990
0.448262 71.647 41.0605
0.451510 71.612 40.9196
0.454782 71.576 40.7762
0.458077 71.540 40.6301
0.461397 71.504 40.4814
0.464740 71.467 40.3299
0.468108 71.430 40.1757
0.471500 71.393 40.0186
0.474917 71.356 39.8585
0.478358 71.319 39.6955
0.481825 71.281 39.5295
0.485316 71.243 39.3603
0.488833 71.204 39.1879
0.492375 71.166 39.0122
0.495943 71.127 38.8331
0.499537 71.088 38.6505
0.503157 71.048 38.4644
0.506803 71.008 38.2746
0.510475 70.968 38.0810
0.514175 70.928 37.8836
0.517900 70.887 37.6821
0.521653 70.846 37.4766
0.525434 70.805 37.2668
0.529241 70.764 37.0527
0.533076 70.722 36.8341
0.536939 70.680 36.6108
0.540830 70.637 36.3828
0.544749 70.594 36.1498
0.548696 70.551 35.9117
0.552673 70.508 35.6683
0.556677 70.464 35.4194
0.560711 70.420 35.1648
0.564774 70.376 34.9043
0.568867 70.331 34.6597
0.572989 70.286 34.4184
0.577141 70.241 34.1707
0.581324 70.195 33.9164
0.585536 70.149 33.6551
0.589779 70.103 33.3867
0.594053 70.057 33.1108
0.598358 70.010 32.8270
0.602694 69.962 32.5349
0.607061 69.915 32.2343
0.611460 69.867 31.9247
0.615891 69.818 31.6057
0.620354 69.770 31.2767
0.624849 69.721 30.9373
0.629377 69.671 30.5870
0.633938 69.621 30.2251
0.638532 69.571 29.8511
0.643159 69.521 29.4643
0.647819 69.470 29.0640
0.652514 69.419 28.6493
0.657242 69.367 28.2195
0.662005 69.315 27.7737
0.666802 69.263 27.3107
0.671634 69.210 26.8297
0.676501 69.157 26.3294
0.681403 69.104 25.8086
0.686341 69.050 25.2659
0.691314 68.996 24.6998
0.696324 68.941 24.1087
0.701370 68.886 23.4908
0.706452 68.831 22.8441
0.711571 68.775 22.1666
0.716728 68.720 21.4558
0.721921 68.665 20.7090
0.727153 68.616 19.9232
0.732422 68.579 19.0944
0.737729 68.560 18.2182
0.743075 68.555 17.2898
0.748460 68.557 16.3054
0.753883 68.563 15.2612
0.759346 68.571 14.1539
0.764849 68.582 12.9795
0.770391 68.595 11.8386
0.775974 68.610 10.6511
0.781597 68.628 9.3857
0.787261 68.647 8.0381
0.792966 68.670 6.6042
0.798712 68.694 5.0796
0.804500 68.721 3.4601
0.810329 68.750 1.7417
0.816201 68.782 -0.0793
0.822116 68.816 -2.0061
0.828073 68.852 -4.0413
0.834074 68.891 -6.1866
0.840118 68.933 -8.4426
0.846206 68.977 -10.8086
0.852338 69.024 -13.2825
0.858514 69.073 -15.8602
0.864735 69.125 -18.5357
0.871001 69.179 -21.3010
0.877313 69.236 -24.1462
0.883670 69.296 -27.0589
0.890074 69.358 -30.0255
0.896524 69.424 -33.0304
0.903020 69.491 -36.0575
0.909564 69.562 -39.0897
0.916155 69.635 -42.1104
0.922794 69.712 -45.1032
0.929481 69.791 -48.0532
0.936216 69.872 -50.9469
0.943000 69.957 -53.7724
0.949834 70.044 -56.5201
0.956717 70.135 -59.1825
0.963649 70.228 -61.7540
0.970632 70.324 -64.2127
0.977666 70.423 -66.5655
0.984750 70.524 -68.8212
0.991886 70.629 -70.9808
0.999074 70.737 -73.0460
1.006314 70.847 -75.0197
1.013606 70.960 -76.9050
1.020951 71.077 -78.7059
1.028349 71.196 -80.4262
1.035801 71.318 -82.0702
1.043307 71.443 -83.6422
1.050867 71.571 -85.1463
1.058482 71.702 -86.5868
1.066152 71.836 -87.9677
1.073878 71.973 -89.2927
1.081660 72.113 -90.5652
1.089498 72.256 -91.7878
1.097393 72.404 -92.9613
1.105345 72.558 -94.0840
1.113355 72.720 -95.1535
1.121423 72.891 -96.1692
1.129549 73.071 -97.1325
1.137734 73.260 -98.0456
1.145979 73.457 -98.9109
1.154283 73.664 -99.7310
1.162647 73.878 -100.5085
1.171072 74.101 -101.2469
1.179558 74.330 -101.9483
1.188106 74.568 -102.6144
1.196715 74.812 -103.2473
1.205387 75.062 -103.8493
1.214122 75.318 -104.4224
1.222920 75.580 -104.9685
1.231782 75.847 -105.4895
1.240708 76.119 -105.9872
1.249699 76.394 -106.4632
1.258754 76.674 -106.9191
1.267876 76.956 -107.3564
1.277063 77.241 -107.7766
1.286318 77.527 -108.1809
1.295639 77.815 -108.5707
1.305027 78.103 -108.9472
1.314484 78.391 -109.3115
1.324009 78.678 -109.6647
1.333604 78.963 -110.0078
1.343268 79.246 -110.3419
1.353002 79.526 -110.6678
1.362806 79.802 -110.9864
1.372681 80.072 -111.2940
1.382628 80.337 -111.5937
1.392647 80.595 -111.8886
1.402739 80.845 -112.1794
1.412904 81.086 -112.4668
1.423142 81.317 -112.7516
1.433455 81.538 -113.0344
1.443843 81.746 -113.3157
1.454305 81.942 -113.5959
1.464844 82.125 -113.8748
1.475459 82.297 -114.1517
1.486150 82.458 -114.4254
1.496920 82.609 -114.6950
1.507767 82.751 -114.9602
1.518693 82.885 -115.2204
1.529698 83.010 -115.4755
1.540783 83.127 -115.7251
1.551948 83.235 -115.9692
1.563194 83.336 -116.2075
1.574521 83.430 -116.4352
1.585931 83.518 -116.6554
1.597423 83.598 -116.8695
1.608999 83.673 -117.0777
1.620658 83.741 -117.2798
1.632402 83.805 -117.4760
1.644232 83.864 -117.6663
1.656146 83.918 -117.8507
1.668147 83.969 -118.0293
1.680235 84.017 -118.2022
1.692411 84.062 -118.3697
1.704675 84.105 -118.5316
1.717028 84.147 -118.6884
1.729470 84.187 -118.8400
1.742003 84.228 -118.9866
1.754626 84.270 -119.1286
1.767341 84.313 -119.2666
1.780147 84.358 -119.4057
1.793047 84.406 -119.5409
1.806040 84.458 -119.6724
1.819128 84.513 -119.8009
1.832310 84.572 -119.9277
1.845587 84.632 -120.0544
1.858961 84.691 -120.1823
1.872432 84.749 -120.3116
1.886001 84.806 -120.4418
1.899667 84.860 -120.5722
1.913433 84.913 -120.7020
1.927299 84.963 -120.8304
1.941265 85.012 -120.9567
1.955332 85.059 -121.0801
1.969501 85.105 -121.2015
1.983773 85.149 -121.3231
1.998148 85.192 -121.4400
2.012627 85.233 -121.5514
2.027212 85.273 -121.6569
2.041902 85.312 -121.7558
2.056698 85.350 -121.8476
2.071602 85.387 -121.9318
2.086614 85.423 -122.0079
2.101734 85.458 -122.0754
2.116964 85.493 -122.1340
2.132304 85.527 -122.1831
2.147756 85.561 -122.2225
2.163320 85.595 -122.2520
2.178996 85.629 -122.2784
2.194786 85.662 -122.2981
2.210690 85.694 -122.3125
2.226710 85.726 -122.3246
2.242845 85.756 -122.3360
2.259098 85.784 -122.3465
2.275468 85.811 -122.3554
2.291957 85.836 -122.3619
2.308566 85.860 -122.3651
2.325295 85.883 -122.3638
2.342145 85.905 -122.3571
2.359117 85.925 -122.3440
2.376212 85.945 -122.3301
2.393431 85.964 -122.3123
2.410775 85.982 -122.2851
2.428244 86.000 -122.2476
2.445840 86.018 -122.1987
2.463564 86.035 -122.1373
2.481416 86.052 -122.0626
2.499397 86.070 -121.9735
2.517509 86.088 -121.8691
2.535752 86.106 -121.7489
2.554127 86.124 -121.6130
2.572635 86.142 -121.4692
2.591277 86.160 -121.3251
2.610055 86.177 -121.1719
2.628968 86.194 -121.0101
2.648019 86.209 -120.8398
2.667208 86.224 -120.6608
2.686535 86.238 -120.4727
2.706003 86.252 -120.2750
2.725612 86.266 -120.0672
2.745363 86.279 -119.8489
2.765257 86.294 -119.6197
2.785295 86.308 -119.3940
2.805478 86.324 -119.1570
2.825808 86.340 -118.9074
2.846285 86.358 -118.6449
2.866910 86.377 -118.3687
2.887685 86.398 -118.0783
2.908611 86.420 -117.7731
2.929688 86.445 -117.4523
2.950917 86.471 -117.1150
2.972301 86.498 -116.7659
2.993839 86.526 -116.4125
3.015534 86.555 -116.0446
3.037386 86.584 -115.6636
3.059396 86.615 -115.2709
3.081565 86.648 -114.8682
3.103896 86.682 -114.4569
3.126388 86.717 -114.0386
3.149043 86.755 -113.6147
3.171862 86.795 -113.1909
3.194847 86.837 -112.7763
3.217998 86.881 -112.3606
3.241317 86.928 -111.9450
3.264805 86.979 -111.5298
3.288463 87.032 -111.1138
3.312293 87.089 -110.6932
3.336295 87.149 -110.2634
3.360471 87.212 -109.8231
3.384822 87.279 -109.3865
3.409350 87.349 -108.9476
3.434056 87.421 -108.5062
3.458940 87.497 -108.0655
3.484005 87.575 -107.6291
3.509252 87.655 -107.2002
3.534681 87.738 -106.7820
3.560295 87.822 -106.3777
3.586094 87.909 -106.0045
3.612081 87.997 -105.6542
3.638255 88.087 -105.3234
3.664620 88.179 -105.0095
3.691175 88.274 -104.7064
3.717923 88.371 -104.4088
3.744864 88.472 -104.1155
3.772001 88.575 -103.8323
3.799335 88.681 -103.5727
3.826866 88.789 -103.3241
3.854597 88.899 -103.0893
3.882529 89.010 -102.8710
3.910664 89.122 -102.6718
3.939002 89.234 -102.4943
3.967546 89.346 -102.3415
3.996296 89.457 -102.2320
4.025255 89.568 -102.1471
4.054423 89.679 -102.0835
4.083804 89.791 -102.0367
4.113396 89.903 -102.0042
4.143204 90.016 -101.9850
4.173227 90.129 -101.9838
4.203468 90.243 -102.0115
4.233928 90.356 -102.0532
4.264609 90.468 -102.1098
4.295512 90.579 -102.1818
4.326639 90.689 -102.2701
4.357992 90.797 -102.3759
4.389572 90.903 -102.5148
4.421380 91.007 -102.6778
4.453419 91.109 -102.8592
4.485691 91.211 -103.0573
4.518196 91.310 -103.2697
4.550936 91.408 -103.4939
4.583914 91.505 -103.7382
4.617131 91.599 -103.9991
4.650589 91.692 -104.2660
4.684289 91.782 -104.5378
4.718233 91.870 -104.8141
4.752424 91.955 -105.0964
4.786862 92.038 -105.3990
4.821549 92.117 -105.7217
4.856488 92.195 -106.0571
4.891680 92.269 -106.4026
4.927127 92.341 -106.7543
4.962831 92.411 -107.1083
4.998794 92.478 -107.4767
5.035017 92.542 -107.8416
5.071503 92.604 -108.1989
5.108253 92.663 -108.5481
5.145270 92.720 -108.8923
5.182555 92.773 -109.2449
5.220110 92.824 -109.6103
5.257937 92.871 -109.9775
5.296038 92.915 -110.3429
5.334415 92.957 -110.7023
5.373071 92.997 -111.0543
5.412006 93.035 -111.4064
5.451224 93.071 -111.7403
5.490725 93.105 -112.0554
5.530514 93.138 -112.3549
5.570590 93.167 -112.6453
5.610957 93.194 -112.9422
5.651616 93.219 -113.2284
5.692570 93.242 -113.5012
5.733821 93.264 -113.7579
5.775370 93.286 -113.9992
5.817221 93.308 -114.2320
5.859375 93.330 -114.4407
5.901834 93.351 -114.6258
5.944602 93.372 -114.7890
5.987679 93.392 -114.9412
6.031068 93.412 -115.0840
6.074771 93.433 -115.2098
6.118792 93.455 -115.3193
6.163131 93.478 -115.4128
6.207792 93.505 -115.5046
6.252776 93.533 -115.5786
6.298086 93.564 -115.6320
6.343725 93.597 -115.6658
6.389694 93.632 -115.6925
6.435996 93.669 -115.7166
6.482634 93.709 -115.7355
6.529610 93.752 -115.7532
6.576926 93.799 -115.7752
6.624585 93.849 -115.8076
6.672590 93.903 -115.8357
6.720942 93.961 -115.8598
6.769645 94.022 -115.8852
6.818700 94.085 -115.9301
6.868111 94.151 -115.9871
6.917881 94.219 -116.0608
6.968010 94.289 -116.1538
7.018504 94.362 -116.2767
7.069362 94.437 -116.4138
7.120590 94.515 -116.5647
7.172189 94.593 -116.7326
7.224161 94.672 -116.9303
7.276511 94.751 -117.1485
7.329239 94.828 -117.3893
7.382350 94.905 -117.6580
7.435845 94.982 -117.9583
7.489729 95.058 -118.2774
7.544002 95.132 -118.6116
7.598669 95.204 -118.9663
7.653732 95.274 -119.3374
7.709194 95.339 -119.7203
7.765058 95.402 -120.1182
7.821327 95.462 -120.5443
7.878004 95.518 -120.9794
7.935091 95.571 -121.4159
7.992592 95.621 -121.8521
8.050510 95.666 -122.2858
8.108847 95.707 -122.7132
8.167607 95.743 -123.1374
8.226793 95.776 -123.5670
8.286408 95.805 -123.9842
8.346454 95.831 -124.3813
8.406936 95.855 -124.7607
8.467856 95.875 -125.1168
8.529218 95.894 -125.4484
8.591024 95.909 -125.7608
8.653278 95.923 -126.0541
8.715983 95.937 -126.3179
8.779143 95.952 -126.5508
8.842760 95.966 -126.7565
8.906839 95.982 -126.9279
8.971381 95.998 -127.0696
9.036392 96.016 -127.1946
9.101873 96.038 -127.2975
9.167829 96.064 -127.3794
9.234263 96.095 -127.4469
9.301178 96.130 -127.4936
9.368578 96.169 -127.5277
9.436467 96.213 -127.5695
9.504847 96.262 -127.6163
9.573723 96.316 -127.6715
9.643099 96.375 -127.7428
9.712976 96.437 -127.8238
9.783361 96.502 -127.9246
9.854255 96.568 -128.0585
9.925663 96.633 -128.2221
9.997588 96.698 -128.4147
10.070035 96.762 -128.6607
10.143007 96.824 -128.9339
10.216507 96.883 -129.2342
10.290540 96.938 -129.5634
10.365109 96.989 -129.9217
10.440219 97.035 -130.3038
10.515873 97.076 -130.7009
10.592076 97.112 -131.1060
10.668830 97.141 -131.5170
10.746141 97.163 -131.9343
10.824012 97.179 -132.3510
10.902447 97.190 -132.7551
10.981451 97.195 -133.1365
11.061027 97.195 -133.5231
11.141180 97.190 -133.8931
11.221913 97.180 -134.2316
11.303232 97.168 -134.5298
11.385140 97.154 -134.7808
11.467641 97.137 -134.9833
11.550741 97.120 -135.1396
11.634442 97.105 -135.2526
11.718750 97.093 -135.3229
11.803669 97.085 -135.3501
11.889203 97.082 -135.3389
11.975357 97.086 -135.3018
12.062136 97.097 -135.2779
12.149543 97.116 -135.2589
12.237583 97.143 -135.2382
12.326262 97.179 -135.2283
12.415583 97.223 -135.2450
12.505552 97.274 -135.2989
12.596172 97.332 -135.3920
12.687449 97.396 -135.5280
12.779387 97.461 -135.7130
12.871992 97.525 -135.9519
12.965268 97.589 -136.2435
13.059220 97.649 -136.6024
13.153852 97.705 -137.0127
13.249170 97.753 -137.4584
13.345179 97.794 -137.9351
13.441884 97.828 -138.4297
13.539289 97.852 -138.9271
13.637401 97.868 -139.4193
13.736223 97.875 -139.9003
13.835761 97.874 -140.3572
13.936021 97.868 -140.7762
14.037007 97.855 -141.1617
14.138725 97.839 -141.5188
14.241180 97.822 -141.8247
14.344377 97.805 -142.0751
14.448323 97.790 -142.2709
14.553021 97.778 -142.4203
14.658478 97.772 -142.5319
14.764700 97.774 -142.6115
14.871691 97.783 -142.6699
14.979457 97.800 -142.7241
15.088005 97.826 -142.8110
15.197339 97.859 -142.9204
15.307465 97.899 -143.0580
15.418389 97.942 -143.2349
15.530117 97.989 -143.4551
15.642655 98.036 -143.7178
15.756008 98.082 -144.0219
15.870182 98.125 -144.3654
15.985184 98.164 -144.7401
16.101019 98.199 -145.1525
16.217694 98.227 -145.5779
16.335214 98.249 -146.0047
16.453586 98.266 -146.4192
16.572815 98.278 -146.8103
16.692909 98.285 -147.1723
16.813872 98.289 -147.4986
16.935713 98.293 -147.7838
17.058436 98.297 -148.0377
17.182048 98.304 -148.2653
17.306556 98.314 -148.4607
17.431967 98.328 -148.6300
17.558286 98.348 -148.7842
17.685521 98.372 -148.9326
17.813677 98.401 -149.0820
17.942762 98.433 -149.2406
18.072783 98.467 -149.4246
18.203746 98.503 -149.6324
18.335658 98.537 -149.8539
18.468526 98.570 -150.0863
18.602356 98.600 -150.3220
18.737156 98.626 -150.5516
18.872934 98.648 -150.7677
19.009695 98.668 -150.9618
19.147447 98.686 -151.1372
19.286197 98.703 -151.2781
19.425953 98.722 -151.3833
19.566721 98.744 -151.4543
19.708510 98.771 -151.4995
19.851326 98.804 -151.5304
19.995177 98.844 -151.5589
20.140070 98.891 -151.6176
20.286013 98.943 -151.7070
20.433014 99.000 -151.8387
20.581080 99.058 -152.0241
20.730219 99.116 -152.2670
20.880439 99.168 -152.5656
21.031747 99.214 -152.9174
21.184152 99.249 -153.3171
21.337661 99.273 -153.7341
21.492282 99.285 -154.1495
21.648024 99.284 -154.5381
21.804895 99.273 -154.8798
21.962902 99.254 -155.1558
22.122054 99.231 -155.3615
22.282360 99.208 -155.4888
22.443827 99.192 -155.5412
22.606464 99.184 -155.5361
22.770280 99.191 -155.5040
22.935283 99.211 -155.4767
23.101481 99.245 -155.5018
23.268884 99.291 -155.6092
23.437500 99.342 -155.8188
23.607338 99.393 -156.1442
23.778406 99.437 -156.5803
23.950714 99.468 -157.1102
24.124271 99.483 -157.7118
24.299086 99.477 -158.3378
24.475167 99.452 -158.9430
24.652524 99.409 -159.4807
24.831166 99.354 -159.9182
25.011103 99.295 -160.2323
25.192344 99.239 -160.4276
25.374898 99.195 -160.5161
25.558775 99.170 -160.5333
25.743984 99.165 -160.5337
25.930536 99.181 -160.5680
26.118439 99.213 -160.6924
26.307704 99.253 -160.9296
26.498341 99.293 -161.2814
26.690359 99.325 -161.7300
26.883768 99.344 -162.2387
27.078579 99.348 -162.7658
27.274801 99.338 -163.2647
27.472446 99.319 -163.6968
27.671522 99.296 -164.0402
27.872042 99.278 -164.2974
28.074014 99.270 -164.4909
28.277450 99.275 -164.6601
28.482360 99.292 -164.8359
28.688755 99.318 -165.0500
28.896645 99.346 -165.3149
29.106042 99.371 -165.6276
29.316957 99.389 -165.9636
29.529400 99.398 -166.2862
29.743382 99.401 -166.5628
29.958915 99.403 -166.7743
30.176009 99.410 -166.9261
30.394677 99.428 -167.0375
30.614929 99.459 -167.1476
30.836778 99.503 -167.3031
31.060234 99.554 -167.5441
31.285309 99.605 -167.8951
31.512015 99.647 -168.3442
31.740364 99.673 -168.8639
31.970368 99.679 -169.4071
32.202039 99.665 -169.9288
32.435388 99.635 -170.3732
32.670428 99.593 -170.7026
32.907171 99.550 -170.8979
33.145630 99.512 -170.9646
33.385817 99.489 -170.9265
33.627745 99.486 -170.8251
33.871425 99.508 -170.7207
34.116871 99.553 -170.6811
34.364096 99.618 -170.7676
34.613113 99.693 -171.0255
34.863934 99.770 -171.4765
35.116572 99.834 -172.1142
35.371041 99.875 -172.8950
35.627354 99.886 -173.7447
35.885525 99.863 -174.5765
36.145566 99.812 -175.3018
36.407492 99.742 -175.8494
36.671316 99.668 -176.1853
36.937051 99.606 -176.3242
37.204712 99.567 -176.3320
37.474313 99.554 -176.2956
37.745867 99.565 -176.2843
38.019389 99.589 -176.3452
38.294893 99.618 -176.4925
38.572394 99.646 -176.7027
38.851905 99.670 -176.9519
39.133442 99.692 -177.2276
39.417019 99.713 -177.5338
39.702651 99.731 -177.8816
39.990353 99.742 -178.2762
40.280140 99.739 -178.7063
40.572026 99.718 -179.1288
40.866028 99.680 -179.4914
41.162160 99.631 -179.7538
41.460438 99.579 -179.9003
41.760877 99.533 -179.9462
42.063494 99.498 -179.9354
42.368303 99.475 -179.9180
42.675322 99.460 -179.9171
42.984565 99.452 -179.9449
43.296048 99.451 179.9914
43.609789 99.457 179.8749
43.925804 99.470 179.6738
44.244108 99.487 179.3528
44.564719 99.497 178.9055
44.887654 99.490 178.3673
45.212928 99.463 177.8058
45.540560 99.417 177.3032
45.870565 99.363 176.9162
46.202962 99.316 176.6466
46.537768 99.283 176.4474
46.875000 99.267 176.2538
47.214676 99.260 176.0240
47.556813 99.255 175.7663
47.901429 99.251 175.5179
48.248542 99.251 175.2992
48.598171 99.264 175.0887
48.950334 99.289 174.8260
49.305048 99.318 174.4520
49.662333 99.335 173.9685
50.022206 99.328 173.4494
50.384688 99.294 173.0107
50.749796 99.247 172.7513
51.117550 99.206 172.6875
51.487969 99.189 172.7359
51.861072 99.198 172.7605
52.236879 99.222 172.6488
52.615409 99.242 172.3790
52.996681 99.242 172.0150
53.380717 99.222 171.6494
53.767536 99.190 171.3509
54.157158 99.157 171.1254
54.549603 99.131 170.9299
54.944892 99.109 170.7137
55.343045 99.087 170.4536
55.744084 99.059 170.1711
56.148028 99.026 169.9016
56.554900 98.993 169.6673
56.964720 98.964 169.4637
57.377510 98.943 169.2614
57.793291 98.927 169.0291
58.212085 98.911 168.7600
58.633914 98.890 168.4806
59.058799 98.868 168.2289
59.486764 98.848 168.0179
59.917829 98.838 167.8218
60.352019 98.836 167.5905
60.789354 98.836 167.2925
61.229859 98.830 166.9387
61.673556 98.812 166.5756
62.120468 98.787 166.2479
62.570618 98.758 165.9689
63.024031 98.730 165.7268
63.480729 98.700 165.5112
63.940736 98.671 165.3362
64.404077 98.646 165.2030
64.870776 98.630 165.0751
65.340856 98.620 164.9011
65.814343 98.609 164.6680
66.291261 98.592 164.4060
66.771635 98.571 164.1497
67.255489 98.549 163.8966
67.742850 98.530 163.6143
68.233743 98.507 163.2876
68.728193 98.475 162.9468
69.226226 98.436 162.6390
69.727867 98.397 162.3683
70.233144 98.362 162.0878
70.742083 98.320 161.7715
71.254709 98.264 161.4815
71.771050 98.196 161.3347
72.291132 98.137 161.3792
72.814984 98.107 161.5114
73.342631 98.105 161.5490
73.874102 98.108 161.4026
74.409424 98.098 161.1308
74.948626 98.071 160.8421
75.491734 98.037 160.5770
76.038779 98.001 160.3158
76.589787 97.961 160.0414
77.144788 97.916 159.7672
77.703811 97.868 159.5083
78.266885 97.821 159.2628
78.834039 97.775 159.0377
