* Measurement data measured by REW V5.30.9
* Source: Microphone (Realtek USB2.0 Audio), MICROPHONE (Master Volume), L, volume: 0.500
* Format: 512k Log Swept Sine, 1 sweep at -12.0 dBFS with no timing reference
* Dated: 04 20, 24 2:22:51 PM
* REW Settings:
*  C-weighting compensation: Off
*  Target level: 75.0 dB
* Note: ; 
* Measurement: zs10pro2 DDUU L
* Smoothing: None
* Frequency Step: 1/48 octave
* Start Frequency: 1.000 Hz
*
* Freq(Hz)	SPL(dB)	Phase(degrees)
1.000000	48.266	-67.1829
1.015000	48.028	-67.7265
1.030000	47.770	-68.3636
1.044000	47.511	-69.0544
1.060000	47.196	-69.9342
1.075000	46.884	-70.8240
1.090000	46.558	-71.7543
1.106000	46.198	-72.7664
1.120000	45.873	-73.6485
1.138000	45.447	-74.7477
1.150000	45.159	-75.4416
1.172000	44.626	-76.5909
1.180000	44.431	-76.9584
1.206000	43.803	-77.9140
1.220000	43.470	-78.2481
1.241000	42.981	-78.4638
1.250000	42.777	-78.4386
1.265000	42.445	-78.2221
1.280000	42.127	-77.7686
1.315000	41.445	-75.6656
1.320000	41.355	-75.2339
1.340000	41.022	-73.1463
1.360000	40.716	-70.3653
1.380000	40.401	-66.7024
1.400000	40.081	-62.2561
1.430000	39.603	-54.3662
1.450000	39.292	-48.4586
1.475000	38.923	-40.5455
1.500000	38.584	-32.2524
1.525000	38.285	-23.8014
1.550000	38.037	-15.4146
1.575000	37.851	-7.3142
1.600000	37.735	0.2776
1.625000	37.701	7.1387
1.650000	37.758	13.0468
1.675000	37.917	17.7799
1.700000	38.198	18.9622
1.725000	38.624	19.2178
1.750000	39.177	19.6478
1.775000	39.836	20.2173
1.800000	40.580	20.8917
1.825000	41.388	21.6362
1.850000	42.240	22.4162
1.875000	43.116	23.1969
1.900000	43.994	23.9436
1.925000	44.854	24.6215
1.950000	45.676	25.1960
1.975000	46.438	25.6323
2.000000	47.121	25.8957
2.030000	47.813	25.8283
2.060000	48.430	25.2679
2.090000	48.999	24.4348
2.120000	49.525	23.3755
2.140000	49.855	22.5665
2.180000	50.475	20.7635
2.200000	50.769	19.7969
2.240000	51.332	17.8024
2.270000	51.742	16.3069
2.300000	52.147	14.8632
2.330000	52.554	13.5175
2.360000	52.970	12.3138
2.400000	53.514	10.7729
2.430000	53.906	9.6079
2.470000	54.411	8.0568
2.500000	54.778	6.9051
2.540000	55.254	5.3996
2.580000	55.720	3.9453
2.620000	56.178	2.5603
2.650000	56.519	1.5781
2.690000	56.972	0.3586
2.720000	57.310	-0.4990
2.760000	57.752	-1.5993
2.800000	58.186	-2.6413
2.850000	58.717	-3.8466
2.900000	59.238	-4.9260
2.950000	59.751	-5.8599
3.000000	60.258	-6.6291
3.040000	60.661	-7.1152
3.070000	60.961	-7.4232
3.110000	61.355	-7.7642
3.150000	61.745	-8.0161
3.200000	62.226	-8.1897
3.250000	62.701	-8.1874
3.300000	63.170	-7.9888
3.350000	63.634	-7.5737
3.400000	64.093	-6.9306
3.450000	64.547	-6.0778
3.500000	64.995	-5.0237
3.550000	65.437	-3.7759
3.600000	65.874	-2.3418
3.650000	66.307	-0.7288
3.700000	66.734	1.0556
3.750000	67.157	3.0868
3.820000	67.740	6.3859
3.870000	68.151	8.9587
3.950000	68.798	13.2280
4.000000	69.196	15.8668
4.060000	69.667	18.9028
4.120000	70.131	22.0168
4.180000	70.588	25.1873
4.250000	71.113	28.8083
4.310000	71.554	31.7174
4.370000	71.989	34.3287
4.440000	72.488	36.9965
4.500000	72.908	39.0528
4.550000	73.252	40.6083
4.620000	73.727	42.5510
4.680000	74.126	44.0038
4.750000	74.584	45.4397
4.820000	75.033	46.5448
4.870000	75.348	47.1636
4.940000	75.781	47.8470
5.000000	76.147	48.3123
5.080000	76.624	48.8203
5.150000	77.033	49.0780
5.220000	77.434	49.1762
5.300000	77.883	49.1528
5.380000	78.323	49.0510
5.450000	78.700	48.8923
5.520000	79.070	48.6329
5.600000	79.484	48.2559
5.700000	79.991	47.7368
5.800000	80.486	47.2000
5.900000	80.969	46.5999
6.000000	81.440	45.9779
6.080000	81.810	45.4926
6.150000	82.128	45.0732
6.220000	82.441	44.6527
6.300000	82.792	44.1699
6.400000	83.224	43.5610
6.500000	83.647	42.9540
6.600000	84.061	42.3426
6.700000	84.467	41.7082
6.800000	84.865	41.0378
6.900000	85.254	40.3394
7.000000	85.636	39.6166
7.100000	86.010	38.8718
7.200000	86.376	38.1023
7.300000	86.735	37.3112
7.400000	87.087	36.5035
7.500000	87.431	35.6721
7.620000	87.835	34.6495
7.750000	88.262	33.5548
7.880000	88.677	32.4793
8.000000	89.050	31.5045
8.120000	89.415	30.5655
8.250000	89.800	29.5853
8.380000	90.175	28.6448
8.500000	90.513	27.8162
8.620000	90.844	27.0241
8.750000	91.194	26.2023
8.850000	91.458	25.5984
9.000000	91.844	24.7326
9.120000	92.147	24.0557
9.250000	92.468	23.3381
9.380000	92.783	22.6376
9.500000	93.068	22.0047
9.620000	93.347	21.3862
9.750000	93.644	20.7264
9.880000	93.935	20.0746
10.000000	94.198	19.4812
10.150000	94.520	18.7485
10.300000	94.835	18.0238
10.440000	95.123	17.3649
10.600000	95.443	16.6379
10.750000	95.737	15.9779
10.900000	96.024	15.3381
11.060000	96.322	14.6773
11.200000	96.578	14.1156
11.380000	96.898	13.4169
11.500000	97.107	12.9672
11.720000	97.480	12.1757
11.800000	97.613	11.8956
12.060000	98.033	11.0137
12.200000	98.253	10.5503
12.410000	98.574	9.8719
12.500000	98.708	9.5929
12.650000	98.928	9.1445
12.800000	99.144	8.7059
13.150000	99.612	7.7046
13.200000	99.645	7.5599
13.400000	99.709	6.9838
13.600000	99.719	6.4446
13.800000	99.696	5.9280
14.000000	99.682	5.4138
14.300000	99.667	4.6191
14.500000	99.658	4.0870
14.750000	99.635	3.4587
15.000000	99.612	2.8256
15.250000	99.591	2.1753
15.500000	99.572	1.5162
15.750000	99.542	0.8992
16.000000	99.514	0.2853
16.250000	99.492	-0.3342
16.500000	99.475	-0.9548
16.750000	99.448	-1.5356
17.000000	99.424	-2.1095
17.250000	99.404	-2.6829
17.500000	99.388	-3.2543
17.750000	99.364	-3.7959
18.000000	99.341	-4.3360
18.250000	99.322	-4.8783
18.500000	99.304	-5.4187
18.750000	99.278	-5.9293
19.000000	99.252	-6.4277
19.250000	99.228	-6.9139
19.500000	99.206	-7.3828
19.750000	99.178	-7.8155
20.000000	99.153	-8.2379
20.299999	99.126	-8.7421
20.600000	99.100	-9.2412
20.900000	99.069	-9.7278
21.200001	99.038	-10.2266
21.400000	99.017	-10.5575
21.799999	98.964	-11.1724
22.000000	98.937	-11.4662
22.400000	98.884	-12.0352
22.700001	98.843	-12.4323
23.000000	98.803	-12.8240
23.299999	98.765	-13.2346
23.600000	98.725	-13.6429
24.000000	98.668	-14.1533
24.299999	98.629	-14.5318
24.700001	98.580	-15.0193
25.000000	98.546	-15.4018
25.400000	98.506	-15.9938
25.799999	98.453	-16.6226
26.200001	98.388	-17.2356
26.500000	98.336	-17.6310
26.900000	98.267	-18.0403
27.200001	98.231	-18.3239
27.600000	98.197	-18.7573
28.000000	98.162	-19.3200
28.500000	98.093	-20.1827
29.000000	97.974	-20.8873
29.500000	97.846	-21.2274
30.000000	97.753	-21.2704
30.400000	97.717	-21.3368
30.700001	97.699	-21.4686
31.100000	97.671	-21.7588
31.500000	97.632	-22.1053
32.000000	97.569	-22.4541
32.500000	97.516	-22.7483
33.000000	97.470	-23.0642
33.500000	97.425	-23.4921
34.000000	97.364	-23.9182
34.500000	97.302	-24.3016
35.000000	97.240	-24.6281
35.500000	97.188	-24.9912
36.000000	97.132	-25.3699
36.500000	97.073	-25.7803
37.000000	97.008	-26.1598
37.500000	96.943	-26.5237
38.200001	96.846	-26.9573
38.700001	96.779	-27.2208
39.500000	96.679	-27.6241
40.000000	96.614	-27.8778
40.599998	96.536	-28.1638
41.200001	96.455	-28.3933
41.799999	96.381	-28.5933
42.500000	96.301	-28.8097
43.099998	96.238	-29.0032
43.700001	96.179	-29.2509
44.400002	96.103	-29.5328
45.000000	96.041	-29.7135
45.500000	95.999	-29.8768
46.200001	95.944	-30.1956
46.799999	95.885	-30.5078
47.500000	95.809	-30.7720
48.200001	95.747	-30.9995
48.700001	95.706	-31.2256
49.400002	95.634	-31.5556
50.000000	95.569	-31.7727
50.799999	95.492	-32.0742
51.500000	95.418	-32.3799
52.200001	95.339	-32.6195
53.000000	95.257	-32.8912
53.799999	95.175	-33.1704
54.500000	95.114	-33.3656
55.200001	95.064	-33.7210
56.000000	94.959	-34.2405
57.000000	94.809	-34.2739
58.000000	94.754	-34.2908
59.000000	94.667	-34.6572
60.000000	94.573	-34.7877
60.799999	94.504	-34.9933
61.500000	94.429	-35.1364
62.200001	94.359	-35.1919
63.000000	94.293	-35.3111
64.000000	94.202	-35.5294
65.000000	94.107	-35.7135
66.000000	94.016	-35.8657
67.000000	93.927	-35.9882
68.000000	93.848	-36.1130
69.000000	93.765	-36.3267
70.000000	93.656	-36.4325
71.000000	93.571	-36.4129
72.000000	93.494	-36.5055
73.000000	93.407	-36.6133
74.000000	93.321	-36.7075
75.000000	93.240	-36.8023
76.199997	93.143	-36.9605
77.500000	93.034	-37.0235
78.800003	92.939	-37.0928
80.000000	92.843	-37.1414
81.199997	92.750	-37.1608
82.500000	92.643	-37.1810
83.800003	92.539	-37.1921
85.000000	92.439	-37.1396
86.199997	92.376	-37.1827
87.500000	92.257	-37.3386
88.500000	92.195	-37.1777
90.000000	92.093	-37.3476
91.199997	92.000	-37.1430
92.500000	91.917	-37.1611
93.800003	91.806	-37.0941
95.000000	91.711	-37.0243
96.199997	91.625	-36.9642
97.500000	91.528	-36.8479
98.800003	91.452	-36.7304
100.000000	91.357	-36.4748
101.500000	91.262	-36.1549
103.000000	91.142	-35.9241
104.400002	90.992	-35.5524
106.000000	90.936	-35.1963
107.500000	90.865	-34.5356
109.000000	90.901	-34.0493
110.599998	90.914	-33.5497
112.000000	90.718	-32.7537
113.800003	90.892	-32.4934
115.000000	90.732	-32.9735
117.199997	90.693	-33.8937
118.000000	90.634	-33.3498
120.599998	90.577	-34.5248
122.000000	90.761	-31.8294
124.099998	90.601	-33.1459
125.000000	90.602	-32.8957
126.500000	90.892	-33.0412
128.000000	90.728	-34.5866
131.500000	90.643	-33.3197
132.000000	90.534	-33.9531
134.000000	89.562	-36.1154
136.000000	90.020	-32.2199
138.000000	90.032	-33.3569
140.000000	89.933	-33.3242
143.000000	89.973	-31.5620
145.000000	89.410	-33.9988
147.500000	89.432	-34.5831
150.000000	89.583	-33.4377
152.500000	89.526	-33.0690
155.000000	89.541	-32.0963
157.500000	89.572	-32.6805
160.000000	89.519	-32.1363
162.500000	89.337	-30.9474
165.000000	89.180	-31.6719
167.500000	89.173	-31.0969
170.000000	89.089	-31.3228
172.500000	89.026	-31.0958
175.000000	88.960	-30.6572
177.500000	88.811	-30.2311
180.000000	88.721	-29.9426
182.500000	88.634	-29.5805
185.000000	88.549	-29.4112
187.500000	88.458	-28.7736
190.000000	88.418	-28.2652
192.500000	88.382	-27.6664
195.000000	88.358	-27.4326
197.500000	88.295	-27.2421
200.000000	88.293	-26.9412
203.000000	88.273	-26.9736
206.000000	88.257	-26.9699
209.000000	88.169	-26.7575
212.000000	88.160	-26.8821
214.000000	88.106	-26.5833
218.000000	88.007	-26.4234
220.000000	87.935	-26.2446
224.000000	87.893	-26.0328
227.000000	87.828	-26.2436
230.000000	87.765	-25.6100
233.000000	87.693	-25.2140
236.000000	87.604	-25.1927
240.000000	87.671	-24.9422
243.000000	87.522	-24.3343
247.000000	87.391	-23.7879
250.000000	87.349	-23.5949
254.000000	87.257	-22.9527
258.000000	87.193	-22.4559
262.000000	87.163	-21.4599
265.000000	87.152	-21.3432
269.000000	87.056	-20.3046
272.000000	87.113	-19.8039
276.000000	87.136	-19.7441
280.000000	87.117	-19.6299
285.000000	87.119	-19.4388
290.000000	87.061	-19.3999
295.000000	86.995	-19.0658
300.000000	86.933	-18.7260
304.000000	86.890	-18.4837
307.000000	86.841	-18.2926
311.000000	86.797	-18.0166
315.000000	86.760	-17.6343
320.000000	86.708	-17.2867
325.000000	86.649	-16.9045
330.000000	86.588	-16.5011
335.000000	86.553	-16.0285
340.000000	86.509	-15.4917
345.000000	86.449	-15.3154
350.000000	86.422	-14.9215
355.000000	86.390	-14.5837
360.000000	86.572	-12.9094
365.000000	86.284	-13.4695
370.000000	86.280	-13.1594
375.000000	86.226	-12.8474
382.000000	86.175	-12.1325
387.000000	86.158	-11.8699
395.000000	86.094	-11.1974
400.000000	86.067	-10.7698
406.000000	86.023	-10.3764
412.000000	86.006	-9.7227
418.000000	85.955	-9.3550
425.000000	85.924	-8.8215
431.000000	85.908	-8.3675
437.000000	85.868	-7.8267
444.000000	85.844	-7.3081
450.000000	85.827	-6.8652
455.000000	85.781	-6.5028
462.000000	85.765	-5.9960
468.000000	85.735	-5.5208
475.000000	85.713	-4.9508
482.000000	85.687	-4.4704
487.000000	85.672	-4.1198
494.000000	85.656	-3.6797
500.000000	85.636	-3.1543
508.000000	85.610	-2.5462
515.000000	85.581	-2.0359
522.000000	85.568	-1.5363
530.000000	85.550	-0.9306
538.000000	85.535	-0.3371
545.000000	85.520	0.1777
552.000000	85.502	0.6470
560.000000	85.485	1.2485
570.000000	85.466	1.9356
580.000000	85.453	2.6610
590.000000	85.442	3.3710
600.000000	85.432	4.0806
608.000000	85.424	4.6461
615.000000	85.415	5.1514
622.000000	85.408	5.6816
630.000000	85.403	6.2260
640.000000	85.408	6.9230
650.000000	85.395	7.6389
660.000000	85.394	8.3095
670.000000	85.392	9.0663
680.000000	85.396	9.8007
690.000000	85.401	10.5271
700.000000	85.403	11.2039
710.000000	85.407	11.9094
720.000000	85.415	12.5916
730.000000	85.429	13.3002
740.000000	85.441	14.0553
750.000000	85.462	14.7111
762.000000	85.483	15.5416
775.000000	85.515	16.4513
788.000000	85.543	17.3547
800.000000	85.586	18.1020
812.000000	85.618	18.7267
825.000000	85.580	19.4078
838.000000	85.585	20.7375
850.000000	85.639	21.7647
862.000000	85.702	22.6625
875.000000	85.756	23.5948
885.000000	85.810	24.2591
900.000000	85.888	25.2704
912.000000	85.952	26.0759
925.000000	86.021	26.9057
938.000000	86.095	27.7231
950.000000	86.172	28.4588
962.000000	86.246	29.1845
975.000000	86.337	29.9457
988.000000	86.428	30.6720
1000.000000	86.506	31.3074
1015.000000	86.618	32.0578
1030.000000	86.735	32.7260
1044.000000	86.830	33.3706
1060.000000	86.964	34.0956
1075.000000	87.071	34.7063
1090.000000	87.200	35.2490
1106.000000	87.319	35.7510
1120.000000	87.420	36.2579
1138.000000	87.558	36.7071
1150.000000	87.650	37.0369
1172.000000	87.808	37.6382
1180.000000	87.872	37.7982
1206.000000	88.045	38.3615
1220.000000	88.141	38.6304
1241.000000	88.274	39.0412
1250.000000	88.339	39.1554
1265.000000	88.426	39.4119
1280.000000	88.525	39.6978
1315.000000	88.731	40.2285
1320.000000	88.766	40.2804
1340.000000	88.873	40.5801
1360.000000	88.988	40.8527
1380.000000	89.099	41.1570
1400.000000	89.201	41.4234
1430.000000	89.355	41.8782
1450.000000	89.457	42.2034
1475.000000	89.577	42.5487
1500.000000	89.704	42.9250
1525.000000	89.818	43.3037
1550.000000	89.937	43.6905
1575.000000	90.062	44.0918
1600.000000	90.178	44.4883
1625.000000	90.302	44.8502
1650.000000	90.422	45.2525
1675.000000	90.546	45.6084
1700.000000	90.664	45.9659
1725.000000	90.793	46.3481
1750.000000	90.912	46.6953
1775.000000	91.038	47.0059
1800.000000	91.161	47.3693
1825.000000	91.289	47.7245
1850.000000	91.421	48.0360
1875.000000	91.554	48.3790
1900.000000	91.688	48.6774
1925.000000	91.821	48.9407
1950.000000	91.956	49.1558
1975.000000	92.091	49.3897
2000.000000	92.229	49.6563
2030.000000	92.399	49.8680
2060.000000	92.577	50.0591
2090.000000	92.753	50.2920
2120.000000	92.925	50.3755
2140.000000	93.040	50.4755
2180.000000	93.275	50.5626
2200.000000	93.396	50.5819
2240.000000	93.634	50.5812
2270.000000	93.809	50.5515
2300.000000	93.984	50.4217
2330.000000	94.156	50.2914
2360.000000	94.331	50.0610
2400.000000	94.549	49.7899
2430.000000	94.715	49.4706
2470.000000	94.937	49.0446
2500.000000	95.087	48.6673
2540.000000	95.305	48.2299
2580.000000	95.520	47.6419
2620.000000	95.758	47.1544
2650.000000	95.942	46.5377
2690.000000	96.174	45.6806
2720.000000	96.364	44.5849
2760.000000	96.563	43.4074
2800.000000	96.744	41.7219
2850.000000	96.888	39.9091
2900.000000	97.000	37.6652
2950.000000	97.112	35.8488
3000.000000	97.119	33.6098
3040.000000	97.103	32.2287
3070.000000	97.133	30.8949
3110.000000	97.077	29.5681
3150.000000	97.027	27.6452
3200.000000	96.846	25.8827
3250.000000	96.715	23.8360
3300.000000	96.531	22.6181
3350.000000	96.190	20.8700
3400.000000	95.878	19.1881
3450.000000	95.536	18.1897
3500.000000	95.213	18.6033
3550.000000	94.886	18.1037
3600.000000	94.548	19.4364
3650.000000	94.218	19.3420
3700.000000	94.033	19.8352
3750.000000	93.743	21.6483
3820.000000	93.532	22.5128
3870.000000	93.411	24.1299
3950.000000	93.261	25.5386
4000.000000	92.967	26.0832
4060.000000	92.773	27.4990
4120.000000	92.851	27.8388
4180.000000	92.734	29.5132
4250.000000	92.625	30.9016
4310.000000	92.568	32.6257
4370.000000	92.408	32.4536
4440.000000	92.322	34.1558
4500.000000	92.258	35.4857
4550.000000	92.262	36.3570
4620.000000	92.376	38.4898
4680.000000	92.325	39.3559
4750.000000	92.490	41.3691
4820.000000	92.566	41.3650
4870.000000	92.761	42.0242
4940.000000	92.975	42.6348
5000.000000	93.181	42.1290
5080.000000	93.153	42.0860
5150.000000	93.166	41.8370
5220.000000	93.169	40.9835
5300.000000	93.047	40.8486
5380.000000	92.895	40.6347
5450.000000	93.042	40.9514
5520.000000	92.937	41.1542
5600.000000	92.970	40.9284
5700.000000	92.751	40.5105
5800.000000	92.633	41.3734
5900.000000	92.654	42.0091
6000.000000	92.656	42.1200
6080.000000	92.511	42.4561
6150.000000	92.356	43.6389
6220.000000	92.328	43.8708
6300.000000	92.431	45.2282
6400.000000	92.602	46.0071
6500.000000	92.568	46.6708
6600.000000	92.775	49.6797
6700.000000	93.075	50.2810
6800.000000	93.437	51.7826
6900.000000	93.730	53.7081
7000.000000	94.012	53.7866
7100.000000	94.558	53.6520
7200.000000	95.096	53.5697
7300.000000	95.585	52.0769
7400.000000	95.900	52.1369
7500.000000	96.432	49.2221
7620.000000	97.003	48.1632
7750.000000	97.440	43.7048
7880.000000	97.955	37.4060
8000.000000	98.381	31.9022
8120.000000	97.913	24.6595
8250.000000	97.129	17.8835
8380.000000	96.073	12.5878
8500.000000	95.095	9.0576
8620.000000	93.783	8.0891
8750.000000	92.781	8.3491
8850.000000	91.869	9.1330
9000.000000	90.681	10.8387
9120.000000	89.908	14.3776
9250.000000	89.065	17.1397
9380.000000	88.327	20.7793
9500.000000	87.822	23.1741
9620.000000	87.171	26.9131
9750.000000	86.772	29.8932
9880.000000	86.473	32.5172
10000.000000	86.375	35.8954
10150.000000	86.262	38.8095
10300.000000	86.187	39.4151
10440.000000	86.442	40.3823
10600.000000	86.517	39.0488
10750.000000	86.626	35.2479
10900.000000	86.731	32.2809
11060.000000	86.560	27.3973
11200.000000	86.682	23.3255
11380.000000	86.338	18.5349
11500.000000	86.083	14.2218
11720.000000	85.841	9.8329
11800.000000	85.694	8.2354
12060.000000	85.174	4.0613
12200.000000	84.777	3.1010
12410.000000	84.340	2.1928
12500.000000	84.107	2.0905
12650.000000	83.259	0.5311
12800.000000	81.707	8.4722
13150.000000	83.092	22.3853
13200.000000	83.202	23.8214
13400.000000	83.259	26.9516
13600.000000	83.381	31.1998
13800.000000	83.676	34.9535
14000.000000	83.713	38.6219
14300.000000	84.381	42.6448
14500.000000	84.870	45.7573
14750.000000	87.501	45.9952
15000.000000	89.380	27.9468
15250.000000	90.691	6.8166
15500.000000	91.392	-23.1467
15750.000000	90.560	-51.6048
16000.000000	89.047	-69.9967
16250.000000	88.564	-69.6380
16500.000000	91.377	-77.1583
16750.000000	91.858	-91.5738
17000.000000	91.751	-101.3438
17250.000000	91.364	-108.1181
17500.000000	90.491	-113.1963
17750.000000	89.515	-116.6995
18000.000000	88.361	-116.1554
18250.000000	87.193	-116.1607
18500.000000	85.966	-113.7896
18750.000000	85.164	-112.0006
19000.000000	84.379	-112.6832
19250.000000	83.916	-113.6659
19500.000000	84.296	-118.0452
19750.000000	84.930	-125.1482
