* Measurement data measured by REW V5.31.1
* Source: VENTURE-DAS-32, VENTURE-DAS-32, 0, volume: 0.668
* Format: 512k Log Swept Sine, 1 sweep at -12.0 dBFS with no timing reference
* Dated: Jun 22, 2024 2:56:16 PM
* REW Settings:
*  C-weighting compensation: Off
*  Target level: 75.0 dB
* Note: ; 
* Measurement: Tanchjim Origin L
* Smoothing: 1/24 octave
* Frequency Step: 1/48 octave
* Start Frequency: 20.000 Hz
*
* Freq(Hz), SPL(dB), Phase(degrees)
20.000000, 88.137, -138.9417
20.299999, 88.168, -139.4632
20.600000, 88.207, -139.9914
20.900000, 88.248, -140.5447
21.200001, 88.287, -141.1215
21.400000, 88.311, -141.5116
21.799999, 88.353, -142.2813
22.000000, 88.371, -142.6534
22.400000, 88.407, -143.3684
22.700001, 88.433, -143.8863
23.000000, 88.458, -144.3965
23.299999, 88.482, -144.9010
23.600000, 88.503, -145.3954
24.000000, 88.527, -146.0258
24.299999, 88.544, -146.4708
24.700001, 88.567, -147.0327
25.000000, 88.588, -147.4434
25.400000, 88.618, -147.9974
25.799999, 88.646, -148.5694
26.200001, 88.669, -149.1508
26.500000, 88.683, -149.5798
26.900000, 88.697, -150.1250
27.200001, 88.707, -150.5083
27.600000, 88.721, -150.9890
28.000000, 88.738, -151.4499
28.500000, 88.764, -152.0281
29.000000, 88.791, -152.6334
29.500000, 88.815, -153.2662
30.000000, 88.832, -153.8996
30.400000, 88.841, -154.3815
30.700001, 88.847, -154.7196
31.100000, 88.856, -155.1405
31.500000, 88.868, -155.5413
32.000000, 88.887, -156.0468
32.500000, 88.905, -156.5768
33.000000, 88.917, -157.1123
33.500000, 88.924, -157.6125
34.000000, 88.931, -158.0627
34.500000, 88.943, -158.4915
35.000000, 88.957, -158.9365
35.500000, 88.967, -159.3970
36.000000, 88.971, -159.8363
36.500000, 88.975, -160.2305
37.000000, 88.985, -160.6023
37.500000, 89.001, -160.9989
38.200001, 89.020, -161.6240
38.700001, 89.026, -162.0801
39.500000, 89.026, -162.7504
40.000000, 89.025, -163.1315
40.599998, 89.024, -163.5556
41.200001, 89.026, -163.9397
41.799999, 89.034, -164.3083
42.500000, 89.046, -164.7735
43.099998, 89.051, -165.1921
43.700001, 89.051, -165.5798
44.400002, 89.052, -165.9879
45.000000, 89.056, -166.3450
45.500000, 89.057, -166.6562
46.200001, 89.057, -167.0839
46.799999, 89.057, -167.4391
47.500000, 89.059, -167.8610
48.200001, 89.056, -168.2693
48.700001, 89.056, -168.5369
49.400002, 89.062, -168.9048
50.000000, 89.067, -169.2399
50.799999, 89.068, -169.6771
51.500000, 89.066, -170.0088
52.200001, 89.067, -170.3248
53.000000, 89.066, -170.7233
53.799999, 89.054, -171.1361
54.500000, 89.035, -171.4540
55.200001, 89.021, -171.7548
56.000000, 89.004, -172.1513
57.000000, 88.972, -172.5735
58.000000, 88.983, -172.8845
59.000000, 89.018, -173.5733
60.000000, 88.995, -174.3164
60.799999, 88.971, -174.6436
61.500000, 88.966, -174.8498
62.200001, 88.966, -175.0473
63.000000, 88.970, -175.2545
64.000000, 88.978, -175.5405
65.000000, 88.976, -175.8746
66.000000, 88.966, -176.2202
67.000000, 88.951, -176.5646
68.000000, 88.937, -176.9113
69.000000, 88.924, -177.2691
70.000000, 88.913, -177.6242
71.000000, 88.901, -177.9586
72.000000, 88.891, -178.2645
73.000000, 88.883, -178.5803
74.000000, 88.869, -178.9021
75.000000, 88.852, -179.1943
76.199997, 88.838, -179.5440
77.500000, 88.823, -179.9721
78.800003, 88.805, 179.6169
80.000000, 88.791, 179.2758
81.199997, 88.780, 178.9443
82.500000, 88.764, 178.5855
83.800003, 88.745, 178.2481
85.000000, 88.726, 177.9368
86.199997, 88.705, 177.6261
87.500000, 88.683, 177.3046
88.500000, 88.668, 177.0545
90.000000, 88.645, 176.6856
91.199997, 88.627, 176.4058
92.500000, 88.607, 176.1119
93.800003, 88.588, 175.8208
95.000000, 88.570, 175.5524
96.199997, 88.552, 175.2890
97.500000, 88.530, 175.0093
98.800003, 88.507, 174.7421
100.000000, 88.483, 174.5102
101.500000, 88.455, 174.2252
103.000000, 88.428, 173.9321
104.400002, 88.404, 173.6271
106.000000, 88.375, 173.3052
107.500000, 88.351, 173.0108
109.000000, 88.323, 172.7439
110.599998, 88.293, 172.5220
112.000000, 88.270, 172.3186
113.800003, 88.238, 172.0177
115.000000, 88.214, 171.8181
117.199997, 88.173, 171.4878
118.000000, 88.159, 171.3661
120.599998, 88.112, 170.9402
122.000000, 88.084, 170.7394
124.099998, 88.043, 170.4325
125.000000, 88.024, 170.3142
126.500000, 87.992, 170.1354
128.000000, 87.961, 169.9698
131.500000, 87.905, 169.5107
132.000000, 87.897, 169.4251
134.000000, 87.855, 169.1315
136.000000, 87.813, 168.9169
138.000000, 87.766, 168.6929
140.000000, 87.722, 168.4900
143.000000, 87.671, 168.1966
145.000000, 87.633, 168.0444
147.500000, 87.562, 167.9437
150.000000, 87.509, 168.0081
152.500000, 87.486, 167.7424
155.000000, 87.435, 167.5124
157.500000, 87.377, 167.5278
160.000000, 87.337, 167.6366
162.500000, 87.299, 167.6858
165.000000, 87.244, 167.6041
167.500000, 87.152, 167.4700
170.000000, 87.053, 167.3165
172.500000, 86.976, 166.9982
175.000000, 86.921, 166.5963
177.500000, 86.908, 166.3518
180.000000, 86.898, 166.0312
182.500000, 86.814, 165.8596
185.000000, 86.730, 165.8516
187.500000, 86.691, 165.6750
190.000000, 86.686, 165.5048
192.500000, 86.697, 165.4073
195.000000, 86.703, 165.3160
197.500000, 86.701, 165.2298
200.000000, 86.692, 165.1346
203.000000, 86.664, 165.0024
206.000000, 86.626, 164.8569
209.000000, 86.582, 164.7227
212.000000, 86.532, 164.6173
214.000000, 86.497, 164.5510
218.000000, 86.428, 164.4411
220.000000, 86.394, 164.3945
224.000000, 86.327, 164.2832
227.000000, 86.274, 164.2237
230.000000, 86.221, 164.1960
233.000000, 86.168, 164.1556
236.000000, 86.116, 164.1122
240.000000, 86.050, 164.0618
243.000000, 85.996, 164.0457
247.000000, 85.925, 164.0550
250.000000, 85.875, 164.0633
254.000000, 85.810, 164.0703
258.000000, 85.748, 164.0841
262.000000, 85.688, 164.1025
265.000000, 85.643, 164.1198
269.000000, 85.584, 164.1487
272.000000, 85.540, 164.1665
276.000000, 85.480, 164.1936
280.000000, 85.422, 164.2444
285.000000, 85.354, 164.3216
290.000000, 85.287, 164.4082
295.000000, 85.227, 164.6064
300.000000, 85.171, 164.8881
304.000000, 85.102, 164.8595
307.000000, 85.050, 164.8473
311.000000, 84.993, 164.9190
315.000000, 84.944, 165.0219
320.000000, 84.883, 165.1419
325.000000, 84.823, 165.2704
330.000000, 84.765, 165.4174
335.000000, 84.707, 165.5666
340.000000, 84.650, 165.7067
345.000000, 84.592, 165.8256
350.000000, 84.534, 165.9809
355.000000, 84.480, 166.2011
360.000000, 84.429, 166.4100
365.000000, 84.373, 166.6041
370.000000, 84.318, 166.8044
375.000000, 84.266, 167.0010
382.000000, 84.195, 167.2752
387.000000, 84.144, 167.4870
395.000000, 84.066, 167.8283
400.000000, 84.019, 168.0421
406.000000, 83.963, 168.3139
412.000000, 83.905, 168.5629
418.000000, 83.842, 168.7763
425.000000, 83.787, 169.1488
431.000000, 83.744, 169.4832
437.000000, 83.697, 169.7820
444.000000, 83.643, 170.1307
450.000000, 83.596, 170.4298
455.000000, 83.556, 170.6879
462.000000, 83.503, 171.0542
468.000000, 83.458, 171.3669
475.000000, 83.410, 171.7534
482.000000, 83.363, 172.1341
487.000000, 83.328, 172.3873
494.000000, 83.281, 172.7524
500.000000, 83.242, 173.0800
508.000000, 83.194, 173.5179
515.000000, 83.152, 173.9047
522.000000, 83.111, 174.3050
530.000000, 83.063, 174.7868
538.000000, 83.012, 175.3243
545.000000, 82.977, 175.6973
552.000000, 82.948, 176.0411
560.000000, 82.912, 176.4852
570.000000, 82.866, 177.0667
580.000000, 82.821, 177.6564
590.000000, 82.778, 178.2519
600.000000, 82.734, 178.8580
608.000000, 82.704, 179.3350
615.000000, 82.681, 179.7531
622.000000, 82.658, -179.8294
630.000000, 82.633, -179.3484
640.000000, 82.601, -178.7433
650.000000, 82.567, -178.1497
660.000000, 82.535, -177.5701
670.000000, 82.515, -176.9079
680.000000, 82.496, -176.2635
690.000000, 82.476, -175.6490
700.000000, 82.456, -175.0305
710.000000, 82.435, -174.3960
720.000000, 82.416, -173.7583
730.000000, 82.400, -173.1507
740.000000, 82.384, -172.5295
750.000000, 82.368, -171.8898
762.000000, 82.352, -171.0990
775.000000, 82.342, -170.2111
788.000000, 82.322, -169.2911
800.000000, 82.303, -168.4017
812.000000, 82.295, -167.4769
825.000000, 82.296, -166.4246
838.000000, 82.307, -165.3376
850.000000, 82.326, -164.3730
862.000000, 82.350, -163.4156
875.000000, 82.387, -162.3780
885.000000, 82.429, -161.5979
900.000000, 82.500, -160.4621
912.000000, 82.547, -159.5464
925.000000, 82.599, -158.5875
938.000000, 82.660, -157.6636
950.000000, 82.724, -156.8335
962.000000, 82.793, -156.0348
975.000000, 82.871, -155.2200
988.000000, 82.953, -154.4333
1000.000000, 83.030, -153.7326
1015.000000, 83.129, -152.8931
1030.000000, 83.232, -152.1230
1044.000000, 83.332, -151.4503
1060.000000, 83.445, -150.7300
1075.000000, 83.553, -150.1147
1090.000000, 83.662, -149.5357
1106.000000, 83.778, -148.9641
1120.000000, 83.879, -148.5066
1138.000000, 84.009, -147.9696
1150.000000, 84.097, -147.6672
1172.000000, 84.256, -147.1816
1180.000000, 84.312, -147.0204
1206.000000, 84.489, -146.5471
1220.000000, 84.580, -146.3112
1241.000000, 84.714, -145.9882
1250.000000, 84.772, -145.8541
1265.000000, 84.869, -145.6640
1280.000000, 84.969, -145.5143
1315.000000, 85.188, -145.1384
1320.000000, 85.218, -145.0864
1340.000000, 85.336, -144.8936
1360.000000, 85.454, -144.7111
1380.000000, 85.571, -144.5348
1400.000000, 85.686, -144.3310
1430.000000, 85.858, -144.0515
1450.000000, 85.975, -143.8737
1475.000000, 86.125, -143.6658
1500.000000, 86.276, -143.4919
1525.000000, 86.430, -143.3389
1550.000000, 86.584, -143.2376
1575.000000, 86.737, -143.1917
1600.000000, 86.888, -143.2032
1625.000000, 87.036, -143.2650
1650.000000, 87.180, -143.3712
1675.000000, 87.317, -143.5197
1700.000000, 87.448, -143.6906
1725.000000, 87.574, -143.8814
1750.000000, 87.692, -144.0737
1775.000000, 87.803, -144.2604
1800.000000, 87.909, -144.4499
1825.000000, 88.014, -144.6232
1850.000000, 88.117, -144.7898
1875.000000, 88.219, -144.9561
1900.000000, 88.319, -145.1157
1925.000000, 88.421, -145.2699
1950.000000, 88.525, -145.4250
1975.000000, 88.629, -145.5771
2000.000000, 88.734, -145.7341
2030.000000, 88.859, -145.9289
2060.000000, 88.984, -146.1289
2090.000000, 89.111, -146.3347
2120.000000, 89.237, -146.5635
2140.000000, 89.322, -146.7251
2180.000000, 89.492, -147.0706
2200.000000, 89.578, -147.2578
2240.000000, 89.750, -147.6531
2270.000000, 89.877, -147.9700
2300.000000, 90.005, -148.3119
2330.000000, 90.133, -148.6798
2360.000000, 90.259, -149.0687
2400.000000, 90.426, -149.6193
2430.000000, 90.548, -150.0538
2470.000000, 90.709, -150.6613
2500.000000, 90.828, -151.1359
2540.000000, 90.987, -151.8070
2580.000000, 91.144, -152.5281
2620.000000, 91.298, -153.2940
2650.000000, 91.409, -153.9032
2690.000000, 91.552, -154.7592
2720.000000, 91.653, -155.4244
2760.000000, 91.781, -156.3366
2800.000000, 91.901, -157.2722
2850.000000, 92.041, -158.4578
2900.000000, 92.170, -159.6621
2950.000000, 92.288, -160.8788
3000.000000, 92.394, -162.0988
3040.000000, 92.467, -163.0770
3070.000000, 92.513, -163.8082
3110.000000, 92.563, -164.7764
3150.000000, 92.594, -165.7304
3200.000000, 92.603, -166.8987
3250.000000, 92.584, -168.0357
3300.000000, 92.538, -169.1349
3350.000000, 92.483, -170.1935
3400.000000, 92.435, -171.2204
3450.000000, 92.402, -172.2358
3500.000000, 92.388, -173.2473
3550.000000, 92.379, -174.2437
3600.000000, 92.366, -175.2073
3650.000000, 92.334, -176.1249
3700.000000, 92.271, -176.9927
3750.000000, 92.175, -177.8096
3820.000000, 91.987, -178.8717
3870.000000, 91.836, -179.5766
3950.000000, 91.588, 179.3849
4000.000000, 91.443, 178.7907
4060.000000, 91.295, 178.1302
4120.000000, 91.177, 177.5266
4180.000000, 91.094, 176.9805
4250.000000, 91.025, 176.4191
4310.000000, 90.984, 175.9966
4370.000000, 90.949, 175.6199
4440.000000, 90.903, 175.2241
4500.000000, 90.855, 174.9176
4550.000000, 90.804, 174.6868
4620.000000, 90.717, 174.4100
4680.000000, 90.629, 174.2289
4750.000000, 90.514, 174.1058
4820.000000, 90.395, 174.0936
4870.000000, 90.312, 174.1447
4940.000000, 90.203, 174.2581
5000.000000, 90.115, 174.3436
5080.000000, 89.999, 174.4045
5150.000000, 89.892, 174.4262
5220.000000, 89.781, 174.4600
5300.000000, 89.651, 174.5459
5380.000000, 89.523, 174.6927
5450.000000, 89.414, 174.8727
5520.000000, 89.309, 175.1017
5600.000000, 89.190, 175.4146
5700.000000, 89.038, 175.8738
5800.000000, 88.884, 176.4099
5900.000000, 88.727, 177.0248
6000.000000, 88.579, 177.7344
6080.000000, 88.475, 178.3754
6150.000000, 88.401, 178.9863
6220.000000, 88.345, 179.6344
6300.000000, 88.307, -179.5950
6400.000000, 88.298, -178.6198
6500.000000, 88.328, -177.6682
6600.000000, 88.395, -176.7628
6700.000000, 88.499, -175.9251
6800.000000, 88.640, -175.1775
6900.000000, 88.821, -174.5394
7000.000000, 89.046, -174.0442
7100.000000, 89.323, -173.7459
7200.000000, 89.656, -173.7160
7300.000000, 90.044, -174.0554
7400.000000, 90.481, -174.8729
7500.000000, 90.948, -176.2579
7620.000000, 91.514, -178.7747
7750.000000, 92.043, 177.3605
7880.000000, 92.379, 172.3146
8000.000000, 92.484, 166.7676
8120.000000, 92.360, 160.7089
8250.000000, 91.982, 154.1001
8380.000000, 91.406, 147.9847
8500.000000, 90.740, 143.1118
8620.000000, 89.994, 139.1144
8750.000000, 89.137, 135.7790
8850.000000, 88.462, 133.8713
9000.000000, 87.436, 131.9757
9120.000000, 86.601, 131.2191
9250.000000, 85.689, 131.1131
9380.000000, 84.778, 131.7292
9500.000000, 83.957, 132.9167
9620.000000, 83.177, 134.6565
9750.000000, 82.394, 137.0849
9880.000000, 81.685, 139.9594
10000.000000, 81.099, 142.8927
10150.000000, 80.458, 146.8002
10300.000000, 79.910, 150.8489
10440.000000, 79.473, 154.6434
10600.000000, 79.045, 158.9428
10750.000000, 78.702, 162.9165
10900.000000, 78.404, 166.8185
11060.000000, 78.132, 170.9238
11200.000000, 77.930, 174.4750
11380.000000, 77.716, 178.9763
11500.000000, 77.600, -178.0467
11720.000000, 77.453, -172.5923
11800.000000, 77.424, -170.6130
12060.000000, 77.431, -164.1938
12200.000000, 77.508, -160.7510
12410.000000, 77.742, -155.6711
12500.000000, 77.887, -153.5481
12650.000000, 78.190, -150.1086
12800.000000, 78.562, -146.8266
13150.000000, 79.524, -140.0545
13200.000000, 79.633, -139.2101
13400.000000, 79.930, -136.1904
13600.000000, 80.009, -133.8279
13800.000000, 79.886, -132.2401
14000.000000, 79.994, -131.6542
14300.000000, 81.195, -133.4289
14500.000000, 82.331, -136.7384
14750.000000, 83.794, -143.7729
15000.000000, 84.877, -153.7261
15250.000000, 85.282, -164.9001
15500.000000, 84.888, -175.0078
15750.000000, 83.705, 177.4171
16000.000000, 82.201, 172.4905
16250.000000, 80.853, 169.5605
16500.000000, 79.770, 167.9252
16750.000000, 78.977, 167.0964
17000.000000, 78.369, 166.6772
17250.000000, 77.834, 166.4496
17500.000000, 77.336, 166.3462
17750.000000, 76.852, 165.9566
18000.000000, 76.310, 164.9052
18250.000000, 75.589, 163.2066
18500.000000, 74.533, 161.7559
18750.000000, 73.103, 162.4223
19000.000000, 71.512, 167.1167
19250.000000, 70.144, 175.8331
19500.000000, 69.214, -174.0761
19750.000000, 68.527, -165.4124
20000.000000, 67.753, -158.2972
