* Measurement data measured by REW V5.31.1
* Source: VENTURE-DAS-32, VENTURE-DAS-32, 0, volume: 0.636
* Format: 512k Log Swept Sine, 1 sweep at -12.0 dBFS with no timing reference
* Dated: Jun 18, 2024 8:26:26 PM
* REW Settings:
*  C-weighting compensation: Off
*  Target level: 75.0 dB
* Note: ; 
* Measurement: Truthear Nova R
* Smoothing: 1/24 octave
* Frequency Step: 1/48 octave
* Start Frequency: 20.000 Hz
*
* Freq(Hz), SPL(dB), Phase(degrees)
20.000000, 93.731, -174.0209
20.299999, 93.709, -174.6667
20.600000, 93.687, -175.2974
20.900000, 93.667, -175.9186
21.200001, 93.647, -176.5335
21.400000, 93.633, -176.9400
21.799999, 93.604, -177.7416
22.000000, 93.589, -178.1346
22.400000, 93.557, -178.9004
22.700001, 93.533, -179.4560
23.000000, 93.509, -179.9973
23.299999, 93.485, 179.4719
23.600000, 93.462, 178.9477
24.000000, 93.431, 178.2538
24.299999, 93.407, 177.7365
24.700001, 93.372, 177.0551
25.000000, 93.345, 176.5553
25.400000, 93.307, 175.9125
25.799999, 93.268, 175.3016
26.200001, 93.230, 174.7197
26.500000, 93.202, 174.2958
26.900000, 93.168, 173.7368
27.200001, 93.143, 173.3172
27.600000, 93.108, 172.7573
28.000000, 93.071, 172.2037
28.500000, 93.022, 171.5335
29.000000, 92.972, 170.8900
29.500000, 92.922, 170.2645
30.000000, 92.871, 169.6556
30.400000, 92.830, 169.1887
30.700001, 92.799, 168.8537
31.100000, 92.760, 168.4225
31.500000, 92.724, 167.9945
32.000000, 92.682, 167.4402
32.500000, 92.637, 166.8616
33.000000, 92.586, 166.2875
33.500000, 92.531, 165.7488
34.000000, 92.478, 165.2478
34.500000, 92.429, 164.7628
35.000000, 92.381, 164.2772
35.500000, 92.331, 163.7947
36.000000, 92.280, 163.3275
36.500000, 92.229, 162.8796
37.000000, 92.178, 162.4445
37.500000, 92.129, 162.0151
38.200001, 92.057, 161.4284
38.700001, 92.004, 161.0330
39.500000, 91.921, 160.4479
40.000000, 91.873, 160.0930
40.599998, 91.818, 159.6529
41.200001, 91.760, 159.1978
41.799999, 91.700, 158.7496
42.500000, 91.628, 158.2564
43.099998, 91.568, 157.8569
43.700001, 91.509, 157.4718
44.400002, 91.442, 157.0320
45.000000, 91.386, 156.6577
45.500000, 91.337, 156.3507
46.200001, 91.269, 155.9407
46.799999, 91.211, 155.6096
47.500000, 91.144, 155.2339
48.200001, 91.078, 154.8614
48.700001, 91.029, 154.5988
49.400002, 90.961, 154.2418
50.000000, 90.901, 153.9509
50.799999, 90.824, 153.5879
51.500000, 90.760, 153.2823
52.200001, 90.699, 152.9729
53.000000, 90.628, 152.6102
53.799999, 90.556, 152.2585
54.500000, 90.491, 151.9784
55.200001, 90.427, 151.7125
56.000000, 90.353, 151.4161
57.000000, 90.257, 151.1079
58.000000, 90.171, 150.8289
59.000000, 90.086, 150.4775
60.000000, 89.992, 150.1270
60.799999, 89.918, 149.8710
61.500000, 89.856, 149.6244
62.200001, 89.791, 149.3533
63.000000, 89.710, 149.0881
64.000000, 89.618, 148.8825
65.000000, 89.548, 148.6359
66.000000, 89.471, 148.3240
67.000000, 89.390, 148.0763
68.000000, 89.313, 147.8575
69.000000, 89.236, 147.6457
70.000000, 89.158, 147.4445
71.000000, 89.079, 147.2487
72.000000, 88.999, 147.0563
73.000000, 88.917, 146.8762
74.000000, 88.838, 146.7096
75.000000, 88.760, 146.5490
76.199997, 88.670, 146.3669
77.500000, 88.575, 146.1787
78.800003, 88.482, 146.0119
80.000000, 88.396, 145.8709
81.199997, 88.308, 145.7472
82.500000, 88.213, 145.6378
83.800003, 88.122, 145.5244
85.000000, 88.037, 145.3722
86.199997, 87.946, 145.2405
87.500000, 87.853, 145.1660
88.500000, 87.789, 145.1023
90.000000, 87.694, 144.9800
91.199997, 87.617, 144.9037
92.500000, 87.534, 144.8419
93.800003, 87.452, 144.7911
95.000000, 87.376, 144.7447
96.199997, 87.299, 144.7160
97.500000, 87.217, 144.6938
98.800003, 87.138, 144.6624
100.000000, 87.063, 144.6185
101.500000, 86.969, 144.5890
103.000000, 86.879, 144.5845
104.400002, 86.797, 144.6025
106.000000, 86.707, 144.6500
107.500000, 86.621, 144.6770
109.000000, 86.528, 144.6829
110.599998, 86.422, 144.7929
112.000000, 86.355, 144.9064
113.800003, 86.273, 144.8525
115.000000, 86.213, 144.8358
117.199997, 86.107, 144.8995
118.000000, 86.069, 144.9319
120.599998, 85.938, 145.0662
122.000000, 85.867, 145.1484
124.099998, 85.764, 145.2679
125.000000, 85.722, 145.3130
126.500000, 85.651, 145.3881
128.000000, 85.582, 145.4884
131.500000, 85.427, 145.7652
132.000000, 85.406, 145.8072
134.000000, 85.322, 145.9539
136.000000, 85.236, 146.0869
138.000000, 85.150, 146.2294
140.000000, 85.066, 146.4134
143.000000, 84.955, 146.7381
145.000000, 84.883, 146.9341
147.500000, 84.791, 147.1876
150.000000, 84.708, 147.4360
152.500000, 84.632, 147.6573
155.000000, 84.556, 147.9027
157.500000, 84.474, 148.1699
160.000000, 84.378, 148.4548
162.500000, 84.256, 148.7511
165.000000, 84.110, 149.0427
167.500000, 83.946, 149.3495
170.000000, 83.786, 149.6583
172.500000, 83.649, 149.9540
175.000000, 83.532, 150.2531
177.500000, 83.432, 150.5703
180.000000, 83.342, 150.9105
182.500000, 83.262, 151.2527
185.000000, 83.196, 151.5992
187.500000, 83.152, 151.9499
190.000000, 83.122, 152.3262
192.500000, 83.101, 152.7820
195.000000, 83.084, 153.3115
197.500000, 83.067, 153.8339
200.000000, 83.049, 154.3055
203.000000, 83.033, 154.8589
206.000000, 83.020, 155.4027
209.000000, 83.001, 155.8754
212.000000, 82.980, 156.1812
214.000000, 82.965, 156.3815
218.000000, 82.922, 156.8256
220.000000, 82.890, 157.0757
224.000000, 82.832, 157.5040
227.000000, 82.784, 157.7344
230.000000, 82.735, 158.0037
233.000000, 82.689, 158.2866
236.000000, 82.642, 158.5519
240.000000, 82.569, 158.9848
243.000000, 82.525, 159.4046
247.000000, 82.475, 159.8477
250.000000, 82.432, 160.1790
254.000000, 82.376, 160.6640
258.000000, 82.327, 161.1524
262.000000, 82.282, 161.6407
265.000000, 82.249, 162.0111
269.000000, 82.207, 162.4879
272.000000, 82.178, 162.8393
276.000000, 82.140, 163.3208
280.000000, 82.108, 163.7945
285.000000, 82.076, 164.3783
290.000000, 82.040, 164.9356
295.000000, 82.000, 165.5007
300.000000, 81.968, 166.0430
304.000000, 81.946, 166.4768
307.000000, 81.930, 166.8070
311.000000, 81.909, 167.2435
315.000000, 81.889, 167.6804
320.000000, 81.867, 168.2092
325.000000, 81.845, 168.7455
330.000000, 81.829, 169.2429
335.000000, 81.812, 169.7277
340.000000, 81.797, 170.2265
345.000000, 81.783, 170.7183
350.000000, 81.769, 171.1825
355.000000, 81.757, 171.6680
360.000000, 81.752, 172.1630
365.000000, 81.749, 172.6219
370.000000, 81.748, 173.0057
375.000000, 81.744, 173.4055
382.000000, 81.737, 173.9456
387.000000, 81.732, 174.3180
395.000000, 81.720, 174.9275
400.000000, 81.716, 175.3447
406.000000, 81.714, 175.8071
412.000000, 81.712, 176.2440
418.000000, 81.711, 176.6702
425.000000, 81.711, 177.1786
431.000000, 81.711, 177.6090
437.000000, 81.712, 178.0102
444.000000, 81.712, 178.4872
450.000000, 81.714, 178.8964
455.000000, 81.716, 179.2229
462.000000, 81.717, 179.6615
468.000000, 81.719, -179.9613
475.000000, 81.723, -179.5207
482.000000, 81.728, -179.0905
487.000000, 81.731, -178.7874
494.000000, 81.736, -178.3671
500.000000, 81.740, -178.0123
508.000000, 81.746, -177.5503
515.000000, 81.752, -177.1498
522.000000, 81.758, -176.7466
530.000000, 81.766, -176.2887
538.000000, 81.775, -175.8434
545.000000, 81.784, -175.4592
552.000000, 81.793, -175.0833
560.000000, 81.804, -174.6675
570.000000, 81.816, -174.1442
580.000000, 81.829, -173.6268
590.000000, 81.842, -173.1195
600.000000, 81.855, -172.6153
608.000000, 81.865, -172.2187
615.000000, 81.874, -171.8727
622.000000, 81.883, -171.5258
630.000000, 81.893, -171.1282
640.000000, 81.906, -170.6319
650.000000, 81.920, -170.1311
660.000000, 81.933, -169.6294
670.000000, 81.947, -169.1176
680.000000, 81.962, -168.5960
690.000000, 81.979, -168.0705
700.000000, 81.998, -167.5479
710.000000, 82.018, -167.0257
720.000000, 82.039, -166.4999
730.000000, 82.062, -165.9705
740.000000, 82.088, -165.4391
750.000000, 82.114, -164.9116
762.000000, 82.149, -164.2761
775.000000, 82.190, -163.5755
788.000000, 82.232, -162.8828
800.000000, 82.274, -162.2520
812.000000, 82.317, -161.6126
825.000000, 82.369, -160.9274
838.000000, 82.423, -160.2419
850.000000, 82.472, -159.6115
862.000000, 82.521, -158.9814
875.000000, 82.581, -158.3032
885.000000, 82.637, -157.7851
900.000000, 82.723, -157.0142
912.000000, 82.786, -156.4086
925.000000, 82.853, -155.7679
938.000000, 82.926, -155.1434
950.000000, 82.998, -154.5874
962.000000, 83.075, -154.0523
975.000000, 83.163, -153.4930
988.000000, 83.253, -152.9588
1000.000000, 83.337, -152.4923
1015.000000, 83.445, -151.9498
1030.000000, 83.556, -151.4574
1044.000000, 83.661, -151.0425
1060.000000, 83.781, -150.6217
1075.000000, 83.894, -150.2808
1090.000000, 84.006, -149.9893
1106.000000, 84.124, -149.7245
1120.000000, 84.229, -149.5394
1138.000000, 84.364, -149.3689
1150.000000, 84.453, -149.2808
1172.000000, 84.606, -149.1709
1180.000000, 84.659, -149.1497
1206.000000, 84.824, -149.1341
1220.000000, 84.908, -149.1530
1241.000000, 85.031, -149.2091
1250.000000, 85.082, -149.2430
1265.000000, 85.165, -149.3085
1280.000000, 85.245, -149.3808
1315.000000, 85.423, -149.5646
1320.000000, 85.447, -149.5917
1340.000000, 85.541, -149.7001
1360.000000, 85.631, -149.8046
1380.000000, 85.718, -149.9029
1400.000000, 85.801, -149.9951
1430.000000, 85.920, -150.1135
1450.000000, 85.995, -150.1760
1475.000000, 86.088, -150.2391
1500.000000, 86.179, -150.2828
1525.000000, 86.267, -150.3072
1550.000000, 86.354, -150.3161
1575.000000, 86.441, -150.3119
1600.000000, 86.528, -150.2929
1625.000000, 86.615, -150.2632
1650.000000, 86.704, -150.2227
1675.000000, 86.793, -150.1747
1700.000000, 86.885, -150.1239
1725.000000, 86.979, -150.0699
1750.000000, 87.074, -150.0158
1775.000000, 87.169, -149.9634
1800.000000, 87.267, -149.9137
1825.000000, 87.366, -149.8687
1850.000000, 87.468, -149.8309
1875.000000, 87.574, -149.8018
1900.000000, 87.683, -149.7802
1925.000000, 87.795, -149.7671
1950.000000, 87.911, -149.7661
1975.000000, 88.030, -149.7796
2000.000000, 88.151, -149.8090
2030.000000, 88.297, -149.8650
2060.000000, 88.447, -149.9488
2090.000000, 88.600, -150.0633
2120.000000, 88.756, -150.2081
2140.000000, 88.861, -150.3228
2180.000000, 89.074, -150.6029
2200.000000, 89.183, -150.7693
2240.000000, 89.401, -151.1560
2270.000000, 89.566, -151.4975
2300.000000, 89.732, -151.8840
2330.000000, 89.898, -152.3166
2360.000000, 90.065, -152.7956
2400.000000, 90.285, -153.5107
2430.000000, 90.448, -154.1050
2470.000000, 90.661, -154.9779
2500.000000, 90.818, -155.6923
2540.000000, 91.023, -156.7244
2580.000000, 91.221, -157.8488
2620.000000, 91.410, -159.0645
2650.000000, 91.544, -160.0345
2690.000000, 91.712, -161.4050
2720.000000, 91.828, -162.4878
2760.000000, 91.969, -163.9972
2800.000000, 92.091, -165.5690
2850.000000, 92.217, -167.5986
2900.000000, 92.308, -169.6626
2950.000000, 92.366, -171.7226
3000.000000, 92.389, -173.7397
3040.000000, 92.381, -175.2970
3070.000000, 92.361, -176.4218
3110.000000, 92.313, -177.8531
3150.000000, 92.239, -179.1939
3200.000000, 92.111, 179.2690
3250.000000, 91.951, 177.8920
3300.000000, 91.764, 176.6703
3350.000000, 91.571, 175.5858
3400.000000, 91.387, 174.6182
3450.000000, 91.222, 173.7556
3500.000000, 91.081, 172.9940
3550.000000, 90.954, 172.3352
3600.000000, 90.832, 171.7825
3650.000000, 90.701, 171.3373
3700.000000, 90.550, 170.9988
3750.000000, 90.377, 170.7611
3820.000000, 90.102, 170.5823
3870.000000, 89.902, 170.5499
3950.000000, 89.606, 170.6279
4000.000000, 89.449, 170.7373
4060.000000, 89.305, 170.9064
4120.000000, 89.210, 171.0947
4180.000000, 89.168, 171.2804
4250.000000, 89.167, 171.4691
4310.000000, 89.196, 171.5907
4370.000000, 89.239, 171.6637
4440.000000, 89.290, 171.6824
4500.000000, 89.328, 171.6406
4550.000000, 89.352, 171.5674
4620.000000, 89.372, 171.4136
4680.000000, 89.376, 171.2425
4750.000000, 89.369, 171.0057
4820.000000, 89.347, 170.7416
4870.000000, 89.322, 170.5430
4940.000000, 89.277, 170.2587
5000.000000, 89.228, 170.0150
5080.000000, 89.151, 169.7006
5150.000000, 89.073, 169.4481
5220.000000, 88.989, 169.2292
5300.000000, 88.886, 169.0377
5380.000000, 88.781, 168.9266
5450.000000, 88.688, 168.9082
5520.000000, 88.595, 168.9724
5600.000000, 88.487, 169.1533
5700.000000, 88.351, 169.5502
5800.000000, 88.221, 170.1365
5900.000000, 88.104, 170.8907
6000.000000, 88.018, 171.7764
6080.000000, 87.982, 172.5488
6150.000000, 87.977, 173.2492
6220.000000, 88.002, 173.9515
6300.000000, 88.069, 174.7223
6400.000000, 88.213, 175.5556
6500.000000, 88.415, 176.1257
6600.000000, 88.662, 176.3219
6700.000000, 88.932, 176.0659
6800.000000, 89.203, 175.3416
6900.000000, 89.454, 174.1995
7000.000000, 89.673, 172.7337
7100.000000, 89.856, 171.0605
7200.000000, 90.010, 169.2915
7300.000000, 90.144, 167.5060
7400.000000, 90.273, 165.7231
7500.000000, 90.403, 163.8655
7620.000000, 90.546, 161.5108
7750.000000, 90.653, 158.7508
7880.000000, 90.651, 155.5163
8000.000000, 90.538, 151.9916
8120.000000, 90.292, 147.9792
8250.000000, 89.861, 143.2858
8380.000000, 89.254, 138.6220
8500.000000, 88.511, 134.8779
8620.000000, 87.610, 132.5858
8750.000000, 86.704, 132.8456
8850.000000, 86.338, 133.5366
9000.000000, 85.857, 131.0887
9120.000000, 85.058, 129.1283
9250.000000, 84.053, 129.1192
9380.000000, 83.108, 130.5259
9500.000000, 82.325, 132.5157
9620.000000, 81.629, 134.9236
9750.000000, 80.967, 137.8492
9880.000000, 80.397, 140.9855
10000.000000, 79.948, 143.9803
10150.000000, 79.487, 147.7496
10300.000000, 79.130, 151.4284
10440.000000, 78.884, 154.6693
10600.000000, 78.693, 158.0093
10750.000000, 78.580, 160.6506
10900.000000, 78.502, 162.7113
11060.000000, 78.410, 164.2875
11200.000000, 78.284, 165.3093
11380.000000, 78.030, 166.5671
11500.000000, 77.814, 167.6651
11720.000000, 77.408, 170.6125
11800.000000, 77.281, 171.9524
12060.000000, 76.986, 176.9247
12200.000000, 76.901, 179.9538
12410.000000, 76.905, -175.0075
12500.000000, 76.968, -172.7072
12650.000000, 77.163, -168.8165
12800.000000, 77.462, -165.0308
13150.000000, 78.301, -157.6646
13200.000000, 78.384, -156.8443
13400.000000, 78.510, -154.1409
13600.000000, 78.276, -152.1070
13800.000000, 77.655, -150.3146
14000.000000, 77.047, -148.4160
14300.000000, 76.985, -145.5752
14500.000000, 77.273, -143.7222
14750.000000, 77.876, -141.2855
15000.000000, 78.696, -139.0635
15250.000000, 79.686, -138.0258
15500.000000, 80.633, -139.7866
15750.000000, 81.192, -146.3388
16000.000000, 81.172, -158.3568
16250.000000, 80.210, -172.9799
16500.000000, 78.167, 175.3547
16750.000000, 75.620, 171.3980
17000.000000, 73.615, 175.0045
17250.000000, 72.594, 179.6484
17500.000000, 72.101, -177.7088
17750.000000, 71.520, -177.2669
18000.000000, 70.679, -174.7857
18250.000000, 70.020, -169.1026
18500.000000, 69.723, -161.8820
18750.000000, 69.674, -154.4929
19000.000000, 69.668, -146.8580
19250.000000, 69.656, -137.5633
19500.000000, 69.761, -126.0838
19750.000000, 70.053, -113.7332
20000.000000, 70.467, -102.4835
