* Measurement data measured by REW V5.31.1
* Source: CUBILUX HLMS-C5 MIC IN, MICROPHONE, R, volume: 1.000
* Format: 4M Log Swept Sine, 1 sweep at -35.0 dBFS with no timing reference
* Dated: Oct 6, 2024 2:18:43 PM
* REW Settings:
*  C-weighting compensation: Off
*  Target level: 75.0 dB
* Note: ; 
* Measurement: Final Audio A5000 R
* Smoothing: 1/24 octave
* Frequency Step: 1/48 octave
* Start Frequency: 1.000 Hz
*
* Freq(Hz), SPL(dB), Phase(degrees)
1.000000, 65.380, -93.1521
1.015000, 65.300, -94.2168
1.030000, 65.212, -95.2406
1.044000, 65.123, -96.1553
1.060000, 65.011, -97.1475
1.075000, 64.897, -98.0218
1.090000, 64.774, -98.8392
1.106000, 64.630, -99.6575
1.120000, 64.495, -100.3508
1.138000, 64.308, -101.2297
1.150000, 64.175, -101.8104
1.172000, 63.916, -102.8653
1.180000, 63.817, -103.2459
1.206000, 63.480, -104.4723
1.220000, 63.289, -105.1252
1.241000, 62.993, -106.0931
1.250000, 62.863, -106.5029
1.265000, 62.642, -107.1780
1.280000, 62.416, -107.8413
1.315000, 61.874, -109.3269
1.320000, 61.795, -109.5301
1.340000, 61.478, -110.3132
1.360000, 61.158, -111.0388
1.380000, 60.838, -111.6902
1.400000, 60.517, -112.2465
1.430000, 60.040, -112.8450
1.450000, 59.726, -113.0404
1.475000, 59.321, -113.0123
1.500000, 58.862, -112.6798
1.525000, 58.337, -111.9957
1.550000, 57.761, -110.8451
1.575000, 57.153, -109.0485
1.600000, 56.531, -106.3311
1.625000, 55.915, -102.2623
1.650000, 55.322, -96.1713
1.675000, 54.774, -87.0933
1.700000, 54.288, -74.0285
1.725000, 53.884, -57.1596
1.750000, 53.582, -39.3598
1.775000, 53.402, -24.4071
1.800000, 53.365, -13.6827
1.825000, 53.490, -6.4990
1.850000, 53.800, -1.6957
1.875000, 54.299, 1.6156
1.900000, 54.966, 3.9242
1.925000, 55.777, 5.5221
1.950000, 56.705, 6.6028
1.975000, 57.722, 7.2981
2.000000, 58.802, 7.6996
2.030000, 60.145, 7.8839
2.060000, 61.495, 7.8157
2.090000, 62.810, 7.5479
2.120000, 64.044, 7.1168
2.140000, 64.803, 6.7513
2.180000, 66.118, 5.8583
2.200000, 66.668, 5.3420
2.240000, 67.614, 4.2126
2.270000, 68.231, 3.3109
2.300000, 68.785, 2.3802
2.330000, 69.284, 1.4310
2.360000, 69.737, 0.4705
2.400000, 70.285, -0.8191
2.430000, 70.665, -1.7893
2.470000, 71.147, -3.0841
2.500000, 71.501, -4.0559
2.540000, 71.976, -5.3547
2.580000, 72.459, -6.6659
2.620000, 72.922, -8.0017
2.650000, 73.250, -9.0159
2.690000, 73.663, -10.3731
2.720000, 73.956, -11.3877
2.760000, 74.328, -12.7279
2.800000, 74.682, -14.0470
2.850000, 75.106, -15.6586
2.900000, 75.517, -17.2244
2.950000, 75.916, -18.7554
3.000000, 76.296, -20.2813
3.040000, 76.583, -21.5008
3.070000, 76.790, -22.4107
3.110000, 77.055, -23.6123
3.150000, 77.309, -24.7956
3.200000, 77.616, -26.2425
3.250000, 77.912, -27.6481
3.300000, 78.199, -29.0141
3.350000, 78.475, -30.3606
3.400000, 78.738, -31.7003
3.450000, 78.988, -33.0271
3.500000, 79.227, -34.3322
3.550000, 79.457, -35.6073
3.600000, 79.679, -36.8456
3.650000, 79.895, -38.0441
3.700000, 80.105, -39.2116
3.750000, 80.305, -40.3621
3.820000, 80.572, -41.9458
3.870000, 80.754, -43.0520
3.950000, 81.033, -44.7665
4.000000, 81.200, -45.7986
4.060000, 81.395, -47.0009
4.120000, 81.582, -48.1778
4.180000, 81.761, -49.3321
4.250000, 81.960, -50.6433
4.310000, 82.125, -51.7301
4.370000, 82.284, -52.7782
4.440000, 82.464, -53.9564
4.500000, 82.611, -54.9384
4.550000, 82.730, -55.7382
4.620000, 82.890, -56.8260
4.680000, 83.023, -57.7249
4.750000, 83.174, -58.7309
4.820000, 83.320, -59.6946
4.870000, 83.421, -60.3615
4.940000, 83.559, -61.2664
5.000000, 83.673, -62.0143
5.080000, 83.823, -62.9690
5.150000, 83.952, -63.7631
5.220000, 84.078, -64.5208
5.300000, 84.219, -65.3477
5.380000, 84.358, -66.1375
5.450000, 84.479, -66.8010
5.520000, 84.600, -67.4386
5.600000, 84.738, -68.1339
5.700000, 84.909, -68.9618
5.800000, 85.082, -69.7617
5.900000, 85.256, -70.5442
6.000000, 85.431, -71.3037
6.080000, 85.572, -71.9009
6.150000, 85.696, -72.4242
6.220000, 85.819, -72.9532
6.300000, 85.961, -73.5637
6.400000, 86.138, -74.3317
6.500000, 86.313, -75.1106
6.600000, 86.486, -75.9089
6.700000, 86.655, -76.7285
6.800000, 86.820, -77.5643
6.900000, 86.981, -78.4110
7.000000, 87.136, -79.2682
7.100000, 87.285, -80.1383
7.200000, 87.428, -81.0135
7.300000, 87.565, -81.8828
7.400000, 87.695, -82.7445
7.500000, 87.819, -83.6010
7.620000, 87.960, -84.6113
7.750000, 88.106, -85.6704
7.880000, 88.244, -86.6960
8.000000, 88.367, -87.6127
8.120000, 88.487, -88.4960
8.250000, 88.614, -89.4183
8.380000, 88.739, -90.3153
8.500000, 88.855, -91.1256
8.620000, 88.972, -91.9212
8.750000, 89.097, -92.7793
8.850000, 89.194, -93.4434
9.000000, 89.339, -94.4466
9.120000, 89.454, -95.2620
9.250000, 89.576, -96.1650
9.380000, 89.694, -97.0866
9.500000, 89.800, -97.9512
9.620000, 89.901, -98.8297
9.750000, 90.004, -99.7938
9.880000, 90.095, -100.7604
10.000000, 90.165, -101.6515
10.150000, 90.236, -102.7591
10.300000, 90.294, -103.8432
10.440000, 90.337, -104.8302
10.600000, 90.377, -105.9208
10.750000, 90.410, -106.8987
10.900000, 90.439, -107.8346
11.060000, 90.468, -108.7846
11.200000, 90.492, -109.5764
11.380000, 90.524, -110.5489
11.500000, 90.546, -111.1718
11.720000, 90.590, -112.2743
11.800000, 90.607, -112.6663
12.060000, 90.665, -113.9190
12.200000, 90.698, -114.5887
12.410000, 90.752, -115.5925
12.500000, 90.778, -116.0241
12.650000, 90.826, -116.7458
12.800000, 90.877, -117.4688
13.150000, 90.990, -119.1517
13.200000, 91.005, -119.3899
13.400000, 91.064, -120.3334
13.600000, 91.119, -121.2563
13.800000, 91.171, -122.1543
14.000000, 91.222, -123.0262
14.300000, 91.299, -124.2916
14.500000, 91.351, -125.1165
14.750000, 91.418, -126.1422
15.000000, 91.485, -127.1756
15.250000, 91.550, -128.2270
15.500000, 91.611, -129.2945
15.750000, 91.664, -130.3676
16.000000, 91.710, -131.4281
16.250000, 91.751, -132.4566
16.500000, 91.788, -133.4401
16.750000, 91.824, -134.3749
17.000000, 91.860, -135.2709
17.250000, 91.900, -136.1464
17.500000, 91.942, -137.0237
17.750000, 91.985, -137.9210
18.000000, 92.025, -138.8448
18.250000, 92.058, -139.7891
18.500000, 92.082, -140.7347
18.750000, 92.096, -141.6560
19.000000, 92.101, -142.5281
19.250000, 92.102, -143.3335
19.500000, 92.103, -144.0698
19.750000, 92.108, -144.7486
20.000000, 92.120, -145.3939
20.299999, 92.143, -146.1637
20.600000, 92.173, -146.9637
20.900000, 92.200, -147.8053
21.200001, 92.219, -148.6687
21.400000, 92.226, -149.2353
21.799999, 92.227, -150.2895
22.000000, 92.226, -150.7610
22.400000, 92.233, -151.6029
22.700001, 92.252, -152.1988
23.000000, 92.282, -152.8309
23.299999, 92.317, -153.5448
23.600000, 92.345, -154.3481
24.000000, 92.356, -155.4867
24.299999, 92.342, -156.3000
24.700001, 92.305, -157.2079
25.000000, 92.279, -157.7319
25.400000, 92.271, -158.3018
25.799999, 92.297, -158.9015
26.200001, 92.339, -159.6855
26.500000, 92.364, -160.4044
26.900000, 92.369, -161.4420
27.200001, 92.354, -162.1896
27.600000, 92.320, -163.0573
28.000000, 92.290, -163.7849
28.500000, 92.275, -164.6416
29.000000, 92.264, -165.5677
29.500000, 92.234, -166.4925
30.000000, 92.193, -167.2562
30.400000, 92.173, -167.7410
30.700001, 92.171, -168.0869
31.100000, 92.183, -168.6070
31.500000, 92.195, -169.2331
32.000000, 92.192, -170.0978
32.500000, 92.167, -170.9118
33.000000, 92.137, -171.6125
33.500000, 92.113, -172.2614
34.000000, 92.090, -172.9209
34.500000, 92.058, -173.5722
35.000000, 92.022, -174.1653
35.500000, 91.991, -174.7069
36.000000, 91.969, -175.2556
36.500000, 91.948, -175.8504
37.000000, 91.922, -176.4741
37.500000, 91.892, -177.0863
38.200001, 91.850, -177.9010
38.700001, 91.824, -178.4817
39.500000, 91.781, -179.4609
40.000000, 91.744, 179.9195
40.599998, 91.688, 179.2481
41.200001, 91.630, 178.7134
41.799999, 91.585, 178.2767
42.500000, 91.549, 177.7510
43.099998, 91.516, 177.2476
43.700001, 91.477, 176.7538
44.400002, 91.435, 176.2151
45.000000, 91.404, 175.7123
45.500000, 91.375, 175.2373
46.200001, 91.318, 174.5611
46.799999, 91.261, 174.0485
47.500000, 91.200, 173.5211
48.200001, 91.144, 173.0334
48.700001, 91.109, 172.7173
49.400002, 91.075, 172.2806
50.000000, 91.054, 171.8273
50.799999, 91.006, 171.1337
51.500000, 90.940, 170.6464
52.200001, 90.881, 170.3324
53.000000, 90.833, 170.0061
53.799999, 90.787, 169.6260
54.500000, 90.745, 169.2731
55.200001, 90.700, 168.9013
56.000000, 90.642, 168.4822
57.000000, 90.572, 167.9862
58.000000, 90.504, 167.4648
59.000000, 90.436, 166.9619
60.000000, 90.372, 166.4668
60.799999, 90.319, 166.0746
61.500000, 90.270, 165.7579
62.200001, 90.223, 165.4711
63.000000, 90.170, 165.1653
64.000000, 90.104, 164.7848
65.000000, 90.035, 164.4456
66.000000, 89.972, 164.1465
67.000000, 89.912, 163.8097
68.000000, 89.847, 163.4763
69.000000, 89.784, 163.1851
70.000000, 89.727, 162.8815
71.000000, 89.668, 162.5562
72.000000, 89.607, 162.2379
73.000000, 89.545, 161.9208
74.000000, 89.481, 161.6280
75.000000, 89.420, 161.3603
76.199997, 89.347, 161.0391
77.500000, 89.267, 160.7409
78.800003, 89.190, 160.4684
80.000000, 89.119, 160.2242
81.199997, 89.049, 160.0013
82.500000, 88.976, 159.7518
83.800003, 88.904, 159.4990
85.000000, 88.836, 159.2695
86.199997, 88.765, 159.0706
87.500000, 88.692, 158.9056
88.500000, 88.639, 158.7671
90.000000, 88.557, 158.5341
91.199997, 88.488, 158.3476
92.500000, 88.412, 158.1860
93.800003, 88.341, 158.0767
95.000000, 88.288, 158.0476
96.199997, 88.249, 157.9682
97.500000, 88.200, 157.8366
98.800003, 88.151, 157.7689
100.000000, 88.108, 157.6564
101.500000, 88.043, 157.4560
103.000000, 87.971, 157.2782
104.400002, 87.903, 157.0756
106.000000, 87.819, 156.8930
107.500000, 87.752, 156.8080
109.000000, 87.697, 156.7092
110.599998, 87.639, 156.6060
112.000000, 87.587, 156.5612
113.800003, 87.526, 156.5244
115.000000, 87.485, 156.4918
117.199997, 87.409, 156.4064
118.000000, 87.380, 156.3799
120.599998, 87.293, 156.3012
122.000000, 87.247, 156.2390
124.099998, 87.175, 156.1429
125.000000, 87.145, 156.1017
126.500000, 87.094, 156.0400
128.000000, 87.043, 155.9915
131.500000, 86.935, 156.0218
132.000000, 86.921, 156.0305
134.000000, 86.867, 156.0498
136.000000, 86.808, 156.0476
138.000000, 86.749, 156.0546
140.000000, 86.692, 156.0403
143.000000, 86.608, 156.0322
145.000000, 86.555, 156.0500
147.500000, 86.490, 156.0676
150.000000, 86.426, 156.0935
152.500000, 86.360, 156.1207
155.000000, 86.296, 156.1820
157.500000, 86.236, 156.2312
160.000000, 86.173, 156.2652
162.500000, 86.107, 156.3104
165.000000, 86.039, 156.3636
167.500000, 85.973, 156.4168
170.000000, 85.910, 156.4612
172.500000, 85.852, 156.5259
175.000000, 85.793, 156.6024
177.500000, 85.733, 156.7084
180.000000, 85.676, 156.7935
182.500000, 85.619, 156.8643
185.000000, 85.561, 156.9483
187.500000, 85.500, 157.0536
190.000000, 85.442, 157.1696
192.500000, 85.384, 157.2834
195.000000, 85.327, 157.4078
197.500000, 85.272, 157.5139
200.000000, 85.218, 157.6229
203.000000, 85.153, 157.7871
206.000000, 85.084, 157.9690
209.000000, 85.020, 158.1752
212.000000, 84.967, 158.3637
214.000000, 84.931, 158.5196
218.000000, 84.862, 158.9463
220.000000, 84.834, 159.1702
224.000000, 84.797, 159.5818
227.000000, 84.782, 159.8082
230.000000, 84.769, 159.9364
233.000000, 84.754, 159.9775
236.000000, 84.733, 159.9581
240.000000, 84.688, 159.9274
243.000000, 84.643, 159.9282
247.000000, 84.574, 159.9754
250.000000, 84.521, 160.0488
254.000000, 84.456, 160.1943
258.000000, 84.398, 160.3761
262.000000, 84.342, 160.5515
265.000000, 84.299, 160.6802
269.000000, 84.245, 160.8637
272.000000, 84.206, 161.0018
276.000000, 84.153, 161.1903
280.000000, 84.103, 161.3744
285.000000, 84.041, 161.6013
290.000000, 83.981, 161.8308
295.000000, 83.926, 162.0989
300.000000, 83.872, 162.3752
304.000000, 83.830, 162.6141
307.000000, 83.802, 162.8011
311.000000, 83.770, 163.0512
315.000000, 83.743, 163.3106
320.000000, 83.714, 163.5906
325.000000, 83.689, 163.7982
330.000000, 83.659, 163.9643
335.000000, 83.626, 164.1275
340.000000, 83.588, 164.3046
345.000000, 83.547, 164.4785
350.000000, 83.505, 164.6689
355.000000, 83.463, 164.8666
360.000000, 83.421, 165.0605
365.000000, 83.376, 165.2585
370.000000, 83.331, 165.4656
375.000000, 83.288, 165.7027
382.000000, 83.232, 166.0415
387.000000, 83.191, 166.2674
395.000000, 83.120, 166.6697
400.000000, 83.076, 166.9245
406.000000, 83.022, 167.2534
412.000000, 82.968, 167.5936
418.000000, 82.913, 167.9374
425.000000, 82.851, 168.3549
431.000000, 82.802, 168.7523
437.000000, 82.757, 169.1791
444.000000, 82.717, 169.6934
450.000000, 82.696, 170.1108
455.000000, 82.685, 170.3972
462.000000, 82.666, 170.6958
468.000000, 82.645, 170.9074
475.000000, 82.611, 171.1376
482.000000, 82.567, 171.3800
487.000000, 82.535, 171.5756
494.000000, 82.490, 171.8760
500.000000, 82.453, 172.1558
508.000000, 82.405, 172.5406
515.000000, 82.366, 172.8775
522.000000, 82.329, 173.2106
530.000000, 82.287, 173.6189
538.000000, 82.248, 174.0424
545.000000, 82.217, 174.3925
552.000000, 82.187, 174.7570
560.000000, 82.151, 175.2006
570.000000, 82.103, 175.7491
580.000000, 82.055, 176.3193
590.000000, 82.009, 176.8961
600.000000, 81.968, 177.4665
608.000000, 81.937, 177.9233
615.000000, 81.911, 178.3303
622.000000, 81.885, 178.7480
630.000000, 81.858, 179.2235
640.000000, 81.830, 179.8151
650.000000, 81.808, -179.5768
660.000000, 81.787, -178.9630
670.000000, 81.767, -178.3378
680.000000, 81.744, -177.7166
690.000000, 81.722, -177.0966
700.000000, 81.703, -176.4659
710.000000, 81.686, -175.8208
720.000000, 81.671, -175.1631
730.000000, 81.657, -174.4974
740.000000, 81.645, -173.8268
750.000000, 81.635, -173.1633
762.000000, 81.628, -172.3731
775.000000, 81.629, -171.5114
788.000000, 81.638, -170.6510
800.000000, 81.651, -169.8526
812.000000, 81.665, -169.0563
825.000000, 81.685, -168.1970
838.000000, 81.709, -167.3430
850.000000, 81.735, -166.5672
862.000000, 81.766, -165.8098
875.000000, 81.804, -165.0071
885.000000, 81.837, -164.4023
900.000000, 81.891, -163.5239
912.000000, 81.939, -162.8076
925.000000, 82.002, -162.0355
938.000000, 82.076, -161.3053
950.000000, 82.150, -160.6729
962.000000, 82.228, -160.0843
975.000000, 82.317, -159.5041
988.000000, 82.413, -158.9899
1000.000000, 82.510, -158.5789
1015.000000, 82.646, -158.1669
1030.000000, 82.797, -157.9131
1044.000000, 82.948, -157.9112
1060.000000, 83.124, -158.4160
1075.000000, 83.229, -159.6927
1090.000000, 83.126, -161.6161
1106.000000, 82.695, -162.3664
1120.000000, 82.336, -160.2730
1138.000000, 82.319, -156.5155
1150.000000, 82.482, -154.9338
1172.000000, 82.804, -153.6192
1180.000000, 82.903, -153.3904
1206.000000, 83.176, -153.0084
1220.000000, 83.303, -152.9147
1241.000000, 83.473, -152.8507
1250.000000, 83.540, -152.8490
1265.000000, 83.644, -152.8819
1280.000000, 83.738, -152.9529
1315.000000, 83.926, -153.2486
1320.000000, 83.950, -153.3083
1340.000000, 84.037, -153.5983
1360.000000, 84.108, -153.9766
1380.000000, 84.158, -154.4378
1400.000000, 84.183, -154.9693
1430.000000, 84.163, -155.7777
1450.000000, 84.097, -156.1769
1475.000000, 83.959, -156.3127
1500.000000, 83.795, -155.9243
1525.000000, 83.648, -155.0407
1550.000000, 83.554, -153.8337
1575.000000, 83.522, -152.4924
1600.000000, 83.540, -151.1600
1625.000000, 83.594, -149.9153
1650.000000, 83.674, -148.7836
1675.000000, 83.770, -147.7629
1700.000000, 83.876, -146.8595
1725.000000, 83.983, -146.0483
1750.000000, 84.091, -145.3125
1775.000000, 84.195, -144.6321
1800.000000, 84.296, -143.9831
1825.000000, 84.400, -143.3601
1850.000000, 84.507, -142.7661
1875.000000, 84.618, -142.1991
1900.000000, 84.733, -141.6558
1925.000000, 84.851, -141.1311
1950.000000, 84.970, -140.6284
1975.000000, 85.090, -140.1511
2000.000000, 85.208, -139.6866
2030.000000, 85.348, -139.1412
2060.000000, 85.485, -138.6175
2090.000000, 85.622, -138.1123
2120.000000, 85.756, -137.6251
2140.000000, 85.845, -137.3109
2180.000000, 86.027, -136.7063
2200.000000, 86.120, -136.4161
2240.000000, 86.311, -135.8578
2270.000000, 86.457, -135.4603
2300.000000, 86.602, -135.0846
2330.000000, 86.743, -134.7306
2360.000000, 86.884, -134.3972
2400.000000, 87.071, -133.9841
2430.000000, 87.212, -133.6988
2470.000000, 87.398, -133.3537
2500.000000, 87.537, -133.1185
2540.000000, 87.721, -132.8446
2580.000000, 87.908, -132.6181
2620.000000, 88.094, -132.4361
2650.000000, 88.235, -132.3280
2690.000000, 88.425, -132.2268
2720.000000, 88.572, -132.1848
2760.000000, 88.773, -132.1727
2800.000000, 88.979, -132.2089
2850.000000, 89.236, -132.3279
2900.000000, 89.484, -132.5322
2950.000000, 89.719, -132.8180
3000.000000, 89.945, -133.1822
3040.000000, 90.124, -133.5264
3070.000000, 90.257, -133.8126
3110.000000, 90.431, -134.2300
3150.000000, 90.604, -134.6838
3200.000000, 90.819, -135.2933
3250.000000, 91.030, -135.9332
3300.000000, 91.248, -136.5907
3350.000000, 91.483, -137.3220
3400.000000, 91.741, -138.2089
3450.000000, 92.008, -139.3030
3500.000000, 92.262, -140.6054
3550.000000, 92.488, -142.0720
3600.000000, 92.676, -143.6394
3650.000000, 92.833, -145.2547
3700.000000, 92.966, -146.8855
3750.000000, 93.085, -148.5143
3820.000000, 93.222, -150.7561
3870.000000, 93.295, -152.3075
3950.000000, 93.372, -154.7282
4000.000000, 93.390, -156.2274
4060.000000, 93.375, -157.9931
4120.000000, 93.330, -159.6991
4180.000000, 93.265, -161.3282
4250.000000, 93.174, -163.1130
4310.000000, 93.078, -164.5309
4370.000000, 92.967, -165.8449
4440.000000, 92.828, -167.2520
4500.000000, 92.708, -168.3505
4550.000000, 92.610, -169.1939
4620.000000, 92.477, -170.2730
4680.000000, 92.361, -171.1096
4750.000000, 92.219, -171.9891
4820.000000, 92.065, -172.7771
4870.000000, 91.948, -173.2921
4940.000000, 91.782, -173.9540
5000.000000, 91.646, -174.4707
5080.000000, 91.477, -175.0820
5150.000000, 91.332, -175.5336
5220.000000, 91.186, -175.8896
5300.000000, 91.016, -176.1681
5380.000000, 90.842, -176.3054
5450.000000, 90.687, -176.3084
5520.000000, 90.533, -176.1961
5600.000000, 90.367, -175.9170
5700.000000, 90.193, -175.3669
5800.000000, 90.060, -174.6957
5900.000000, 89.964, -174.0195
6000.000000, 89.895, -173.3861
6080.000000, 89.854, -172.9223
6150.000000, 89.827, -172.5448
6220.000000, 89.804, -172.1837
6300.000000, 89.781, -171.7740
6400.000000, 89.755, -171.2472
6500.000000, 89.736, -170.7040
6600.000000, 89.730, -170.1518
6700.000000, 89.740, -169.5964
6800.000000, 89.764, -169.0402
6900.000000, 89.801, -168.4810
7000.000000, 89.865, -167.9302
7100.000000, 89.967, -167.4204
7200.000000, 90.107, -166.9978
7300.000000, 90.273, -166.6861
7400.000000, 90.462, -166.4934
7500.000000, 90.671, -166.4330
7620.000000, 90.944, -166.5829
7750.000000, 91.268, -167.0904
7880.000000, 91.626, -168.0334
8000.000000, 91.969, -169.3441
8120.000000, 92.310, -171.1167
8250.000000, 92.686, -173.6278
8380.000000, 93.070, -176.8958
8500.000000, 93.410, 179.2206
8620.000000, 93.693, 174.3461
8750.000000, 93.863, 167.9594
8850.000000, 93.850, 162.4480
9000.000000, 93.543, 153.7784
9120.000000, 93.037, 147.0213
9250.000000, 92.247, 140.4263
9380.000000, 91.255, 135.0190
9500.000000, 90.218, 131.3246
9620.000000, 89.129, 128.9263
9750.000000, 87.956, 127.6731
9880.000000, 86.837, 127.5769
10000.000000, 85.874, 128.2760
10150.000000, 84.770, 129.9224
10300.000000, 83.777, 132.1797
10440.000000, 82.940, 134.6758
10600.000000, 82.083, 137.8566
10750.000000, 81.365, 141.0615
10900.000000, 80.726, 144.4250
11060.000000, 80.125, 148.1383
11200.000000, 79.662, 151.4467
11380.000000, 79.143, 155.7131
11500.000000, 78.839, 158.5554
11720.000000, 78.363, 163.7850
11800.000000, 78.216, 165.6931
12060.000000, 77.839, 171.8503
12200.000000, 77.697, 175.0962
12410.000000, 77.569, 179.8176
12500.000000, 77.549, -178.2296
12650.000000, 77.567, -175.0919
12800.000000, 77.640, -172.1247
13150.000000, 78.001, -166.0681
13200.000000, 78.072, -165.3282
13400.000000, 78.400, -162.7515
13600.000000, 78.784, -160.8914
13800.000000, 79.203, -159.8955
14000.000000, 79.628, -159.8586
14300.000000, 80.208, -161.7145
14500.000000, 80.484, -164.3018
14750.000000, 80.579, -168.6895
15000.000000, 80.339, -173.3172
15250.000000, 79.808, -177.1956
15500.000000, 79.084, -179.7195
15750.000000, 78.281, 179.3179
16000.000000, 77.514, 179.8241
