* Measurement data measured by REW V5.31.1
* Source: CUBILUX HLMS-C5 MIC IN, MICROPHONE, R, volume: 1.000
* Format: 4M Log Swept Sine, 1 sweep at -40.0 dBFS with no timing reference
* Dated: Sep 13, 2024 9:40:14 PM
* REW Settings:
*  C-weighting compensation: Off
*  Target level: 75.0 dB
* Note: ; 
* Measurement: Kinera Celest Wyvern R
* Smoothing: 1/24 octave
* Frequency Step: 1/48 octave
* Start Frequency: 1.000 Hz
*
* Freq(Hz), SPL(dB), Phase(degrees)
1.000000, 65.148, 1.6418
1.015000, 65.377, 0.4905
1.030000, 65.602, -0.6411
1.044000, 65.809, -1.6821
1.060000, 66.041, -2.8572
1.075000, 66.254, -3.9478
1.090000, 66.463, -5.0308
1.106000, 66.681, -6.1831
1.120000, 66.868, -7.1935
1.138000, 67.104, -8.4955
1.150000, 67.259, -9.3635
1.172000, 67.536, -10.9501
1.180000, 67.635, -11.5243
1.206000, 67.951, -13.3755
1.220000, 68.118, -14.3604
1.241000, 68.363, -15.8189
1.250000, 68.466, -16.4363
1.265000, 68.636, -17.4541
1.280000, 68.803, -18.4573
1.315000, 69.184, -20.7368
1.320000, 69.238, -21.0552
1.340000, 69.449, -22.3099
1.360000, 69.656, -23.5342
1.380000, 69.860, -24.7278
1.400000, 70.061, -25.8908
1.430000, 70.357, -27.5785
1.450000, 70.551, -28.6672
1.475000, 70.790, -29.9950
1.500000, 71.022, -31.3033
1.525000, 71.248, -32.5988
1.550000, 71.467, -33.8804
1.575000, 71.680, -35.1464
1.600000, 71.887, -36.3954
1.625000, 72.088, -37.6263
1.650000, 72.285, -38.8385
1.675000, 72.477, -40.0316
1.700000, 72.664, -41.2054
1.725000, 72.847, -42.3601
1.750000, 73.026, -43.4960
1.775000, 73.202, -44.6136
1.800000, 73.375, -45.7137
1.825000, 73.546, -46.7989
1.850000, 73.712, -47.8775
1.875000, 73.874, -48.9586
1.900000, 74.032, -50.0426
1.925000, 74.185, -51.1264
1.950000, 74.334, -52.2065
1.975000, 74.479, -53.2799
2.000000, 74.620, -54.3438
2.030000, 74.785, -55.6042
2.060000, 74.945, -56.8433
2.090000, 75.101, -58.0578
2.120000, 75.253, -59.2447
2.140000, 75.353, -60.0194
2.180000, 75.548, -61.5282
2.200000, 75.643, -62.2648
2.240000, 75.828, -63.7234
2.270000, 75.961, -64.8134
2.300000, 76.089, -65.8986
2.330000, 76.214, -66.9762
2.360000, 76.334, -68.0429
2.400000, 76.489, -69.4433
2.430000, 76.602, -70.4736
2.470000, 76.747, -71.8156
2.500000, 76.853, -72.7954
2.540000, 76.991, -74.0630
2.580000, 77.125, -75.2908
2.620000, 77.254, -76.4970
2.650000, 77.346, -77.3928
2.690000, 77.465, -78.5743
2.720000, 77.551, -79.4491
2.760000, 77.661, -80.5974
2.800000, 77.768, -81.7220
2.850000, 77.897, -83.0889
2.900000, 78.021, -84.4068
2.950000, 78.142, -85.6766
3.000000, 78.258, -86.9139
3.040000, 78.346, -87.8858
3.070000, 78.410, -88.6040
3.110000, 78.493, -89.5463
3.150000, 78.574, -90.4700
3.200000, 78.671, -91.5960
3.250000, 78.767, -92.6872
3.300000, 78.860, -93.7420
3.350000, 78.951, -94.7640
3.400000, 79.039, -95.7591
3.450000, 79.124, -96.7300
3.500000, 79.207, -97.6785
3.550000, 79.288, -98.6058
3.600000, 79.367, -99.5128
3.650000, 79.445, -100.4003
3.700000, 79.522, -101.2687
3.750000, 79.597, -102.1189
3.820000, 79.700, -103.2811
3.870000, 79.772, -104.0932
3.950000, 79.883, -105.3650
4.000000, 79.951, -106.1445
4.060000, 80.031, -107.0659
4.120000, 80.110, -107.9730
4.180000, 80.186, -108.8660
4.250000, 80.273, -109.8906
4.310000, 80.344, -110.7544
4.370000, 80.413, -111.6058
4.440000, 80.490, -112.5864
4.500000, 80.554, -113.4188
4.550000, 80.605, -114.1059
4.620000, 80.674, -115.0547
4.680000, 80.730, -115.8529
4.750000, 80.792, -116.7644
4.820000, 80.850, -117.6578
4.870000, 80.890, -118.2879
4.940000, 80.941, -119.1573
5.000000, 80.983, -119.8871
5.080000, 81.035, -120.8325
5.150000, 81.078, -121.6314
5.220000, 81.117, -122.4074
5.300000, 81.158, -123.2692
5.380000, 81.196, -124.1025
5.450000, 81.228, -124.8057
5.520000, 81.259, -125.4827
5.600000, 81.293, -126.2254
5.700000, 81.333, -127.1129
5.800000, 81.371, -127.9624
5.900000, 81.411, -128.7766
6.000000, 81.451, -129.5532
6.080000, 81.483, -130.1525
6.150000, 81.511, -130.6669
6.220000, 81.540, -131.1757
6.300000, 81.574, -131.7501
6.400000, 81.616, -132.4554
6.500000, 81.659, -133.1515
6.600000, 81.700, -133.8459
6.700000, 81.739, -134.5417
6.800000, 81.777, -135.2355
6.900000, 81.813, -135.9220
7.000000, 81.844, -136.6003
7.100000, 81.872, -137.2730
7.200000, 81.896, -137.9333
7.300000, 81.917, -138.5694
7.400000, 81.935, -139.1772
7.500000, 81.949, -139.7592
7.620000, 81.963, -140.4167
7.750000, 81.979, -141.0652
7.880000, 81.994, -141.6477
8.000000, 82.012, -142.1397
8.120000, 82.037, -142.5926
8.250000, 82.072, -143.0405
8.380000, 82.116, -143.4783
8.500000, 82.167, -143.8950
8.620000, 82.227, -144.3259
8.750000, 82.299, -144.8383
8.850000, 82.358, -145.2822
9.000000, 82.453, -146.0268
9.120000, 82.527, -146.6949
9.250000, 82.603, -147.5017
9.380000, 82.673, -148.3858
9.500000, 82.729, -149.2495
9.620000, 82.773, -150.1534
9.750000, 82.807, -151.1674
9.880000, 82.821, -152.1797
10.000000, 82.812, -153.0975
10.150000, 82.777, -154.2098
10.300000, 82.721, -155.2366
10.440000, 82.653, -156.1034
10.600000, 82.567, -156.9766
10.750000, 82.486, -157.6650
10.900000, 82.407, -158.2389
11.060000, 82.332, -158.7483
11.200000, 82.278, -159.1179
11.380000, 82.223, -159.5423
11.500000, 82.198, -159.8128
11.720000, 82.169, -160.3243
11.800000, 82.163, -160.5283
12.060000, 82.151, -161.2650
12.200000, 82.145, -161.7107
12.410000, 82.134, -162.4250
12.500000, 82.131, -162.7380
12.650000, 82.125, -163.2620
12.800000, 82.118, -163.7740
13.150000, 82.094, -164.8654
13.200000, 82.090, -165.0077
13.400000, 82.078, -165.5438
13.600000, 82.072, -166.0453
13.800000, 82.072, -166.5327
14.000000, 82.078, -167.0339
14.300000, 82.092, -167.8447
14.500000, 82.099, -168.4330
14.750000, 82.099, -169.2028
15.000000, 82.086, -169.9790
15.250000, 82.061, -170.7190
15.500000, 82.028, -171.3937
15.750000, 81.993, -171.9931
16.000000, 81.962, -172.5273
16.250000, 81.939, -173.0234
16.500000, 81.924, -173.5087
16.750000, 81.913, -174.0059
17.000000, 81.902, -174.5231
17.250000, 81.890, -175.0562
17.500000, 81.873, -175.5941
17.750000, 81.853, -176.1237
18.000000, 81.831, -176.6381
18.250000, 81.808, -177.1357
18.500000, 81.786, -177.6212
18.750000, 81.765, -178.1009
19.000000, 81.744, -178.5802
19.250000, 81.722, -179.0608
19.500000, 81.700, -179.5406
19.750000, 81.676, 179.9839
20.000000, 81.651, 179.5171
20.299999, 81.620, 178.9717
20.600000, 81.589, 178.4438
20.900000, 81.559, 177.9326
21.200001, 81.528, 177.4374
21.400000, 81.508, 177.1160
21.799999, 81.469, 176.4927
22.000000, 81.450, 176.1892
22.400000, 81.415, 175.5905
22.700001, 81.389, 175.1418
23.000000, 81.363, 174.6893
23.299999, 81.336, 174.2341
23.600000, 81.307, 173.7814
24.000000, 81.264, 173.1938
24.299999, 81.230, 172.7709
24.700001, 81.183, 172.2317
25.000000, 81.148, 171.8422
25.400000, 81.102, 171.3374
25.799999, 81.055, 170.8489
26.200001, 81.008, 170.3802
26.500000, 80.972, 170.0424
26.900000, 80.927, 169.6057
27.200001, 80.895, 169.2823
27.600000, 80.854, 168.8483
28.000000, 80.814, 168.4074
28.500000, 80.762, 167.8503
29.000000, 80.709, 167.2953
29.500000, 80.655, 166.7470
30.000000, 80.599, 166.2082
30.400000, 80.552, 165.7901
30.700001, 80.516, 165.4890
31.100000, 80.468, 165.1081
31.500000, 80.422, 164.7489
32.000000, 80.368, 164.3150
32.500000, 80.317, 163.8746
33.000000, 80.265, 163.4176
33.500000, 80.209, 162.9601
34.000000, 80.148, 162.5309
34.500000, 80.087, 162.1433
35.000000, 80.029, 161.7834
35.500000, 79.975, 161.4260
36.000000, 79.922, 161.0610
36.500000, 79.867, 160.6989
37.000000, 79.813, 160.3508
37.500000, 79.760, 160.0114
38.200001, 79.686, 159.5284
38.700001, 79.631, 159.1857
39.500000, 79.539, 158.6934
40.000000, 79.485, 158.4202
40.599998, 79.424, 158.0925
41.200001, 79.365, 157.7480
41.799999, 79.303, 157.4009
42.500000, 79.231, 157.0040
43.099998, 79.167, 156.6646
43.700001, 79.100, 156.3413
44.400002, 79.022, 156.0119
45.000000, 78.960, 155.7480
45.500000, 78.911, 155.5162
46.200001, 78.837, 155.1915
46.799999, 78.772, 154.9492
47.500000, 78.703, 154.6781
48.200001, 78.634, 154.3671
48.700001, 78.577, 154.1515
49.400002, 78.496, 153.9093
50.000000, 78.432, 153.7233
50.799999, 78.344, 153.4714
51.500000, 78.267, 153.3434
52.200001, 78.214, 153.2569
53.000000, 78.170, 152.9475
53.799999, 78.096, 152.4970
54.500000, 78.012, 152.2468
55.200001, 77.943, 152.1113
56.000000, 77.879, 151.9222
57.000000, 77.799, 151.6181
58.000000, 77.710, 151.2808
59.000000, 77.607, 151.0148
60.000000, 77.513, 150.8648
60.799999, 77.447, 150.7228
61.500000, 77.389, 150.5736
62.200001, 77.331, 150.4158
63.000000, 77.262, 150.2286
64.000000, 77.171, 150.0327
65.000000, 77.086, 149.8950
66.000000, 77.007, 149.7495
67.000000, 76.929, 149.5959
68.000000, 76.849, 149.4268
69.000000, 76.761, 149.2568
70.000000, 76.669, 149.1834
71.000000, 76.592, 149.1578
72.000000, 76.525, 149.0565
73.000000, 76.453, 148.9105
74.000000, 76.377, 148.7731
75.000000, 76.298, 148.6718
76.199997, 76.210, 148.6030
77.500000, 76.118, 148.4978
78.800003, 76.020, 148.4179
80.000000, 75.932, 148.3710
81.199997, 75.845, 148.3335
82.500000, 75.758, 148.2886
83.800003, 75.669, 148.1967
85.000000, 75.584, 148.1506
86.199997, 75.504, 148.1322
87.500000, 75.421, 148.1207
88.500000, 75.359, 148.1216
90.000000, 75.270, 148.1393
91.199997, 75.202, 148.1481
92.500000, 75.127, 148.1544
93.800003, 75.053, 148.1716
95.000000, 74.984, 148.1865
96.199997, 74.917, 148.2086
97.500000, 74.845, 148.2128
98.800003, 74.768, 148.1973
100.000000, 74.693, 148.2386
101.500000, 74.612, 148.3571
103.000000, 74.541, 148.3932
104.400002, 74.468, 148.4044
106.000000, 74.382, 148.4464
107.500000, 74.303, 148.5438
109.000000, 74.232, 148.6485
110.599998, 74.160, 148.7206
112.000000, 74.093, 148.7787
113.800003, 74.008, 148.9050
115.000000, 73.955, 148.9863
117.199997, 73.856, 149.1243
118.000000, 73.819, 149.1830
120.599998, 73.705, 149.3415
122.000000, 73.642, 149.4206
124.099998, 73.554, 149.5706
125.000000, 73.518, 149.6267
126.500000, 73.458, 149.7289
128.000000, 73.398, 149.8466
131.500000, 73.263, 150.1352
132.000000, 73.245, 150.1759
134.000000, 73.175, 150.3347
136.000000, 73.107, 150.4928
138.000000, 73.038, 150.6400
140.000000, 72.967, 150.7979
143.000000, 72.865, 151.0775
145.000000, 72.799, 151.2871
147.500000, 72.721, 151.5765
150.000000, 72.645, 151.8134
152.500000, 72.566, 152.0312
155.000000, 72.492, 152.2708
157.500000, 72.421, 152.5420
160.000000, 72.351, 152.8129
162.500000, 72.273, 153.0800
165.000000, 72.191, 153.3503
167.500000, 72.109, 153.6100
170.000000, 72.033, 153.8786
172.500000, 71.961, 154.1404
175.000000, 71.890, 154.4437
177.500000, 71.819, 154.7626
180.000000, 71.746, 155.0975
182.500000, 71.673, 155.4400
185.000000, 71.603, 155.7928
187.500000, 71.534, 156.1772
190.000000, 71.465, 156.6283
192.500000, 71.401, 157.1343
195.000000, 71.347, 157.6936
197.500000, 71.310, 158.2783
200.000000, 71.293, 158.8598
203.000000, 71.300, 159.4790
206.000000, 71.325, 159.9208
209.000000, 71.347, 160.1368
212.000000, 71.351, 160.1591
214.000000, 71.339, 160.1214
218.000000, 71.286, 160.0994
220.000000, 71.251, 160.1448
224.000000, 71.173, 160.3099
227.000000, 71.115, 160.5087
230.000000, 71.060, 160.7424
233.000000, 71.007, 161.0055
236.000000, 70.959, 161.2932
240.000000, 70.901, 161.6809
243.000000, 70.862, 161.9807
247.000000, 70.814, 162.3592
250.000000, 70.780, 162.6187
254.000000, 70.733, 162.9384
258.000000, 70.686, 163.2702
262.000000, 70.636, 163.6199
265.000000, 70.598, 163.8829
269.000000, 70.552, 164.2307
272.000000, 70.520, 164.5045
276.000000, 70.473, 164.8950
280.000000, 70.427, 165.2742
285.000000, 70.378, 165.7352
290.000000, 70.330, 166.1920
295.000000, 70.282, 166.6516
300.000000, 70.232, 167.1227
304.000000, 70.193, 167.4953
307.000000, 70.165, 167.7880
311.000000, 70.131, 168.1937
315.000000, 70.099, 168.6055
320.000000, 70.061, 169.1352
325.000000, 70.026, 169.6866
330.000000, 70.001, 170.2426
335.000000, 69.986, 170.7811
340.000000, 69.978, 171.2787
345.000000, 69.972, 171.7068
350.000000, 69.961, 172.0635
355.000000, 69.946, 172.4154
360.000000, 69.928, 172.7753
365.000000, 69.907, 173.1283
370.000000, 69.887, 173.5038
375.000000, 69.869, 173.8856
382.000000, 69.842, 174.4011
387.000000, 69.824, 174.7586
395.000000, 69.794, 175.3596
400.000000, 69.776, 175.7339
406.000000, 69.753, 176.1725
412.000000, 69.730, 176.6168
418.000000, 69.712, 177.0720
425.000000, 69.691, 177.5995
431.000000, 69.675, 178.0570
437.000000, 69.658, 178.5188
444.000000, 69.639, 179.0590
450.000000, 69.623, 179.5187
455.000000, 69.612, 179.8958
462.000000, 69.600, -179.5872
468.000000, 69.590, -179.1396
475.000000, 69.579, -178.6197
482.000000, 69.568, -178.0994
487.000000, 69.560, -177.7273
494.000000, 69.551, -177.2038
500.000000, 69.545, -176.7528
508.000000, 69.537, -176.1627
515.000000, 69.532, -175.6591
522.000000, 69.529, -175.1648
530.000000, 69.527, -174.5844
538.000000, 69.524, -173.9903
545.000000, 69.524, -173.4703
552.000000, 69.524, -172.9575
560.000000, 69.522, -172.3847
570.000000, 69.522, -171.6678
580.000000, 69.527, -170.9361
590.000000, 69.532, -170.2039
600.000000, 69.541, -169.4888
608.000000, 69.548, -168.9058
615.000000, 69.555, -168.4029
622.000000, 69.563, -167.8939
630.000000, 69.574, -167.3040
640.000000, 69.590, -166.5728
650.000000, 69.605, -165.8344
660.000000, 69.622, -165.0984
670.000000, 69.643, -164.3528
680.000000, 69.665, -163.6031
690.000000, 69.691, -162.8540
700.000000, 69.721, -162.0845
710.000000, 69.754, -161.3116
720.000000, 69.790, -160.5449
730.000000, 69.831, -159.7689
740.000000, 69.876, -158.9949
750.000000, 69.926, -158.2244
762.000000, 69.992, -157.3044
775.000000, 70.071, -156.3314
788.000000, 70.158, -155.3866
800.000000, 70.245, -154.5539
812.000000, 70.331, -153.7613
825.000000, 70.427, -152.9540
838.000000, 70.524, -152.1960
850.000000, 70.615, -151.5335
862.000000, 70.707, -150.8992
875.000000, 70.807, -150.2415
885.000000, 70.883, -149.7517
900.000000, 71.000, -149.0433
912.000000, 71.095, -148.4993
925.000000, 71.199, -147.9291
938.000000, 71.304, -147.3700
950.000000, 71.403, -146.8752
962.000000, 71.503, -146.4062
975.000000, 71.614, -145.9231
988.000000, 71.727, -145.4611
1000.000000, 71.834, -145.0619
1015.000000, 71.969, -144.6024
1030.000000, 72.107, -144.1777
1044.000000, 72.236, -143.8146
1060.000000, 72.384, -143.4421
1075.000000, 72.521, -143.1329
1090.000000, 72.657, -142.8579
1106.000000, 72.800, -142.5929
1120.000000, 72.924, -142.3762
1138.000000, 73.084, -142.1185
1150.000000, 73.195, -141.9740
1172.000000, 73.395, -141.8235
1180.000000, 73.464, -141.7956
1206.000000, 73.676, -141.7262
1220.000000, 73.786, -141.6954
1241.000000, 73.950, -141.6582
1250.000000, 74.021, -141.6468
1265.000000, 74.139, -141.6361
1280.000000, 74.257, -141.6367
1315.000000, 74.527, -141.6669
1320.000000, 74.565, -141.6753
1340.000000, 74.716, -141.7196
1360.000000, 74.865, -141.7803
1380.000000, 75.013, -141.8498
1400.000000, 75.159, -141.9269
1430.000000, 75.377, -142.0723
1450.000000, 75.522, -142.1872
1475.000000, 75.701, -142.3549
1500.000000, 75.879, -142.5474
1525.000000, 76.057, -142.7686
1550.000000, 76.233, -143.0163
1575.000000, 76.410, -143.2958
1600.000000, 76.586, -143.6100
1625.000000, 76.762, -143.9553
1650.000000, 76.937, -144.3401
1675.000000, 77.111, -144.7632
1700.000000, 77.283, -145.2247
1725.000000, 77.453, -145.7291
1750.000000, 77.620, -146.2744
1775.000000, 77.783, -146.8607
1800.000000, 77.944, -147.4869
1825.000000, 78.100, -148.1534
1850.000000, 78.253, -148.8608
1875.000000, 78.401, -149.6089
1900.000000, 78.543, -150.3960
1925.000000, 78.679, -151.2201
1950.000000, 78.808, -152.0761
1975.000000, 78.931, -152.9613
2000.000000, 79.048, -153.8748
2030.000000, 79.178, -155.0051
2060.000000, 79.296, -156.1635
2090.000000, 79.403, -157.3407
2120.000000, 79.498, -158.5257
2140.000000, 79.556, -159.3163
2180.000000, 79.656, -160.8950
2200.000000, 79.700, -161.6822
2240.000000, 79.773, -163.2490
2270.000000, 79.817, -164.4121
2300.000000, 79.850, -165.5566
2330.000000, 79.873, -166.6753
2360.000000, 79.887, -167.7620
2400.000000, 79.891, -169.1492
2430.000000, 79.886, -170.1354
2470.000000, 79.869, -171.3743
2500.000000, 79.851, -172.2438
2540.000000, 79.818, -173.3223
2580.000000, 79.780, -174.3093
2620.000000, 79.739, -175.2086
2650.000000, 79.709, -175.8301
2690.000000, 79.669, -176.5949
2720.000000, 79.641, -177.1237
2760.000000, 79.606, -177.7727
2800.000000, 79.574, -178.3594
2850.000000, 79.541, -179.0150
2900.000000, 79.517, -179.5966
2950.000000, 79.506, 179.8847
3000.000000, 79.507, 179.4149
3040.000000, 79.517, 179.0647
3070.000000, 79.530, 178.8122
3110.000000, 79.559, 178.4841
3150.000000, 79.600, 178.1604
3200.000000, 79.674, 177.7459
3250.000000, 79.771, 177.3006
3300.000000, 79.892, 176.7927
3350.000000, 80.038, 176.1738
3400.000000, 80.207, 175.3768
3450.000000, 80.391, 174.3439
3500.000000, 80.582, 173.0462
3550.000000, 80.768, 171.4807
3600.000000, 80.945, 169.6534
3650.000000, 81.103, 167.5762
3700.000000, 81.236, 165.2699
3750.000000, 81.339, 162.7712
3820.000000, 81.429, 159.0332
3870.000000, 81.455, 156.2164
3950.000000, 81.428, 151.4182
4000.000000, 81.348, 148.2344
4060.000000, 81.164, 144.3008
4120.000000, 80.885, 140.3723
4180.000000, 80.519, 136.5991
4250.000000, 79.996, 132.5621
4310.000000, 79.484, 129.4988
4370.000000, 78.927, 126.8334
4440.000000, 78.236, 124.2424
4500.000000, 77.621, 122.4671
4550.000000, 77.098, 121.2941
4620.000000, 76.361, 120.0994
4680.000000, 75.732, 119.4673
4750.000000, 75.008, 119.1450
4820.000000, 74.300, 119.2308
4870.000000, 73.809, 119.5162
4940.000000, 73.142, 120.1985
5000.000000, 72.592, 121.0199
5080.000000, 71.896, 122.4313
5150.000000, 71.321, 123.9396
5220.000000, 70.773, 125.6779
5300.000000, 70.174, 127.9312
5380.000000, 69.597, 130.5497
5450.000000, 69.115, 133.3704
5520.000000, 68.721, 136.9863
5600.000000, 68.544, 141.3961
5700.000000, 68.542, 143.8902
5800.000000, 68.203, 145.0482
5900.000000, 67.737, 147.5897
6000.000000, 67.336, 150.9050
6080.000000, 67.068, 153.7611
6150.000000, 66.866, 156.3300
6220.000000, 66.691, 158.9408
6300.000000, 66.519, 161.9585
6400.000000, 66.345, 165.7727
6500.000000, 66.214, 169.6222
6600.000000, 66.128, 173.4901
6700.000000, 66.085, 177.3750
6800.000000, 66.088, -178.7336
6900.000000, 66.140, -174.8496
7000.000000, 66.243, -170.9730
7100.000000, 66.397, -167.1368
7200.000000, 66.602, -163.3771
7300.000000, 66.859, -159.6972
7400.000000, 67.170, -156.0932
7500.000000, 67.543, -152.5745
7620.000000, 68.081, -148.4968
7750.000000, 68.793, -144.3402
7880.000000, 69.661, -140.5999
8000.000000, 70.625, -137.7100
8120.000000, 71.776, -135.6753
8250.000000, 73.275, -135.0713
8380.000000, 75.039, -137.2966
8500.000000, 76.772, -143.3061
8620.000000, 78.271, -154.1358
8750.000000, 79.096, -170.4474
8850.000000, 78.923, 176.0622
9000.000000, 77.498, 159.3657
9120.000000, 75.824, 151.1492
9250.000000, 73.970, 147.0479
9380.000000, 72.324, 146.4305
9500.000000, 71.048, 147.7761
9620.000000, 69.991, 150.2602
9750.000000, 69.063, 153.7864
9880.000000, 68.336, 157.9125
10000.000000, 67.831, 162.1304
10150.000000, 67.427, 167.8694
10300.000000, 67.322, 174.0009
10440.000000, 67.577, 179.6904
10600.000000, 68.381, -175.1295
10750.000000, 69.572, -173.5965
10900.000000, 70.877, -176.9273
11060.000000, 71.934, 174.2083
11200.000000, 72.280, 163.4009
11380.000000, 71.748, 148.4082
11500.000000, 70.818, 139.5093
11720.000000, 68.281, 128.3080
11800.000000, 67.210, 126.1499
12060.000000, 63.632, 125.7440
12200.000000, 61.786, 129.2806
12410.000000, 59.292, 139.4434
12500.000000, 58.408, 145.7960
12650.000000, 57.412, 159.0105
12800.000000, 57.307, 173.5130
13150.000000, 59.537, -170.6485
13200.000000, 59.819, -170.9295
13400.000000, 60.336, -174.8612
13600.000000, 59.952, -178.5908
13800.000000, 59.099, -179.2511
14000.000000, 58.150, -176.8060
14300.000000, 56.981, -168.8344
14500.000000, 56.502, -162.2788
14750.000000, 56.171, -153.9025
15000.000000, 56.075, -145.5196
15250.000000, 56.196, -137.2609
15500.000000, 56.541, -129.1877
15750.000000, 57.135, -121.5216
16000.000000, 58.027, -114.5922
