* Measurement data measured by REW V5.31.1
* Source: CUBILUX HLMS-C5 MIC IN, MICROPHONE, R, volume: 1.000
* Format: 4M Log Swept Sine, 1 sweep at -35.0 dBFS with no timing reference
* Dated: Sep 13, 2024 11:43:02 PM
* REW Settings:
*  C-weighting compensation: Off
*  Target level: 75.0 dB
* Note: ; 
* Measurement: KZ Castor Bass UUUU R
* Smoothing: 1/24 octave
* Frequency Step: 1/48 octave
* Start Frequency: 1.000 Hz
*
* Freq(Hz), SPL(dB), Phase(degrees)
1.000000, 59.109, 82.2766
1.015000, 59.190, 80.5433
1.030000, 59.274, 78.8376
1.044000, 59.355, 77.2707
1.060000, 59.451, 75.5099
1.075000, 59.543, 73.8879
1.090000, 59.638, 72.2924
1.106000, 59.743, 70.6154
1.120000, 59.839, 69.1621
1.138000, 59.968, 67.3096
1.150000, 60.059, 66.0850
1.172000, 60.231, 63.8637
1.180000, 60.296, 63.0643
1.206000, 60.514, 60.4994
1.220000, 60.635, 59.1409
1.241000, 60.822, 57.1353
1.250000, 60.903, 56.2880
1.265000, 61.040, 54.8931
1.280000, 61.179, 53.5204
1.315000, 61.509, 50.4077
1.320000, 61.557, 49.9736
1.340000, 61.747, 48.2650
1.360000, 61.938, 46.6011
1.380000, 62.129, 44.9825
1.400000, 62.318, 43.4099
1.430000, 62.597, 41.1377
1.450000, 62.779, 39.6805
1.475000, 63.004, 37.9198
1.500000, 63.228, 36.2165
1.525000, 63.455, 34.5649
1.550000, 63.683, 32.9629
1.575000, 63.911, 31.4089
1.600000, 64.141, 29.9009
1.625000, 64.370, 28.4370
1.650000, 64.599, 27.0151
1.675000, 64.827, 25.6330
1.700000, 65.053, 24.2886
1.725000, 65.277, 22.9799
1.750000, 65.498, 21.7046
1.775000, 65.716, 20.4607
1.800000, 65.931, 19.2461
1.825000, 66.141, 18.0583
1.850000, 66.348, 16.8937
1.875000, 66.552, 15.7491
1.900000, 66.753, 14.6241
1.925000, 66.952, 13.5196
1.950000, 67.149, 12.4365
1.975000, 67.343, 11.3752
2.000000, 67.536, 10.3364
2.030000, 67.763, 9.1200
2.060000, 67.987, 7.9368
2.090000, 68.208, 6.7871
2.120000, 68.426, 5.6709
2.140000, 68.570, 4.9453
2.180000, 68.853, 3.5377
2.200000, 68.992, 2.8542
2.240000, 69.265, 1.5191
2.270000, 69.466, 0.5418
2.300000, 69.664, -0.4156
2.330000, 69.858, -1.3528
2.360000, 70.049, -2.2697
2.400000, 70.299, -3.4603
2.430000, 70.483, -4.3294
2.470000, 70.725, -5.4560
2.500000, 70.904, -6.2770
2.540000, 71.140, -7.3399
2.580000, 71.372, -8.3686
2.620000, 71.600, -9.3681
2.650000, 71.767, -10.1006
2.690000, 71.986, -11.0558
2.720000, 72.148, -11.7566
2.760000, 72.360, -12.6710
2.800000, 72.569, -13.5635
2.850000, 72.826, -14.6493
2.900000, 73.080, -15.7034
2.950000, 73.329, -16.7272
3.000000, 73.574, -17.7223
3.040000, 73.766, -18.4993
3.070000, 73.909, -19.0717
3.110000, 74.096, -19.8223
3.150000, 74.281, -20.5593
3.200000, 74.509, -21.4630
3.250000, 74.734, -22.3488
3.300000, 74.957, -23.2174
3.350000, 75.176, -24.0673
3.400000, 75.393, -24.8985
3.450000, 75.606, -25.7137
3.500000, 75.815, -26.5160
3.550000, 76.022, -27.3087
3.600000, 76.226, -28.0944
3.650000, 76.428, -28.8753
3.700000, 76.627, -29.6509
3.750000, 76.823, -30.4191
3.820000, 77.093, -31.4822
3.870000, 77.282, -32.2341
3.950000, 77.579, -33.4278
4.000000, 77.761, -34.1700
4.060000, 77.976, -35.0581
4.120000, 78.186, -35.9432
4.180000, 78.392, -36.8239
4.250000, 78.627, -37.8447
4.310000, 78.824, -38.7133
4.370000, 79.017, -39.5765
4.440000, 79.235, -40.5796
4.500000, 79.418, -41.4386
4.550000, 79.567, -42.1521
4.620000, 79.770, -43.1437
4.680000, 79.939, -43.9835
4.750000, 80.131, -44.9491
4.820000, 80.318, -45.9039
4.870000, 80.447, -46.5821
4.940000, 80.623, -47.5239
5.000000, 80.769, -48.3198
5.080000, 80.959, -49.3586
5.150000, 81.120, -50.2452
5.220000, 81.275, -51.1165
5.300000, 81.447, -52.0958
5.380000, 81.613, -53.0520
5.450000, 81.754, -53.8653
5.520000, 81.892, -54.6556
5.600000, 82.045, -55.5350
5.700000, 82.230, -56.6022
5.800000, 82.410, -57.6313
5.900000, 82.586, -58.6199
6.000000, 82.757, -59.5712
6.080000, 82.892, -60.3090
6.150000, 83.007, -60.9394
6.220000, 83.122, -61.5565
6.300000, 83.252, -62.2456
6.400000, 83.412, -63.0842
6.500000, 83.570, -63.9025
6.600000, 83.726, -64.7056
6.700000, 83.880, -65.4944
6.800000, 84.032, -66.2695
6.900000, 84.182, -67.0339
7.000000, 84.329, -67.7903
7.100000, 84.474, -68.5394
7.200000, 84.616, -69.2802
7.300000, 84.755, -70.0121
7.400000, 84.891, -70.7360
7.500000, 85.024, -71.4523
7.620000, 85.180, -72.2992
7.750000, 85.344, -73.1982
7.880000, 85.503, -74.0795
8.000000, 85.647, -74.8762
8.120000, 85.787, -75.6550
8.250000, 85.935, -76.4801
8.380000, 86.080, -77.2880
8.500000, 86.212, -78.0193
8.620000, 86.342, -78.7379
8.750000, 86.480, -79.5053
8.850000, 86.584, -80.0894
9.000000, 86.738, -80.9565
9.120000, 86.859, -81.6436
9.250000, 86.987, -82.3831
9.380000, 87.111, -83.1175
9.500000, 87.223, -83.7891
9.620000, 87.333, -84.4545
9.750000, 87.447, -85.1676
9.880000, 87.552, -85.8692
10.000000, 87.639, -86.5052
10.150000, 87.735, -87.2842
10.300000, 87.823, -88.0424
10.440000, 87.900, -88.7309
10.600000, 87.983, -89.4975
10.750000, 88.059, -90.1976
10.900000, 88.135, -90.8831
11.060000, 88.215, -91.6040
11.200000, 88.285, -92.2281
11.380000, 88.373, -93.0268
11.500000, 88.430, -93.5591
11.720000, 88.532, -94.5337
11.800000, 88.567, -94.8878
12.060000, 88.677, -96.0311
12.200000, 88.732, -96.6366
12.410000, 88.813, -97.5246
12.500000, 88.849, -97.8948
12.650000, 88.913, -98.4967
12.800000, 88.978, -99.0788
13.150000, 89.134, -100.3619
13.200000, 89.156, -100.5385
13.400000, 89.248, -101.2336
13.600000, 89.343, -101.9234
13.800000, 89.440, -102.6205
14.000000, 89.539, -103.3377
14.300000, 89.685, -104.4636
14.500000, 89.778, -105.2486
14.750000, 89.886, -106.2559
15.000000, 89.984, -107.2729
15.250000, 90.070, -108.2730
15.500000, 90.146, -109.2336
15.750000, 90.216, -110.1394
16.000000, 90.284, -110.9843
16.250000, 90.355, -111.7735
16.500000, 90.430, -112.5189
16.750000, 90.508, -113.2367
17.000000, 90.589, -113.9431
17.250000, 90.673, -114.6504
17.500000, 90.758, -115.3664
17.750000, 90.841, -116.0931
18.000000, 90.922, -116.8280
18.250000, 90.999, -117.5658
18.500000, 91.073, -118.2995
18.750000, 91.142, -119.0229
19.000000, 91.208, -119.7310
19.250000, 91.272, -120.4214
19.500000, 91.333, -121.0943
19.750000, 91.394, -121.7522
20.000000, 91.453, -122.3987
20.299999, 91.524, -123.1643
20.600000, 91.592, -123.9217
20.900000, 91.657, -124.6696
21.200001, 91.718, -125.4023
21.400000, 91.757, -125.8785
21.799999, 91.832, -126.7952
22.000000, 91.869, -127.2357
22.400000, 91.945, -128.0910
22.700001, 92.003, -128.7242
23.000000, 92.062, -129.3630
23.299999, 92.121, -130.0134
23.600000, 92.177, -130.6733
24.000000, 92.246, -131.5519
24.299999, 92.293, -132.1964
24.700001, 92.354, -133.0260
25.000000, 92.400, -133.6296
25.400000, 92.462, -134.4251
25.799999, 92.523, -135.2226
26.200001, 92.581, -136.0181
26.500000, 92.620, -136.6017
26.900000, 92.671, -137.3497
27.200001, 92.710, -137.8898
27.600000, 92.763, -138.6008
28.000000, 92.818, -139.3256
28.500000, 92.880, -140.2569
29.000000, 92.928, -141.1644
29.500000, 92.970, -141.9839
30.000000, 93.018, -142.7242
30.400000, 93.065, -143.3134
30.700001, 93.103, -143.7814
31.100000, 93.152, -144.4482
31.500000, 93.193, -145.1446
32.000000, 93.234, -146.0032
32.500000, 93.268, -146.8115
33.000000, 93.302, -147.5774
33.500000, 93.337, -148.3268
34.000000, 93.371, -149.0679
34.500000, 93.403, -149.7950
35.000000, 93.436, -150.5079
35.500000, 93.469, -151.2151
36.000000, 93.500, -151.9212
36.500000, 93.530, -152.6228
37.000000, 93.558, -153.3153
37.500000, 93.585, -153.9967
38.200001, 93.619, -154.9258
38.700001, 93.642, -155.5682
39.500000, 93.681, -156.5763
40.000000, 93.706, -157.2105
40.599998, 93.733, -157.9783
41.200001, 93.756, -158.7410
41.799999, 93.776, -159.4877
42.500000, 93.798, -160.3363
43.099998, 93.816, -161.0480
43.700001, 93.833, -161.7519
44.400002, 93.853, -162.5701
45.000000, 93.867, -163.2650
45.500000, 93.876, -163.8312
46.200001, 93.889, -164.5962
46.799999, 93.900, -165.2311
47.500000, 93.916, -165.9656
48.200001, 93.930, -166.7041
48.700001, 93.939, -167.2318
49.400002, 93.950, -167.9659
50.000000, 93.958, -168.5921
50.799999, 93.965, -169.4196
51.500000, 93.968, -170.1225
52.200001, 93.970, -170.7978
53.000000, 93.974, -171.5556
53.799999, 93.979, -172.3282
54.500000, 93.980, -173.0146
55.200001, 93.976, -173.6847
56.000000, 93.972, -174.4192
57.000000, 93.968, -175.3318
58.000000, 93.961, -176.2407
59.000000, 93.954, -177.1201
60.000000, 93.948, -178.0140
60.799999, 93.938, -178.7230
61.500000, 93.927, -179.3131
62.200001, 93.919, -179.8878
63.000000, 93.909, 179.4546
64.000000, 93.895, 178.6365
65.000000, 93.879, 177.8215
66.000000, 93.858, 177.0209
67.000000, 93.837, 176.2489
68.000000, 93.817, 175.4676
69.000000, 93.794, 174.6829
70.000000, 93.767, 173.9160
71.000000, 93.739, 173.1664
72.000000, 93.711, 172.4380
73.000000, 93.682, 171.7222
74.000000, 93.653, 171.0117
75.000000, 93.620, 170.3081
76.199997, 93.578, 169.4942
77.500000, 93.534, 168.6288
78.800003, 93.487, 167.7589
80.000000, 93.442, 166.9859
81.199997, 93.399, 166.2197
82.500000, 93.352, 165.3876
83.800003, 93.302, 164.5841
85.000000, 93.257, 163.8352
86.199997, 93.206, 163.0784
87.500000, 93.146, 162.3064
88.500000, 93.103, 161.7287
90.000000, 93.039, 160.8737
91.199997, 92.987, 160.1915
92.500000, 92.926, 159.4691
93.800003, 92.862, 158.7840
95.000000, 92.802, 158.1690
96.199997, 92.742, 157.5384
97.500000, 92.675, 156.8288
98.800003, 92.602, 156.1179
100.000000, 92.535, 155.5371
101.500000, 92.468, 154.8095
103.000000, 92.395, 154.0317
104.400002, 92.321, 153.3621
106.000000, 92.236, 152.6387
107.500000, 92.156, 151.9489
109.000000, 92.070, 151.2655
110.599998, 91.979, 150.5609
112.000000, 91.898, 149.9431
113.800003, 91.790, 149.1695
115.000000, 91.717, 148.6771
117.199997, 91.585, 147.8003
118.000000, 91.537, 147.4865
120.599998, 91.380, 146.4816
122.000000, 91.292, 145.9600
124.099998, 91.157, 145.1898
125.000000, 91.098, 144.8626
126.500000, 91.001, 144.3274
128.000000, 90.906, 143.8032
131.500000, 90.679, 142.6462
132.000000, 90.646, 142.4900
134.000000, 90.513, 141.8739
136.000000, 90.379, 141.2628
138.000000, 90.242, 140.6650
140.000000, 90.104, 140.1071
143.000000, 89.893, 139.3004
145.000000, 89.749, 138.7849
147.500000, 89.566, 138.1790
150.000000, 89.382, 137.6219
152.500000, 89.194, 137.0736
155.000000, 89.000, 136.5659
157.500000, 88.805, 136.1167
160.000000, 88.603, 135.7194
162.500000, 88.392, 135.3757
165.000000, 88.173, 135.1019
167.500000, 87.954, 134.8954
170.000000, 87.732, 134.8044
172.500000, 87.517, 134.8419
175.000000, 87.320, 134.9787
177.500000, 87.144, 135.1542
180.000000, 86.989, 135.3066
182.500000, 86.844, 135.3203
185.000000, 86.691, 135.2249
187.500000, 86.526, 135.0878
190.000000, 86.349, 134.9471
192.500000, 86.164, 134.8319
195.000000, 85.972, 134.7672
197.500000, 85.776, 134.7617
200.000000, 85.576, 134.8214
203.000000, 85.333, 134.9980
206.000000, 85.090, 135.2499
209.000000, 84.847, 135.5550
212.000000, 84.603, 135.9297
214.000000, 84.440, 136.2330
218.000000, 84.122, 136.9249
220.000000, 83.966, 137.3137
224.000000, 83.660, 138.1945
227.000000, 83.435, 138.9210
230.000000, 83.215, 139.7011
233.000000, 83.000, 140.5606
236.000000, 82.791, 141.5046
240.000000, 82.521, 142.8326
243.000000, 82.327, 143.8613
247.000000, 82.082, 145.3475
250.000000, 81.908, 146.5468
254.000000, 81.690, 148.2116
258.000000, 81.492, 149.9393
262.000000, 81.313, 151.6739
265.000000, 81.191, 153.0175
269.000000, 81.042, 154.8644
272.000000, 80.943, 156.2848
276.000000, 80.832, 158.2016
280.000000, 80.742, 160.1474
285.000000, 80.654, 162.5360
290.000000, 80.597, 164.8509
295.000000, 80.566, 167.1262
300.000000, 80.555, 169.3448
304.000000, 80.564, 171.0644
307.000000, 80.578, 172.3065
311.000000, 80.608, 173.8838
315.000000, 80.652, 175.3846
320.000000, 80.719, 177.2056
325.000000, 80.795, 178.9463
330.000000, 80.882, -179.4461
335.000000, 80.977, -177.9501
340.000000, 81.078, -176.5461
345.000000, 81.181, -175.2278
350.000000, 81.289, -173.9985
355.000000, 81.399, -172.8699
360.000000, 81.510, -171.8213
365.000000, 81.620, -170.8575
370.000000, 81.727, -169.9695
375.000000, 81.835, -169.1249
382.000000, 81.986, -168.0066
387.000000, 82.091, -167.2976
395.000000, 82.258, -166.3282
400.000000, 82.361, -165.7364
406.000000, 82.475, -165.0086
412.000000, 82.584, -164.3956
418.000000, 82.692, -163.8517
425.000000, 82.815, -163.2549
431.000000, 82.914, -162.7987
437.000000, 83.009, -162.3841
444.000000, 83.113, -161.9230
450.000000, 83.199, -161.5546
455.000000, 83.267, -161.2640
462.000000, 83.357, -160.8734
468.000000, 83.431, -160.5516
475.000000, 83.513, -160.2007
482.000000, 83.592, -159.8608
487.000000, 83.646, -159.6359
494.000000, 83.718, -159.3351
500.000000, 83.776, -159.0800
508.000000, 83.851, -158.7455
515.000000, 83.915, -158.4632
522.000000, 83.976, -158.1803
530.000000, 84.040, -157.8718
538.000000, 84.099, -157.5740
545.000000, 84.150, -157.3174
552.000000, 84.199, -157.0551
560.000000, 84.253, -156.7497
570.000000, 84.315, -156.3869
580.000000, 84.373, -156.0320
590.000000, 84.427, -155.6642
600.000000, 84.476, -155.2882
608.000000, 84.514, -154.9651
615.000000, 84.547, -154.6750
622.000000, 84.579, -154.3836
630.000000, 84.615, -154.0507
640.000000, 84.659, -153.6360
650.000000, 84.702, -153.2056
660.000000, 84.744, -152.7610
670.000000, 84.788, -152.3201
680.000000, 84.832, -151.8764
690.000000, 84.875, -151.4238
700.000000, 84.919, -150.9686
710.000000, 84.960, -150.5212
720.000000, 84.999, -150.0632
730.000000, 85.038, -149.5794
740.000000, 85.079, -149.0725
750.000000, 85.122, -148.5542
762.000000, 85.177, -147.9210
775.000000, 85.241, -147.2252
788.000000, 85.307, -146.5341
800.000000, 85.369, -145.9015
812.000000, 85.431, -145.2706
825.000000, 85.502, -144.5856
838.000000, 85.577, -143.9160
850.000000, 85.652, -143.3292
862.000000, 85.730, -142.7868
875.000000, 85.815, -142.2785
885.000000, 85.871, -141.9599
900.000000, 85.920, -141.4523
912.000000, 85.946, -140.7591
925.000000, 86.013, -139.7518
938.000000, 86.125, -138.8429
950.000000, 86.244, -138.1820
962.000000, 86.364, -137.6285
975.000000, 86.492, -137.1103
988.000000, 86.619, -136.6530
1000.000000, 86.735, -136.2731
1015.000000, 86.881, -135.8496
1030.000000, 87.027, -135.4871
1044.000000, 87.160, -135.2038
1060.000000, 87.309, -134.9396
1075.000000, 87.444, -134.7449
1090.000000, 87.571, -134.5917
1106.000000, 87.700, -134.4608
1120.000000, 87.806, -134.3587
1138.000000, 87.934, -134.2298
1150.000000, 88.015, -134.1399
1172.000000, 88.162, -133.9551
1180.000000, 88.214, -133.8836
1206.000000, 88.381, -133.6492
1220.000000, 88.472, -133.5295
1241.000000, 88.609, -133.3627
1250.000000, 88.668, -133.2974
1265.000000, 88.767, -133.1970
1280.000000, 88.866, -133.1068
1315.000000, 89.091, -132.9264
1320.000000, 89.123, -132.9031
1340.000000, 89.246, -132.8163
1360.000000, 89.367, -132.7340
1380.000000, 89.485, -132.6479
1400.000000, 89.599, -132.5619
1430.000000, 89.769, -132.4364
1450.000000, 89.881, -132.3448
1475.000000, 90.018, -132.2231
1500.000000, 90.154, -132.0977
1525.000000, 90.289, -131.9652
1550.000000, 90.424, -131.8307
1575.000000, 90.561, -131.6898
1600.000000, 90.699, -131.5470
1625.000000, 90.839, -131.4086
1650.000000, 90.981, -131.2737
1675.000000, 91.124, -131.1445
1700.000000, 91.270, -131.0197
1725.000000, 91.417, -130.9054
1750.000000, 91.566, -130.8060
1775.000000, 91.716, -130.7164
1800.000000, 91.869, -130.6429
1825.000000, 92.024, -130.5865
1850.000000, 92.181, -130.5490
1875.000000, 92.340, -130.5328
1900.000000, 92.500, -130.5397
1925.000000, 92.663, -130.5721
1950.000000, 92.827, -130.6315
1975.000000, 92.992, -130.7187
2000.000000, 93.159, -130.8342
2030.000000, 93.362, -131.0158
2060.000000, 93.566, -131.2470
2090.000000, 93.771, -131.5259
2120.000000, 93.975, -131.8548
2140.000000, 94.112, -132.1049
2180.000000, 94.384, -132.6791
2200.000000, 94.519, -133.0041
2240.000000, 94.786, -133.7305
2270.000000, 94.984, -134.3414
2300.000000, 95.179, -135.0081
2330.000000, 95.370, -135.7290
2360.000000, 95.558, -136.5052
2400.000000, 95.802, -137.6295
2430.000000, 95.979, -138.5428
2470.000000, 96.207, -139.8632
2500.000000, 96.367, -140.9287
2540.000000, 96.565, -142.4399
2580.000000, 96.742, -144.0400
2620.000000, 96.900, -145.7101
2650.000000, 97.003, -146.9993
2690.000000, 97.122, -148.7545
2720.000000, 97.197, -150.0889
2760.000000, 97.276, -151.8753
2800.000000, 97.332, -153.6519
2850.000000, 97.371, -155.8258
2900.000000, 97.381, -157.9112
2950.000000, 97.367, -159.9030
3000.000000, 97.330, -161.8036
3040.000000, 97.284, -163.2431
3070.000000, 97.242, -164.2670
3110.000000, 97.177, -165.5525
3150.000000, 97.108, -166.7476
3200.000000, 97.020, -168.1243
3250.000000, 96.928, -169.3899
3300.000000, 96.830, -170.5512
3350.000000, 96.727, -171.6016
3400.000000, 96.621, -172.5320
3450.000000, 96.513, -173.3432
3500.000000, 96.408, -174.0437
3550.000000, 96.305, -174.6444
3600.000000, 96.208, -175.1560
3650.000000, 96.117, -175.5882
3700.000000, 96.033, -175.9501
3750.000000, 95.957, -176.2505
3820.000000, 95.866, -176.5861
3870.000000, 95.815, -176.7836
3950.000000, 95.752, -177.0742
4000.000000, 95.717, -177.2690
4060.000000, 95.672, -177.5401
4120.000000, 95.626, -177.8631
4180.000000, 95.583, -178.2384
4250.000000, 95.537, -178.7343
4310.000000, 95.499, -179.2061
4370.000000, 95.462, -179.7208
4440.000000, 95.421, 179.6229
4500.000000, 95.385, 179.0103
4550.000000, 95.353, 178.4640
4620.000000, 95.305, 177.6444
4680.000000, 95.260, 176.8875
4750.000000, 95.203, 175.9353
4820.000000, 95.138, 174.9005
4870.000000, 95.084, 174.1084
4940.000000, 94.995, 172.9313
5000.000000, 94.905, 171.8727
5080.000000, 94.766, 170.4270
5150.000000, 94.620, 169.1689
5220.000000, 94.448, 167.9554
5300.000000, 94.221, 166.6653
5380.000000, 93.963, 165.5212
5450.000000, 93.717, 164.6668
5520.000000, 93.456, 163.9669
5600.000000, 93.143, 163.3687
5700.000000, 92.738, 162.9340
5800.000000, 92.328, 162.8438
5900.000000, 91.920, 163.0849
6000.000000, 91.523, 163.6421
6080.000000, 91.215, 164.3006
6150.000000, 90.956, 165.0212
6220.000000, 90.707, 165.8682
6300.000000, 90.436, 166.9813
6400.000000, 90.118, 168.5731
6500.000000, 89.828, 170.3668
6600.000000, 89.571, 172.3375
6700.000000, 89.350, 174.4614
6800.000000, 89.166, 176.7214
6900.000000, 89.023, 179.1014
7000.000000, 88.925, -178.4253
7100.000000, 88.875, -175.9062
7200.000000, 88.871, -173.3875
7300.000000, 88.912, -170.8803
7400.000000, 88.998, -168.3868
7500.000000, 89.133, -165.9275
7620.000000, 89.364, -163.0644
7750.000000, 89.706, -160.1372
7880.000000, 90.152, -157.4801
8000.000000, 90.661, -155.3868
8120.000000, 91.267, -153.7950
8250.000000, 92.047, -152.8829
8380.000000, 92.957, -153.1891
8500.000000, 93.895, -155.0107
8620.000000, 94.864, -158.8167
8750.000000, 95.811, -165.6204
8850.000000, 96.334, -172.7220
9000.000000, 96.552, 174.6876
9120.000000, 96.157, 164.5487
9250.000000, 95.239, 155.2366
9380.000000, 94.012, 148.5620
9500.000000, 92.780, 144.7926
9620.000000, 91.571, 142.9630
9750.000000, 90.356, 142.6522
9880.000000, 89.269, 143.5851
10000.000000, 88.384, 145.2190
10150.000000, 87.429, 147.9675
10300.000000, 86.631, 151.2257
10440.000000, 86.017, 154.5338
10600.000000, 85.459, 158.4550
10750.000000, 85.062, 162.1296
10900.000000, 84.779, 165.6913
11060.000000, 84.591, 169.2499
11200.000000, 84.516, 172.0425
11380.000000, 84.528, 174.9808
11500.000000, 84.583, 176.4018
11720.000000, 84.712, 177.7038
11800.000000, 84.743, 177.7673
12060.000000, 84.682, 176.9425
12200.000000, 84.520, 176.3234
12410.000000, 84.148, 175.9579
12500.000000, 83.972, 176.1304
12650.000000, 83.704, 176.8547
12800.000000, 83.498, 177.9696
13150.000000, 83.335, -179.5611
13200.000000, 83.340, -179.3863
13400.000000, 83.384, -179.4107
13600.000000, 83.373, 179.3831
13800.000000, 83.207, 177.3588
14000.000000, 82.837, 175.1901
14300.000000, 81.950, 173.1571
14500.000000, 81.238, 173.1992
14750.000000, 80.348, 174.9239
15000.000000, 79.567, 178.2083
15250.000000, 78.967, -177.4107
15500.000000, 78.592, -172.4253
15750.000000, 78.471, -167.3379
16000.000000, 78.640, -162.6799
16250.000000, 79.119, -159.0670
