* Measurement data measured by REW V5.31.1
* Source: CUBILUX HLMS-C5 MIC IN, MICROPHONE, R, volume: 1.000
* Format: 4M Log Swept Sine, 1 sweep at -40.0 dBFS with no timing reference
* Dated: Sep 13, 2024 10:28:37 PM
* REW Settings:
*  C-weighting compensation: Off
*  Target level: 75.0 dB
* Note: ; 
* Measurement: KZ Krila UUUU L
* Smoothing: 1/24 octave
* Frequency Step: 1/48 octave
* Start Frequency: 1.000 Hz
*
* Freq(Hz), SPL(dB), Phase(degrees)
1.000000, 63.499, 72.8960
1.015000, 63.648, 71.0873
1.030000, 63.799, 69.3135
1.044000, 63.941, 67.6881
1.060000, 64.105, 65.8647
1.075000, 64.259, 64.1865
1.090000, 64.415, 62.5363
1.106000, 64.582, 60.8048
1.120000, 64.733, 59.3133
1.138000, 64.933, 57.4291
1.150000, 65.071, 56.1948
1.172000, 65.330, 53.9789
1.180000, 65.426, 53.1886
1.206000, 65.747, 50.6779
1.220000, 65.924, 49.3628
1.241000, 66.193, 47.4387
1.250000, 66.309, 46.6318
1.265000, 66.505, 45.3102
1.280000, 66.701, 44.0174
1.315000, 67.163, 41.1097
1.320000, 67.229, 40.7064
1.340000, 67.493, 39.1224
1.360000, 67.755, 37.5835
1.380000, 68.015, 36.0879
1.400000, 68.271, 34.6336
1.430000, 68.647, 32.5247
1.450000, 68.890, 31.1643
1.475000, 69.186, 29.5130
1.500000, 69.479, 27.9172
1.525000, 69.769, 26.3758
1.550000, 70.058, 24.8853
1.575000, 70.344, 23.4420
1.600000, 70.628, 22.0418
1.625000, 70.909, 20.6809
1.650000, 71.188, 19.3553
1.675000, 71.463, 18.0612
1.700000, 71.735, 16.7948
1.725000, 72.004, 15.5525
1.750000, 72.268, 14.3309
1.775000, 72.529, 13.1267
1.800000, 72.785, 11.9369
1.825000, 73.036, 10.7590
1.850000, 73.283, 9.5926
1.875000, 73.526, 8.4400
1.900000, 73.765, 7.3032
1.925000, 74.000, 6.1831
1.950000, 74.230, 5.0805
1.975000, 74.458, 3.9958
2.000000, 74.681, 2.9289
2.030000, 74.945, 1.6718
2.060000, 75.204, 0.4395
2.090000, 75.459, -0.7693
2.120000, 75.709, -1.9558
2.140000, 75.873, -2.7353
2.180000, 76.197, -4.2692
2.200000, 76.356, -5.0253
2.240000, 76.668, -6.5209
2.270000, 76.897, -7.6291
2.300000, 77.120, -8.7243
2.330000, 77.339, -9.8055
2.360000, 77.554, -10.8719
2.400000, 77.834, -12.2698
2.430000, 78.039, -13.2999
2.470000, 78.308, -14.6494
2.500000, 78.505, -15.6438
2.540000, 78.764, -16.9476
2.580000, 79.017, -18.2304
2.620000, 79.264, -19.4999
2.650000, 79.444, -20.4442
2.690000, 79.680, -21.6910
2.720000, 79.852, -22.6156
2.760000, 80.077, -23.8328
2.800000, 80.296, -25.0310
2.850000, 80.564, -26.5005
2.900000, 80.825, -27.9382
2.950000, 81.079, -29.3493
3.000000, 81.326, -30.7456
3.040000, 81.517, -31.8536
3.070000, 81.657, -32.6779
3.110000, 81.841, -33.7661
3.150000, 82.020, -34.8401
3.200000, 82.238, -36.1600
3.250000, 82.451, -37.4527
3.300000, 82.659, -38.7191
3.350000, 82.861, -39.9678
3.400000, 83.056, -41.2049
3.450000, 83.246, -42.4286
3.500000, 83.431, -43.6360
3.550000, 83.610, -44.8244
3.600000, 83.786, -45.9916
3.650000, 83.957, -47.1372
3.700000, 84.123, -48.2661
3.750000, 84.285, -49.3846
3.820000, 84.504, -50.9328
3.870000, 84.656, -52.0226
3.950000, 84.889, -53.7313
4.000000, 85.031, -54.7749
4.060000, 85.197, -56.0051
4.120000, 85.357, -57.2199
4.180000, 85.512, -58.4205
4.250000, 85.686, -59.7993
4.310000, 85.831, -60.9582
4.370000, 85.971, -62.0937
4.440000, 86.130, -63.3925
4.500000, 86.261, -64.4908
4.550000, 86.367, -65.3957
4.620000, 86.511, -66.6434
4.680000, 86.631, -67.6917
4.750000, 86.766, -68.8876
4.820000, 86.897, -70.0581
4.870000, 86.987, -70.8825
4.940000, 87.110, -72.0202
5.000000, 87.212, -72.9780
5.080000, 87.344, -74.2263
5.150000, 87.455, -75.2908
5.220000, 87.564, -76.3338
5.300000, 87.683, -77.5028
5.380000, 87.798, -78.6459
5.450000, 87.897, -79.6231
5.520000, 87.993, -80.5785
5.600000, 88.100, -81.6469
5.700000, 88.229, -82.9507
5.800000, 88.355, -84.2206
5.900000, 88.478, -85.4575
6.000000, 88.597, -86.6637
6.080000, 88.690, -87.6092
6.150000, 88.771, -88.4239
6.220000, 88.850, -89.2277
6.300000, 88.939, -90.1339
6.400000, 89.047, -91.2489
6.500000, 89.154, -92.3460
6.600000, 89.257, -93.4275
6.700000, 89.358, -94.4958
6.800000, 89.456, -95.5510
6.900000, 89.551, -96.5920
7.000000, 89.643, -97.6194
7.100000, 89.732, -98.6356
7.200000, 89.818, -99.6387
7.300000, 89.900, -100.6255
7.400000, 89.979, -101.5961
7.500000, 90.055, -102.5523
7.620000, 90.142, -103.6772
7.750000, 90.232, -104.8634
7.880000, 90.318, -106.0186
8.000000, 90.394, -107.0569
8.120000, 90.467, -108.0664
8.250000, 90.544, -109.1297
8.380000, 90.619, -110.1647
8.500000, 90.687, -111.0963
8.620000, 90.753, -112.0067
8.750000, 90.824, -112.9733
8.850000, 90.878, -113.7051
9.000000, 90.957, -114.7852
9.120000, 91.019, -115.6362
9.250000, 91.084, -116.5475
9.380000, 91.148, -117.4481
9.500000, 91.204, -118.2689
9.620000, 91.259, -119.0798
9.750000, 91.315, -119.9468
9.880000, 91.362, -120.7985
10.000000, 91.396, -121.5701
10.150000, 91.427, -122.5144
10.300000, 91.451, -123.4324
10.440000, 91.467, -124.2652
10.600000, 91.481, -125.1894
10.750000, 91.494, -126.0290
10.900000, 91.506, -126.8452
11.060000, 91.519, -127.6936
11.200000, 91.529, -128.4190
11.380000, 91.542, -129.3331
11.500000, 91.551, -129.9328
11.720000, 91.565, -131.0140
11.800000, 91.570, -131.4020
12.060000, 91.582, -132.6434
12.200000, 91.587, -133.2982
12.410000, 91.595, -134.2615
12.500000, 91.601, -134.6667
12.650000, 91.615, -135.3318
12.800000, 91.631, -135.9847
13.150000, 91.669, -137.4656
13.200000, 91.674, -137.6732
13.400000, 91.694, -138.4955
13.600000, 91.712, -139.3069
13.800000, 91.727, -140.1086
14.000000, 91.740, -140.8975
14.300000, 91.752, -142.0473
14.500000, 91.755, -142.7815
14.750000, 91.757, -143.6531
15.000000, 91.758, -144.4698
15.250000, 91.762, -145.2372
15.500000, 91.771, -145.9728
15.750000, 91.786, -146.6991
16.000000, 91.807, -147.4394
16.250000, 91.832, -148.2083
16.500000, 91.856, -149.0077
16.750000, 91.875, -149.8274
17.000000, 91.886, -150.6461
17.250000, 91.889, -151.4420
17.500000, 91.888, -152.1969
17.750000, 91.884, -152.9035
18.000000, 91.882, -153.5670
18.250000, 91.883, -154.2016
18.500000, 91.888, -154.8265
18.750000, 91.895, -155.4568
19.000000, 91.902, -156.1000
19.250000, 91.907, -156.7526
19.500000, 91.906, -157.4026
19.750000, 91.901, -158.0347
20.000000, 91.893, -158.6351
20.299999, 91.882, -159.3060
20.600000, 91.875, -159.9297
20.900000, 91.872, -160.5280
21.200001, 91.875, -161.1270
21.400000, 91.877, -161.5365
21.799999, 91.880, -162.3841
22.000000, 91.879, -162.8160
22.400000, 91.867, -163.6676
22.700001, 91.854, -164.2740
23.000000, 91.838, -164.8433
23.299999, 91.823, -165.3792
23.600000, 91.810, -165.8933
24.000000, 91.795, -166.5662
24.299999, 91.784, -167.0690
24.700001, 91.769, -167.7327
25.000000, 91.755, -168.2168
25.400000, 91.737, -168.8365
25.799999, 91.721, -169.4315
26.200001, 91.707, -170.0174
26.500000, 91.698, -170.4585
26.900000, 91.683, -171.0488
27.200001, 91.671, -171.4866
27.600000, 91.652, -172.0523
28.000000, 91.634, -172.5927
28.500000, 91.613, -173.2460
29.000000, 91.595, -173.9025
29.500000, 91.574, -174.5759
30.000000, 91.547, -175.2483
30.400000, 91.521, -175.7633
30.700001, 91.499, -176.1275
31.100000, 91.471, -176.5833
31.500000, 91.445, -177.0146
32.000000, 91.418, -177.5462
32.500000, 91.393, -178.0951
33.000000, 91.365, -178.6634
33.500000, 91.331, -179.2251
34.000000, 91.292, -179.7472
34.500000, 91.255, 179.7823
35.000000, 91.224, 179.3413
35.500000, 91.199, 178.8895
36.000000, 91.176, 178.4011
36.500000, 91.148, 177.8903
37.000000, 91.112, 177.4015
37.500000, 91.074, 176.9712
38.200001, 91.030, 176.4412
38.700001, 91.008, 176.0472
39.500000, 90.966, 175.3430
40.000000, 90.930, 174.9170
40.599998, 90.884, 174.4792
41.200001, 90.845, 174.0902
41.799999, 90.813, 173.6813
42.500000, 90.772, 173.1574
43.099998, 90.731, 172.7078
43.700001, 90.686, 172.2850
44.400002, 90.633, 171.8241
45.000000, 90.590, 171.4452
45.500000, 90.554, 171.1365
46.200001, 90.503, 170.7202
46.799999, 90.461, 170.3846
47.500000, 90.416, 170.0060
48.200001, 90.373, 169.6189
48.700001, 90.340, 169.3426
49.400002, 90.292, 168.9837
50.000000, 90.253, 168.7109
50.799999, 90.207, 168.3676
51.500000, 90.173, 168.0463
52.200001, 90.138, 167.6839
53.000000, 90.088, 167.2544
53.799999, 90.032, 166.8880
54.500000, 89.987, 166.6211
55.200001, 89.950, 166.3422
56.000000, 89.907, 165.9850
57.000000, 89.847, 165.5449
58.000000, 89.786, 165.1192
59.000000, 89.720, 164.7093
60.000000, 89.654, 164.3427
60.799999, 89.603, 164.0645
61.500000, 89.560, 163.8278
62.200001, 89.519, 163.5866
63.000000, 89.472, 163.2960
64.000000, 89.410, 162.9504
65.000000, 89.349, 162.6521
66.000000, 89.292, 162.3636
67.000000, 89.235, 162.0750
68.000000, 89.174, 161.7963
69.000000, 89.110, 161.5461
70.000000, 89.048, 161.3338
71.000000, 88.992, 161.1095
72.000000, 88.935, 160.8365
73.000000, 88.872, 160.5761
74.000000, 88.813, 160.3588
75.000000, 88.758, 160.1346
76.199997, 88.690, 159.8956
77.500000, 88.621, 159.6927
78.800003, 88.553, 159.4722
80.000000, 88.485, 159.2875
81.199997, 88.417, 159.1315
82.500000, 88.347, 158.9499
83.800003, 88.276, 158.7471
85.000000, 88.211, 158.5759
86.199997, 88.147, 158.4100
87.500000, 88.080, 158.2508
88.500000, 88.030, 158.1410
90.000000, 87.957, 157.9729
91.199997, 87.895, 157.8518
92.500000, 87.828, 157.7649
93.800003, 87.767, 157.6748
95.000000, 87.710, 157.5652
96.199997, 87.654, 157.4408
97.500000, 87.592, 157.2788
98.800003, 87.529, 157.1265
100.000000, 87.467, 157.0193
101.500000, 87.398, 156.9859
103.000000, 87.336, 156.9352
104.400002, 87.275, 156.9029
106.000000, 87.206, 156.8832
107.500000, 87.143, 156.8319
109.000000, 87.078, 156.7794
110.599998, 87.013, 156.7348
112.000000, 86.954, 156.7015
113.800003, 86.879, 156.7019
115.000000, 86.832, 156.7072
117.199997, 86.749, 156.6715
118.000000, 86.719, 156.6513
120.599998, 86.621, 156.6352
122.000000, 86.573, 156.6552
124.099998, 86.501, 156.6624
125.000000, 86.468, 156.6574
126.500000, 86.411, 156.6570
128.000000, 86.355, 156.6749
131.500000, 86.239, 156.7267
132.000000, 86.224, 156.7360
134.000000, 86.163, 156.7752
136.000000, 86.101, 156.8426
138.000000, 86.039, 156.9118
140.000000, 85.977, 156.9768
143.000000, 85.888, 157.0810
145.000000, 85.831, 157.1689
147.500000, 85.760, 157.2877
150.000000, 85.691, 157.3992
152.500000, 85.622, 157.4957
155.000000, 85.553, 157.6524
157.500000, 85.491, 157.8222
160.000000, 85.426, 157.9358
162.500000, 85.360, 158.0497
165.000000, 85.298, 158.1819
167.500000, 85.234, 158.3225
170.000000, 85.167, 158.5017
172.500000, 85.102, 158.6666
175.000000, 85.036, 158.8134
177.500000, 84.972, 158.9590
180.000000, 84.912, 159.1114
182.500000, 84.853, 159.2817
185.000000, 84.792, 159.4952
187.500000, 84.731, 159.7188
190.000000, 84.671, 159.9207
192.500000, 84.612, 160.1369
195.000000, 84.554, 160.3724
197.500000, 84.496, 160.5913
200.000000, 84.435, 160.8143
203.000000, 84.369, 161.1419
206.000000, 84.314, 161.5040
209.000000, 84.263, 161.8886
212.000000, 84.213, 162.3421
214.000000, 84.186, 162.6828
218.000000, 84.149, 163.2920
220.000000, 84.137, 163.5347
224.000000, 84.122, 163.9488
227.000000, 84.114, 164.1851
230.000000, 84.105, 164.3411
233.000000, 84.088, 164.4296
236.000000, 84.063, 164.5145
240.000000, 84.023, 164.6559
243.000000, 83.990, 164.7803
247.000000, 83.945, 164.9791
250.000000, 83.909, 165.1296
254.000000, 83.859, 165.3251
258.000000, 83.809, 165.5486
262.000000, 83.761, 165.8073
265.000000, 83.727, 166.0156
269.000000, 83.682, 166.2907
272.000000, 83.649, 166.4838
276.000000, 83.606, 166.7529
280.000000, 83.567, 167.0393
285.000000, 83.522, 167.3861
290.000000, 83.479, 167.7499
295.000000, 83.430, 168.0805
300.000000, 83.383, 168.4769
304.000000, 83.345, 168.7934
307.000000, 83.319, 169.0094
311.000000, 83.287, 169.2997
315.000000, 83.256, 169.5945
320.000000, 83.218, 169.9430
325.000000, 83.182, 170.3002
330.000000, 83.151, 170.6566
335.000000, 83.121, 171.0147
340.000000, 83.090, 171.3731
345.000000, 83.060, 171.7377
350.000000, 83.031, 172.0911
355.000000, 83.001, 172.4492
360.000000, 82.972, 172.8076
365.000000, 82.946, 173.1549
370.000000, 82.921, 173.4999
375.000000, 82.898, 173.8499
382.000000, 82.866, 174.3369
387.000000, 82.843, 174.6890
395.000000, 82.806, 175.2510
400.000000, 82.784, 175.5963
406.000000, 82.762, 176.0158
412.000000, 82.741, 176.4192
418.000000, 82.720, 176.8238
425.000000, 82.695, 177.2955
431.000000, 82.674, 177.7094
437.000000, 82.656, 178.1191
444.000000, 82.637, 178.5826
450.000000, 82.622, 178.9764
455.000000, 82.609, 179.3031
462.000000, 82.591, 179.7584
468.000000, 82.575, -179.8507
475.000000, 82.559, -179.3983
482.000000, 82.544, -178.9428
487.000000, 82.533, -178.6192
494.000000, 82.518, -178.1695
500.000000, 82.507, -177.7824
508.000000, 82.492, -177.2689
515.000000, 82.480, -176.8261
522.000000, 82.468, -176.3828
530.000000, 82.456, -175.8684
538.000000, 82.444, -175.3612
545.000000, 82.434, -174.9129
552.000000, 82.426, -174.4579
560.000000, 82.417, -173.9536
570.000000, 82.408, -173.3188
580.000000, 82.398, -172.6745
590.000000, 82.389, -172.0333
600.000000, 82.383, -171.3898
608.000000, 82.379, -170.8759
615.000000, 82.374, -170.4271
622.000000, 82.371, -169.9692
630.000000, 82.368, -169.4426
640.000000, 82.365, -168.7889
650.000000, 82.361, -168.1306
660.000000, 82.357, -167.4622
670.000000, 82.354, -166.7786
680.000000, 82.353, -166.0811
690.000000, 82.354, -165.3707
700.000000, 82.355, -164.6457
710.000000, 82.356, -163.9168
720.000000, 82.358, -163.1723
730.000000, 82.357, -162.3984
740.000000, 82.355, -161.5650
750.000000, 82.356, -160.6339
762.000000, 82.377, -159.3248
775.000000, 82.450, -157.8698
788.000000, 82.554, -156.6202
800.000000, 82.655, -155.5654
812.000000, 82.763, -154.5941
825.000000, 82.890, -153.6879
838.000000, 83.017, -152.9376
850.000000, 83.127, -152.3575
862.000000, 83.227, -151.8389
875.000000, 83.325, -151.3032
885.000000, 83.396, -150.8997
900.000000, 83.498, -150.2912
912.000000, 83.578, -149.7931
925.000000, 83.666, -149.2560
938.000000, 83.755, -148.7239
950.000000, 83.839, -148.2375
962.000000, 83.926, -147.7644
975.000000, 84.023, -147.2703
988.000000, 84.122, -146.8001
1000.000000, 84.218, -146.3929
1015.000000, 84.340, -145.9104
1030.000000, 84.464, -145.4656
1044.000000, 84.579, -145.0855
1060.000000, 84.712, -144.6984
1075.000000, 84.837, -144.3747
1090.000000, 84.962, -144.0908
1106.000000, 85.092, -143.8291
1120.000000, 85.204, -143.6300
1138.000000, 85.346, -143.4127
1150.000000, 85.438, -143.2896
1172.000000, 85.603, -143.1106
1180.000000, 85.661, -143.0594
1206.000000, 85.844, -142.9309
1220.000000, 85.940, -142.8791
1241.000000, 86.079, -142.8219
1250.000000, 86.138, -142.8052
1265.000000, 86.236, -142.7860
1280.000000, 86.333, -142.7739
1315.000000, 86.551, -142.7569
1320.000000, 86.582, -142.7566
1340.000000, 86.701, -142.7593
1360.000000, 86.816, -142.7686
1380.000000, 86.929, -142.7808
1400.000000, 87.040, -142.7924
1430.000000, 87.201, -142.8113
1450.000000, 87.308, -142.8236
1475.000000, 87.439, -142.8473
1500.000000, 87.568, -142.8735
1525.000000, 87.696, -142.9026
1550.000000, 87.824, -142.9350
1575.000000, 87.950, -142.9732
1600.000000, 88.077, -143.0207
1625.000000, 88.204, -143.0768
1650.000000, 88.331, -143.1456
1675.000000, 88.459, -143.2276
1700.000000, 88.586, -143.3251
1725.000000, 88.713, -143.4362
1750.000000, 88.840, -143.5618
1775.000000, 88.968, -143.7052
1800.000000, 89.094, -143.8703
1825.000000, 89.220, -144.0521
1850.000000, 89.345, -144.2568
1875.000000, 89.470, -144.4866
1900.000000, 89.593, -144.7384
1925.000000, 89.715, -145.0134
1950.000000, 89.836, -145.3100
1975.000000, 89.956, -145.6267
2000.000000, 90.073, -145.9649
2030.000000, 90.211, -146.4000
2060.000000, 90.347, -146.8660
2090.000000, 90.479, -147.3584
2120.000000, 90.607, -147.8745
2140.000000, 90.690, -148.2330
2180.000000, 90.851, -148.9835
2200.000000, 90.928, -149.3739
2240.000000, 91.077, -150.1823
2270.000000, 91.184, -150.8100
2300.000000, 91.287, -151.4553
2330.000000, 91.384, -152.1175
2360.000000, 91.478, -152.7964
2400.000000, 91.594, -153.7243
2430.000000, 91.675, -154.4315
2470.000000, 91.774, -155.3884
2500.000000, 91.842, -156.1131
2540.000000, 91.922, -157.0841
2580.000000, 91.992, -158.0539
2620.000000, 92.053, -159.0176
2650.000000, 92.093, -159.7330
2690.000000, 92.141, -160.6771
2720.000000, 92.172, -161.3764
2760.000000, 92.208, -162.2920
2800.000000, 92.237, -163.1863
2850.000000, 92.265, -164.2741
2900.000000, 92.286, -165.3241
2950.000000, 92.302, -166.3382
3000.000000, 92.312, -167.3171
3040.000000, 92.317, -168.0742
3070.000000, 92.319, -168.6260
3110.000000, 92.321, -169.3411
3150.000000, 92.324, -170.0356
3200.000000, 92.331, -170.8754
3250.000000, 92.340, -171.6817
3300.000000, 92.351, -172.4540
3350.000000, 92.364, -173.1957
3400.000000, 92.384, -173.9176
3450.000000, 92.411, -174.6455
3500.000000, 92.448, -175.4204
3550.000000, 92.489, -176.2787
3600.000000, 92.528, -177.2362
3650.000000, 92.560, -178.2820
3700.000000, 92.581, -179.3989
3750.000000, 92.592, 179.4314
3820.000000, 92.587, 177.7258
3870.000000, 92.568, 176.4640
3950.000000, 92.507, 174.3903
4000.000000, 92.441, 173.0771
4060.000000, 92.326, 171.5125
4120.000000, 92.182, 169.9785
4180.000000, 92.018, 168.4802
4250.000000, 91.804, 166.7728
4310.000000, 91.597, 165.3517
4370.000000, 91.369, 163.9940
4440.000000, 91.074, 162.5380
4500.000000, 90.801, 161.4331
4550.000000, 90.564, 160.6247
4620.000000, 90.219, 159.6646
4680.000000, 89.915, 158.9969
4750.000000, 89.552, 158.4015
4820.000000, 89.186, 158.0095
4870.000000, 88.926, 157.8497
4940.000000, 88.569, 157.7677
5000.000000, 88.274, 157.7933
5080.000000, 87.893, 157.9144
5150.000000, 87.557, 158.0971
5220.000000, 87.211, 158.4047
5300.000000, 86.804, 158.9938
5380.000000, 86.396, 159.8828
5450.000000, 86.049, 160.9037
5520.000000, 85.717, 162.1255
5600.000000, 85.361, 163.7287
5700.000000, 84.952, 165.9971
5800.000000, 84.584, 168.5049
5900.000000, 84.258, 171.2065
6000.000000, 83.975, 174.0728
6080.000000, 83.778, 176.4715
6150.000000, 83.626, 178.6393
6220.000000, 83.494, -179.1300
6300.000000, 83.366, -176.5069
6400.000000, 83.243, -173.1352
6500.000000, 83.163, -169.6801
6600.000000, 83.132, -166.1608
6700.000000, 83.150, -162.5929
6800.000000, 83.218, -158.9850
6900.000000, 83.340, -155.3508
7000.000000, 83.522, -151.7192
7100.000000, 83.765, -148.1297
7200.000000, 84.073, -144.6246
7300.000000, 84.447, -141.2217
7400.000000, 84.893, -137.9387
7500.000000, 85.421, -134.8203
7620.000000, 86.177, -131.3990
7750.000000, 87.170, -128.3071
7880.000000, 88.365, -126.2425
8000.000000, 89.656, -125.7781
8120.000000, 91.101, -127.4386
8250.000000, 92.726, -132.6831
8380.000000, 94.128, -142.2547
8500.000000, 94.882, -154.3441
8620.000000, 94.896, -167.4658
8750.000000, 94.138, -179.9007
8850.000000, 93.209, 173.0124
9000.000000, 91.648, 166.5483
9120.000000, 90.453, 164.2428
9250.000000, 89.312, 163.7046
9380.000000, 88.352, 164.4807
9500.000000, 87.616, 165.9319
9620.000000, 87.011, 167.8348
9750.000000, 86.487, 170.2396
9880.000000, 86.097, 172.9076
10000.000000, 85.867, 175.4640
10150.000000, 85.742, 178.2765
10300.000000, 85.737, -179.4450
10440.000000, 85.834, -177.8340
10600.000000, 86.040, -176.8636
10750.000000, 86.283, -176.9438
10900.000000, 86.527, -178.0432
11060.000000, 86.734, 179.6940
11200.000000, 86.824, 176.9433
11380.000000, 86.770, 172.7443
11500.000000, 86.620, 169.8096
11720.000000, 86.135, 164.7505
11800.000000, 85.909, 163.1185
12060.000000, 85.090, 158.5958
12200.000000, 84.627, 156.4359
12410.000000, 83.893, 153.2014
12500.000000, 83.553, 151.7886
12650.000000, 82.935, 149.4586
12800.000000, 82.231, 147.3127
13150.000000, 80.229, 144.3875
13200.000000, 79.911, 144.3305
13400.000000, 78.612, 145.2131
13600.000000, 77.343, 147.9189
13800.000000, 76.200, 152.2656
14000.000000, 75.257, 157.8962
14300.000000, 74.340, 167.6005
14500.000000, 74.116, 173.8812
14750.000000, 74.260, 179.5019
15000.000000, 74.405, 179.6093
15250.000000, 73.422, 178.6101
15500.000000, 72.257, -168.8030
15750.000000, 73.238, -155.0515
16000.000000, 74.976, -153.0251
16250.000000, 76.253, -158.5834
16500.000000, 76.743, -167.2939
