* Measurement data measured by REW V5.31.1
* Source: CUBILUX HLMS-C5 MIC IN, MICROPHONE, R, volume: 1.000
* Format: 4M Log Swept Sine, 1 sweep at -40.0 dBFS with no timing reference
* Dated: Sep 13, 2024 11:59:10 PM
* REW Settings:
*  C-weighting compensation: Off
*  Target level: 75.0 dB
* Note: ; 
* Measurement: Tangzu Fudu Verse 1 R
* Smoothing: 1/24 octave
* Frequency Step: 1/48 octave
* Start Frequency: 1.000 Hz
*
* Freq(Hz), SPL(dB), Phase(degrees)
1.000000, 57.292, 84.1659
1.015000, 57.521, 82.4002
1.030000, 57.750, 80.6590
1.044000, 57.963, 79.0535
1.060000, 58.205, 77.2388
1.075000, 58.430, 75.5544
1.090000, 58.654, 73.8843
1.106000, 58.892, 72.1221
1.120000, 59.102, 70.6057
1.138000, 59.378, 68.7010
1.150000, 59.565, 67.4611
1.172000, 59.913, 65.2522
1.180000, 60.042, 64.4698
1.206000, 60.464, 62.0027
1.220000, 60.694, 60.7213
1.241000, 61.041, 58.8587
1.250000, 61.191, 58.0814
1.265000, 61.440, 56.8126
1.280000, 61.690, 55.5757
1.315000, 62.272, 52.8035
1.320000, 62.355, 52.4195
1.340000, 62.684, 50.9105
1.360000, 63.010, 49.4418
1.380000, 63.332, 48.0088
1.400000, 63.648, 46.6072
1.430000, 64.111, 44.5551
1.450000, 64.409, 43.2151
1.475000, 64.772, 41.5716
1.500000, 65.128, 39.9735
1.525000, 65.477, 38.4259
1.550000, 65.821, 36.9268
1.575000, 66.160, 35.4726
1.600000, 66.494, 34.0596
1.625000, 66.822, 32.6838
1.650000, 67.145, 31.3408
1.675000, 67.463, 30.0265
1.700000, 67.775, 28.7368
1.725000, 68.082, 27.4676
1.750000, 68.384, 26.2149
1.775000, 68.681, 24.9750
1.800000, 68.973, 23.7443
1.825000, 69.259, 22.5196
1.850000, 69.540, 21.3004
1.875000, 69.815, 20.0896
1.900000, 70.084, 18.8908
1.925000, 70.347, 17.7064
1.950000, 70.604, 16.5386
1.975000, 70.857, 15.3884
2.000000, 71.104, 14.2567
2.030000, 71.395, 12.9234
2.060000, 71.679, 11.6169
2.090000, 71.958, 10.3363
2.120000, 72.231, 9.0802
2.140000, 72.410, 8.2556
2.180000, 72.762, 6.6334
2.200000, 72.935, 5.8331
2.240000, 73.272, 4.2441
2.270000, 73.517, 3.0610
2.300000, 73.756, 1.8883
2.330000, 73.989, 0.7289
2.360000, 74.217, -0.4148
2.400000, 74.512, -1.9122
2.430000, 74.728, -3.0129
2.470000, 75.010, -4.4491
2.500000, 75.216, -5.5022
2.540000, 75.486, -6.8752
2.580000, 75.749, -8.2195
2.620000, 76.004, -9.5498
2.650000, 76.190, -10.5408
2.690000, 76.431, -11.8494
2.720000, 76.606, -12.8188
2.760000, 76.835, -14.0915
2.800000, 77.057, -15.3382
2.850000, 77.327, -16.8554
2.900000, 77.590, -18.3235
2.950000, 77.846, -19.7474
3.000000, 78.093, -21.1464
3.040000, 78.284, -22.2517
3.070000, 78.423, -23.0710
3.110000, 78.605, -24.1483
3.150000, 78.782, -25.2059
3.200000, 78.998, -26.4965
3.250000, 79.209, -27.7486
3.300000, 79.416, -28.9617
3.350000, 79.617, -30.1449
3.400000, 79.812, -31.3062
3.450000, 80.001, -32.4459
3.500000, 80.185, -33.5626
3.550000, 80.365, -34.6546
3.600000, 80.541, -35.7204
3.650000, 80.714, -36.7591
3.700000, 80.884, -37.7734
3.750000, 81.051, -38.7677
3.820000, 81.277, -40.1297
3.870000, 81.435, -41.0817
3.950000, 81.681, -42.5695
4.000000, 81.832, -43.4775
4.060000, 82.010, -44.5465
4.120000, 82.185, -45.5956
4.180000, 82.356, -46.6267
4.250000, 82.550, -47.8078
4.310000, 82.713, -48.8027
4.370000, 82.873, -49.7824
4.440000, 83.056, -50.9091
4.500000, 83.209, -51.8630
4.550000, 83.334, -52.6494
4.620000, 83.505, -53.7362
4.680000, 83.648, -54.6536
4.750000, 83.811, -55.7075
4.820000, 83.970, -56.7473
4.870000, 84.080, -57.4836
4.940000, 84.231, -58.5037
5.000000, 84.357, -59.3655
5.080000, 84.520, -60.4925
5.150000, 84.658, -61.4577
5.220000, 84.792, -62.4084
5.300000, 84.940, -63.4786
5.380000, 85.083, -64.5266
5.450000, 85.204, -65.4211
5.520000, 85.323, -66.2938
5.600000, 85.455, -67.2688
5.700000, 85.614, -68.4571
5.800000, 85.768, -69.6086
5.900000, 85.918, -70.7204
6.000000, 86.065, -71.7955
6.080000, 86.180, -72.6330
6.150000, 86.279, -73.3515
6.220000, 86.377, -74.0575
6.300000, 86.489, -74.8487
6.400000, 86.626, -75.8158
6.500000, 86.762, -76.7653
6.600000, 86.897, -77.7039
6.700000, 87.030, -78.6326
6.800000, 87.161, -79.5516
6.900000, 87.290, -80.4650
7.000000, 87.417, -81.3768
7.100000, 87.541, -82.2878
7.200000, 87.662, -83.1957
7.300000, 87.779, -84.0986
7.400000, 87.892, -84.9982
7.500000, 88.002, -85.8948
7.620000, 88.127, -86.9592
7.750000, 88.257, -88.0907
7.880000, 88.379, -89.2024
8.000000, 88.486, -90.2040
8.120000, 88.589, -91.1749
8.250000, 88.695, -92.1947
8.380000, 88.798, -93.1804
8.500000, 88.890, -94.0573
8.620000, 88.981, -94.9049
8.750000, 89.078, -95.7960
8.850000, 89.153, -96.4644
9.000000, 89.265, -97.4414
9.120000, 89.354, -98.2091
9.250000, 89.451, -99.0325
9.380000, 89.548, -99.8488
9.500000, 89.637, -100.6004
9.620000, 89.725, -101.3533
9.750000, 89.818, -102.1698
9.880000, 89.903, -102.9861
10.000000, 89.971, -103.7397
10.150000, 90.045, -104.6793
10.300000, 90.110, -105.6097
10.440000, 90.163, -106.4682
10.600000, 90.217, -107.4327
10.750000, 90.265, -108.3166
10.900000, 90.311, -109.1810
11.060000, 90.357, -110.0804
11.200000, 90.396, -110.8489
11.380000, 90.445, -111.8161
11.500000, 90.477, -112.4492
11.720000, 90.533, -113.5906
11.800000, 90.553, -114.0007
12.060000, 90.615, -115.3163
12.200000, 90.646, -116.0136
12.410000, 90.693, -117.0428
12.500000, 90.715, -117.4761
12.650000, 90.755, -118.1871
12.800000, 90.796, -118.8824
13.150000, 90.891, -120.4383
13.200000, 90.904, -120.6534
13.400000, 90.958, -121.4976
13.600000, 91.011, -122.3224
13.800000, 91.065, -123.1343
14.000000, 91.118, -123.9413
14.300000, 91.197, -125.1513
14.500000, 91.246, -125.9592
14.750000, 91.303, -126.9642
15.000000, 91.353, -127.9539
15.250000, 91.397, -128.9157
15.500000, 91.437, -129.8414
15.750000, 91.475, -130.7289
16.000000, 91.513, -131.5815
16.250000, 91.553, -132.4070
16.500000, 91.595, -133.2124
16.750000, 91.636, -134.0025
17.000000, 91.675, -134.7773
17.250000, 91.713, -135.5351
17.500000, 91.750, -136.2740
17.750000, 91.787, -136.9952
18.000000, 91.825, -137.7046
18.250000, 91.863, -138.4110
18.500000, 91.902, -139.1243
18.750000, 91.939, -139.8497
19.000000, 91.972, -140.5869
19.250000, 92.000, -141.3271
19.500000, 92.021, -142.0559
19.750000, 92.036, -142.7579
20.000000, 92.047, -143.4196
20.299999, 92.060, -144.1534
20.600000, 92.074, -144.8284
20.900000, 92.094, -145.4668
21.200001, 92.120, -146.0966
21.400000, 92.139, -146.5231
21.799999, 92.178, -147.4043
22.000000, 92.195, -147.8567
22.400000, 92.224, -148.7652
22.700001, 92.241, -149.4322
23.000000, 92.255, -150.0771
23.299999, 92.269, -150.7008
23.600000, 92.283, -151.3106
24.000000, 92.301, -152.1163
24.299999, 92.314, -152.7195
24.700001, 92.327, -153.5159
25.000000, 92.334, -154.0984
25.400000, 92.342, -154.8457
25.799999, 92.349, -155.5610
26.200001, 92.357, -156.2556
26.500000, 92.363, -156.7693
26.900000, 92.370, -157.4447
27.200001, 92.374, -157.9395
27.600000, 92.379, -158.5776
28.000000, 92.385, -159.1941
28.500000, 92.396, -159.9570
29.000000, 92.407, -160.7364
29.500000, 92.413, -161.5250
30.000000, 92.411, -162.2877
30.400000, 92.407, -162.8633
30.700001, 92.405, -163.2775
31.100000, 92.404, -163.8187
31.500000, 92.404, -164.3591
32.000000, 92.403, -165.0378
32.500000, 92.399, -165.7097
33.000000, 92.393, -166.3658
33.500000, 92.384, -167.0042
34.000000, 92.373, -167.6191
34.500000, 92.361, -168.2000
35.000000, 92.351, -168.7510
35.500000, 92.346, -169.2979
36.000000, 92.342, -169.8640
36.500000, 92.334, -170.4428
37.000000, 92.321, -171.0050
37.500000, 92.306, -171.5331
38.200001, 92.290, -172.2471
38.700001, 92.280, -172.7718
39.500000, 92.253, -173.6139
40.000000, 92.232, -174.0994
40.599998, 92.210, -174.6341
41.200001, 92.195, -175.1619
41.799999, 92.181, -175.7193
42.500000, 92.160, -176.3867
43.099998, 92.137, -176.9349
43.700001, 92.114, -177.4546
44.400002, 92.088, -178.0389
45.000000, 92.065, -178.5176
45.500000, 92.047, -178.8999
46.200001, 92.026, -179.4330
46.799999, 92.006, -179.9037
47.500000, 91.978, 179.5585
48.200001, 91.947, 179.0628
48.700001, 91.927, 178.7213
49.400002, 91.900, 178.2383
50.000000, 91.875, 177.8284
50.799999, 91.843, 177.2960
51.500000, 91.817, 176.8104
52.200001, 91.786, 176.3125
53.000000, 91.744, 175.7968
53.799999, 91.708, 175.3292
54.500000, 91.680, 174.9062
55.200001, 91.649, 174.4840
56.000000, 91.614, 174.0402
57.000000, 91.576, 173.4883
58.000000, 91.532, 172.9221
59.000000, 91.486, 172.4326
60.000000, 91.450, 171.9435
60.799999, 91.419, 171.5077
61.500000, 91.387, 171.1283
62.200001, 91.352, 170.7705
63.000000, 91.313, 170.3863
64.000000, 91.268, 169.9259
65.000000, 91.224, 169.4637
66.000000, 91.177, 169.0179
67.000000, 91.132, 168.6000
68.000000, 91.087, 168.1928
69.000000, 91.040, 167.8073
70.000000, 90.996, 167.4216
71.000000, 90.949, 167.0217
72.000000, 90.899, 166.6367
73.000000, 90.850, 166.2686
74.000000, 90.803, 165.9125
75.000000, 90.757, 165.5612
76.199997, 90.702, 165.1513
77.500000, 90.643, 164.7295
78.800003, 90.582, 164.3250
80.000000, 90.525, 163.9774
81.199997, 90.469, 163.6282
82.500000, 90.408, 163.2477
83.800003, 90.347, 162.8840
85.000000, 90.293, 162.5520
86.199997, 90.237, 162.2385
87.500000, 90.176, 161.9273
88.500000, 90.130, 161.6937
90.000000, 90.059, 161.3671
91.199997, 90.007, 161.1190
92.500000, 89.954, 160.8221
93.800003, 89.898, 160.5201
95.000000, 89.845, 160.2602
96.199997, 89.790, 160.0225
97.500000, 89.728, 159.7793
98.800003, 89.661, 159.5612
100.000000, 89.604, 159.4181
101.500000, 89.548, 159.1888
103.000000, 89.490, 158.8781
104.400002, 89.434, 158.6049
106.000000, 89.368, 158.3299
107.500000, 89.307, 158.1144
109.000000, 89.248, 157.9136
110.599998, 89.185, 157.6924
112.000000, 89.128, 157.4907
113.800003, 89.052, 157.2553
115.000000, 89.003, 157.1252
117.199997, 88.919, 156.9035
118.000000, 88.889, 156.8166
120.599998, 88.789, 156.5624
122.000000, 88.736, 156.4367
124.099998, 88.657, 156.2472
125.000000, 88.624, 156.1706
126.500000, 88.571, 156.0484
128.000000, 88.518, 155.9286
131.500000, 88.394, 155.6734
132.000000, 88.376, 155.6386
134.000000, 88.307, 155.5190
136.000000, 88.244, 155.4189
138.000000, 88.181, 155.3116
140.000000, 88.113, 155.2099
143.000000, 88.010, 155.0885
145.000000, 87.949, 155.0006
147.500000, 87.875, 154.9075
150.000000, 87.799, 154.8448
152.500000, 87.719, 154.7855
155.000000, 87.639, 154.7252
157.500000, 87.563, 154.6927
160.000000, 87.490, 154.6530
162.500000, 87.416, 154.6192
165.000000, 87.340, 154.5951
167.500000, 87.264, 154.5972
170.000000, 87.189, 154.5956
172.500000, 87.116, 154.5819
175.000000, 87.044, 154.5780
177.500000, 86.972, 154.6000
180.000000, 86.901, 154.6295
182.500000, 86.833, 154.6632
185.000000, 86.765, 154.7097
187.500000, 86.698, 154.7719
190.000000, 86.631, 154.8348
192.500000, 86.565, 154.8903
195.000000, 86.500, 154.9546
197.500000, 86.438, 155.0281
200.000000, 86.377, 155.0956
203.000000, 86.306, 155.1790
206.000000, 86.235, 155.2778
209.000000, 86.163, 155.4008
212.000000, 86.095, 155.5244
214.000000, 86.050, 155.5997
218.000000, 85.962, 155.7527
220.000000, 85.918, 155.8365
224.000000, 85.832, 156.0034
227.000000, 85.770, 156.1301
230.000000, 85.708, 156.2807
233.000000, 85.646, 156.4449
236.000000, 85.584, 156.6002
240.000000, 85.506, 156.7887
243.000000, 85.450, 156.9321
247.000000, 85.376, 157.1552
250.000000, 85.324, 157.3232
254.000000, 85.253, 157.5379
258.000000, 85.184, 157.7565
262.000000, 85.116, 157.9827
265.000000, 85.067, 158.1575
269.000000, 85.003, 158.4006
272.000000, 84.955, 158.5958
276.000000, 84.892, 158.8492
280.000000, 84.831, 159.0914
285.000000, 84.757, 159.4019
290.000000, 84.685, 159.7089
295.000000, 84.615, 160.0334
300.000000, 84.546, 160.3630
304.000000, 84.492, 160.6283
307.000000, 84.453, 160.8248
311.000000, 84.401, 161.0843
315.000000, 84.351, 161.3546
320.000000, 84.286, 161.6977
325.000000, 84.223, 162.0494
330.000000, 84.165, 162.4114
335.000000, 84.110, 162.7748
340.000000, 84.053, 163.1333
345.000000, 83.996, 163.4968
350.000000, 83.940, 163.8831
355.000000, 83.885, 164.2778
360.000000, 83.829, 164.6846
365.000000, 83.772, 165.1186
370.000000, 83.720, 165.5730
375.000000, 83.670, 166.0600
382.000000, 83.607, 166.8405
387.000000, 83.577, 167.4614
395.000000, 83.562, 168.4696
400.000000, 83.573, 168.9944
406.000000, 83.597, 169.4413
412.000000, 83.614, 169.7184
418.000000, 83.612, 169.9106
425.000000, 83.586, 170.1415
431.000000, 83.555, 170.3743
437.000000, 83.523, 170.6427
444.000000, 83.486, 170.9867
450.000000, 83.452, 171.2885
455.000000, 83.423, 171.5740
462.000000, 83.385, 172.0089
468.000000, 83.355, 172.3799
475.000000, 83.319, 172.8210
482.000000, 83.285, 173.2747
487.000000, 83.263, 173.6040
494.000000, 83.235, 174.0694
500.000000, 83.212, 174.4795
508.000000, 83.184, 175.0224
515.000000, 83.159, 175.4994
522.000000, 83.138, 175.9705
530.000000, 83.116, 176.4994
538.000000, 83.096, 177.0386
545.000000, 83.079, 177.5187
552.000000, 83.064, 178.0097
560.000000, 83.049, 178.5646
570.000000, 83.031, 179.2498
580.000000, 83.018, 179.9310
590.000000, 83.009, -179.3931
600.000000, 83.001, -178.7135
608.000000, 82.995, -178.1653
615.000000, 82.993, -177.6815
622.000000, 82.993, -177.1955
630.000000, 82.992, -176.6447
640.000000, 82.993, -175.9572
650.000000, 82.995, -175.2647
660.000000, 83.002, -174.5704
670.000000, 83.011, -173.8814
680.000000, 83.023, -173.2019
690.000000, 83.038, -172.5231
700.000000, 83.055, -171.8389
710.000000, 83.075, -171.1475
720.000000, 83.097, -170.4619
730.000000, 83.122, -169.7774
740.000000, 83.150, -169.0918
750.000000, 83.182, -168.4146
762.000000, 83.224, -167.6102
775.000000, 83.274, -166.7365
788.000000, 83.328, -165.8657
800.000000, 83.381, -165.0751
812.000000, 83.435, -164.2973
825.000000, 83.498, -163.4700
838.000000, 83.565, -162.6565
850.000000, 83.631, -161.9202
862.000000, 83.702, -161.2037
875.000000, 83.785, -160.4508
885.000000, 83.852, -159.8872
900.000000, 83.959, -159.0686
912.000000, 84.049, -158.4450
925.000000, 84.151, -157.8071
938.000000, 84.258, -157.2073
950.000000, 84.359, -156.6857
962.000000, 84.464, -156.1920
975.000000, 84.579, -155.6963
988.000000, 84.698, -155.2504
1000.000000, 84.809, -154.8783
1015.000000, 84.950, -154.4653
1030.000000, 85.092, -154.1096
1044.000000, 85.224, -153.8231
1060.000000, 85.372, -153.5428
1075.000000, 85.509, -153.3195
1090.000000, 85.643, -153.1216
1106.000000, 85.785, -152.9303
1120.000000, 85.910, -152.7779
1138.000000, 86.073, -152.6143
1150.000000, 86.184, -152.5320
1172.000000, 86.391, -152.4616
1180.000000, 86.466, -152.4687
1206.000000, 86.704, -152.6096
1220.000000, 86.828, -152.7501
1241.000000, 87.004, -153.0264
1250.000000, 87.076, -153.1648
1265.000000, 87.193, -153.4125
1280.000000, 87.306, -153.6714
1315.000000, 87.548, -154.2713
1320.000000, 87.581, -154.3544
1340.000000, 87.708, -154.6767
1360.000000, 87.832, -154.9819
1380.000000, 87.954, -155.2749
1400.000000, 88.077, -155.5578
1430.000000, 88.262, -155.9944
1450.000000, 88.387, -156.3082
1475.000000, 88.545, -156.7389
1500.000000, 88.704, -157.2151
1525.000000, 88.860, -157.7455
1550.000000, 89.013, -158.3355
1575.000000, 89.164, -158.9864
1600.000000, 89.309, -159.6929
1625.000000, 89.449, -160.4548
1650.000000, 89.582, -161.2679
1675.000000, 89.706, -162.1291
1700.000000, 89.822, -163.0293
1725.000000, 89.928, -163.9617
1750.000000, 90.025, -164.9274
1775.000000, 90.110, -165.9203
1800.000000, 90.186, -166.9261
1825.000000, 90.250, -167.9402
1850.000000, 90.304, -168.9611
1875.000000, 90.347, -169.9807
1900.000000, 90.381, -170.9915
1925.000000, 90.404, -171.9898
1950.000000, 90.417, -172.9694
1975.000000, 90.420, -173.9243
2000.000000, 90.415, -174.8534
2030.000000, 90.399, -175.9246
2060.000000, 90.372, -176.9397
2090.000000, 90.334, -177.8970
2120.000000, 90.288, -178.7947
2140.000000, 90.254, -179.3570
2180.000000, 90.176, 179.6043
2200.000000, 90.134, 179.1306
2240.000000, 90.044, 178.2778
2270.000000, 89.972, 177.7162
2300.000000, 89.898, 177.2178
2330.000000, 89.824, 176.7834
2360.000000, 89.748, 176.4130
2400.000000, 89.649, 176.0140
2430.000000, 89.575, 175.7834
2470.000000, 89.478, 175.5613
2500.000000, 89.408, 175.4543
2540.000000, 89.317, 175.3832
2580.000000, 89.231, 175.3889
2620.000000, 89.152, 175.4659
2650.000000, 89.098, 175.5688
2690.000000, 89.034, 175.7559
2720.000000, 88.991, 175.9289
2760.000000, 88.941, 176.2002
2800.000000, 88.901, 176.5119
2850.000000, 88.863, 176.9466
2900.000000, 88.841, 177.4284
2950.000000, 88.833, 177.9453
3000.000000, 88.842, 178.4852
3040.000000, 88.860, 178.9274
3070.000000, 88.881, 179.2599
3110.000000, 88.918, 179.7003
3150.000000, 88.968, -179.8648
3200.000000, 89.051, -179.3393
3250.000000, 89.153, -178.8454
3300.000000, 89.271, -178.3924
3350.000000, 89.406, -177.9941
3400.000000, 89.557, -177.6653
3450.000000, 89.723, -177.4227
3500.000000, 89.902, -177.2783
3550.000000, 90.096, -177.2501
3600.000000, 90.302, -177.3553
3650.000000, 90.519, -177.6122
3700.000000, 90.745, -178.0408
3750.000000, 90.976, -178.6593
3820.000000, 91.303, -179.8829
3870.000000, 91.533, 178.9673
3950.000000, 91.874, 176.6069
4000.000000, 92.052, 174.7914
4060.000000, 92.211, 172.2756
4120.000000, 92.302, 169.4391
4180.000000, 92.315, 166.3680
4250.000000, 92.220, 162.6509
4310.000000, 92.039, 159.5132
4370.000000, 91.768, 156.5792
4440.000000, 91.350, 153.6052
4500.000000, 90.922, 151.5826
4550.000000, 90.530, 150.3391
4620.000000, 89.954, 149.3420
4680.000000, 89.461, 149.2018
4750.000000, 88.927, 149.8425
4820.000000, 88.480, 151.2200
4870.000000, 88.236, 152.5062
4940.000000, 88.019, 154.4112
5000.000000, 87.944, 155.8007
5080.000000, 87.949, 156.8491
5150.000000, 87.965, 156.8836
5220.000000, 87.921, 156.2840
5300.000000, 87.753, 155.2802
5380.000000, 87.461, 154.4352
5450.000000, 87.131, 154.1143
5520.000000, 86.767, 154.3142
5600.000000, 86.353, 155.1884
5700.000000, 85.898, 156.9516
5800.000000, 85.507, 158.9659
5900.000000, 85.132, 161.2529
6000.000000, 84.787, 164.0273
6080.000000, 84.552, 166.5876
6150.000000, 84.385, 169.0281
6220.000000, 84.259, 171.6146
6300.000000, 84.167, 174.6935
6400.000000, 84.136, 178.6106
6500.000000, 84.199, -177.5636
6600.000000, 84.346, -174.0044
6700.000000, 84.551, -170.8111
6800.000000, 84.791, -167.9716
6900.000000, 85.048, -165.3958
7000.000000, 85.322, -162.9844
7100.000000, 85.620, -160.6851
7200.000000, 85.948, -158.4812
7300.000000, 86.314, -156.3758
7400.000000, 86.728, -154.3999
7500.000000, 87.197, -152.6106
7620.000000, 87.845, -150.8305
7750.000000, 88.658, -149.5703
7880.000000, 89.586, -149.3270
8000.000000, 90.525, -150.3792
8120.000000, 91.499, -153.0780
8250.000000, 92.502, -158.2893
8380.000000, 93.290, -165.9930
8500.000000, 93.666, -174.8365
8620.000000, 93.605, 175.6986
8750.000000, 93.051, 166.1839
8850.000000, 92.356, 160.1403
9000.000000, 91.072, 153.7047
9120.000000, 89.974, 150.7299
9250.000000, 88.816, 149.2937
9380.000000, 87.740, 149.2880
9500.000000, 86.839, 150.2271
9620.000000, 86.030, 151.8338
9750.000000, 85.257, 154.1256
9880.000000, 84.586, 156.8277
10000.000000, 84.051, 159.5806
10150.000000, 83.490, 163.2567
10300.000000, 83.045, 167.0897
10440.000000, 82.736, 170.7011
10600.000000, 82.512, 174.7051
10750.000000, 82.424, 178.1401
10900.000000, 82.440, -178.9640
11060.000000, 82.539, -176.7111
11200.000000, 82.658, -175.5900
11380.000000, 82.780, -175.3493
11500.000000, 82.800, -175.8351
11720.000000, 82.633, -177.4499
11800.000000, 82.503, -178.0501
12060.000000, 81.903, -179.3159
12200.000000, 81.510, -179.4601
12410.000000, 80.885, -178.8768
12500.000000, 80.624, -178.3169
12650.000000, 80.225, -177.0081
12800.000000, 79.891, -175.3354
13150.000000, 79.433, -171.0802
13200.000000, 79.406, -170.5525
13400.000000, 79.387, -168.9826
13600.000000, 79.460, -168.7421
13800.000000, 79.514, -170.2440
14000.000000, 79.406, -173.3914
14300.000000, 78.692, -179.6806
14500.000000, 77.798, 176.5815
14750.000000, 76.327, 174.0066
15000.000000, 74.688, 174.4200
15250.000000, 73.103, 177.5322
15500.000000, 71.693, -177.4218
15750.000000, 70.518, -171.0462
16000.000000, 69.641, -163.9395
16250.000000, 69.111, -156.7560
16500.000000, 68.908, -150.2132
