* Measurement data measured by REW V5.31.1
* Source: CUBILUX HLMS-C5 MIC IN, MICROPHONE, R, volume: 1.000
* Format: 4M Log Swept Sine, 1 sweep at -30.0 dBFS with no timing reference
* Dated: Sep 16, 2024 1:36:12 PM
* REW Settings:
*  C-weighting compensation: Off
*  Target level: 75.0 dB
* Note: ; 
* Measurement: Thieaudio Prestige LTD R
* Smoothing: 1/24 octave
* Frequency Step: 1/48 octave
* Start Frequency: 1.000 Hz
*
* Freq(Hz), SPL(dB), Phase(degrees)
1.000000, 55.070, -103.9137
1.015000, 55.243, -105.9075
1.030000, 55.417, -107.8697
1.044000, 55.582, -109.6749
1.060000, 55.771, -111.7100
1.075000, 55.950, -113.5939
1.090000, 56.129, -115.4576
1.106000, 56.323, -117.4250
1.120000, 56.497, -119.1267
1.138000, 56.729, -121.2813
1.150000, 56.888, -122.6938
1.172000, 57.189, -125.2280
1.180000, 57.301, -126.1306
1.206000, 57.673, -128.9912
1.220000, 57.878, -130.4842
1.241000, 58.189, -132.6611
1.250000, 58.324, -133.5712
1.265000, 58.550, -135.0582
1.280000, 58.778, -136.5087
1.315000, 59.311, -139.7582
1.320000, 59.387, -140.2077
1.340000, 59.690, -141.9717
1.360000, 59.990, -143.6840
1.380000, 60.287, -145.3489
1.400000, 60.578, -146.9707
1.430000, 61.003, -149.3322
1.450000, 61.276, -150.8652
1.475000, 61.607, -152.7410
1.500000, 61.931, -154.5717
1.525000, 62.252, -156.3548
1.550000, 62.568, -158.0895
1.575000, 62.881, -159.7764
1.600000, 63.190, -161.4170
1.625000, 63.494, -163.0141
1.650000, 63.794, -164.5707
1.675000, 64.088, -166.0904
1.700000, 64.378, -167.5772
1.725000, 64.663, -169.0352
1.750000, 64.943, -170.4688
1.775000, 65.217, -171.8821
1.800000, 65.485, -173.2798
1.825000, 65.747, -174.6667
1.850000, 66.003, -176.0495
1.875000, 66.253, -177.4309
1.900000, 66.497, -178.8075
1.925000, 66.736, 179.8257
1.950000, 66.969, 178.4730
1.975000, 67.197, 177.1378
2.000000, 67.420, 175.8224
2.030000, 67.681, 174.2727
2.060000, 67.936, 172.7562
2.090000, 68.184, 171.2733
2.120000, 68.426, 169.8240
2.140000, 68.584, 168.8758
2.180000, 68.894, 167.0188
2.200000, 69.044, 166.1050
2.240000, 69.338, 164.2828
2.270000, 69.550, 162.9146
2.300000, 69.755, 161.5502
2.330000, 69.954, 160.1956
2.360000, 70.147, 158.8560
2.400000, 70.395, 157.1007
2.430000, 70.575, 155.8123
2.470000, 70.807, 154.1367
2.500000, 70.976, 152.9144
2.540000, 71.195, 151.3315
2.580000, 71.407, 149.7896
2.620000, 71.609, 148.2574
2.650000, 71.754, 147.1087
2.690000, 71.940, 145.5840
2.720000, 72.073, 144.4514
2.760000, 72.245, 142.9637
2.800000, 72.409, 141.5098
2.850000, 72.606, 139.7523
2.900000, 72.794, 138.0724
2.950000, 72.973, 136.4634
3.000000, 73.141, 134.8857
3.040000, 73.268, 133.6365
3.070000, 73.359, 132.7101
3.110000, 73.474, 131.4940
3.150000, 73.585, 130.3055
3.200000, 73.718, 128.8687
3.250000, 73.845, 127.4973
3.300000, 73.968, 126.1965
3.350000, 74.085, 124.9509
3.400000, 74.195, 123.7428
3.450000, 74.298, 122.5699
3.500000, 74.396, 121.4348
3.550000, 74.490, 120.3409
3.600000, 74.584, 119.2927
3.650000, 74.676, 118.2944
3.700000, 74.767, 117.3467
3.750000, 74.856, 116.4445
3.820000, 74.976, 115.2454
3.870000, 75.060, 114.4271
3.950000, 75.194, 113.1720
4.000000, 75.280, 112.4171
4.060000, 75.385, 111.5441
4.120000, 75.492, 110.7151
4.180000, 75.600, 109.9239
4.250000, 75.728, 109.0298
4.310000, 75.839, 108.2725
4.370000, 75.951, 107.5119
4.440000, 76.085, 106.6215
4.500000, 76.202, 105.8670
4.550000, 76.301, 105.2432
4.620000, 76.441, 104.3681
4.680000, 76.560, 103.6068
4.750000, 76.697, 102.6948
4.820000, 76.833, 101.7553
4.870000, 76.930, 101.0719
4.940000, 77.065, 100.1017
5.000000, 77.177, 99.2591
5.080000, 77.323, 98.1198
5.150000, 77.443, 97.1040
5.220000, 77.559, 96.0640
5.300000, 77.685, 94.8524
5.380000, 77.804, 93.6336
5.450000, 77.901, 92.5734
5.520000, 77.991, 91.5197
5.600000, 78.086, 90.3102
5.700000, 78.192, 88.7974
5.800000, 78.286, 87.3186
5.900000, 78.369, 85.8967
6.000000, 78.440, 84.5145
6.080000, 78.489, 83.4380
6.150000, 78.529, 82.5274
6.220000, 78.565, 81.6536
6.300000, 78.604, 80.6998
6.400000, 78.647, 79.5646
6.500000, 78.687, 78.4877
6.600000, 78.727, 77.4709
6.700000, 78.769, 76.5184
6.800000, 78.811, 75.6214
6.900000, 78.856, 74.7611
7.000000, 78.906, 73.9278
7.100000, 78.959, 73.1252
7.200000, 79.016, 72.3435
7.300000, 79.076, 71.5639
7.400000, 79.139, 70.7787
7.500000, 79.205, 69.9914
7.620000, 79.284, 69.0387
7.750000, 79.368, 67.9843
7.880000, 79.451, 66.9064
8.000000, 79.522, 65.9035
8.120000, 79.588, 64.8986
8.250000, 79.652, 63.8066
8.380000, 79.709, 62.7325
8.500000, 79.755, 61.7708
8.620000, 79.794, 60.8365
8.750000, 79.832, 59.8687
8.850000, 79.858, 59.1641
9.000000, 79.893, 58.1703
9.120000, 79.920, 57.4283
9.250000, 79.951, 56.6807
9.380000, 79.983, 55.9868
9.500000, 80.017, 55.3818
9.620000, 80.055, 54.8057
9.750000, 80.100, 54.2093
9.880000, 80.144, 53.6243
10.000000, 80.181, 53.0866
10.150000, 80.225, 52.4126
10.300000, 80.266, 51.7207
10.440000, 80.302, 51.0540
10.600000, 80.342, 50.2675
10.750000, 80.376, 49.5042
10.900000, 80.407, 48.7216
11.060000, 80.434, 47.8759
11.200000, 80.452, 47.1310
11.380000, 80.466, 46.1853
11.500000, 80.470, 45.5685
11.720000, 80.467, 44.4829
11.800000, 80.464, 44.1079
12.060000, 80.443, 42.9693
12.200000, 80.429, 42.4134
12.410000, 80.411, 41.6514
12.500000, 80.407, 41.3489
12.650000, 80.408, 40.8738
12.800000, 80.415, 40.4245
13.150000, 80.449, 39.4254
13.200000, 80.455, 39.2823
13.400000, 80.483, 38.6981
13.600000, 80.512, 38.0844
13.800000, 80.539, 37.4354
14.000000, 80.561, 36.7599
14.300000, 80.576, 35.7310
14.500000, 80.575, 35.0700
14.750000, 80.563, 34.3140
15.000000, 80.545, 33.6632
15.250000, 80.531, 33.1234
15.500000, 80.530, 32.6621
15.750000, 80.546, 32.2254
16.000000, 80.580, 31.7463
16.250000, 80.627, 31.1715
16.500000, 80.674, 30.4798
16.750000, 80.711, 29.6851
17.000000, 80.729, 28.8391
17.250000, 80.725, 28.0090
17.500000, 80.703, 27.2651
17.750000, 80.671, 26.6586
18.000000, 80.642, 26.2037
18.250000, 80.627, 25.8765
18.500000, 80.635, 25.6139
18.750000, 80.667, 25.3370
19.000000, 80.719, 24.9723
19.250000, 80.779, 24.4705
19.500000, 80.836, 23.8251
19.750000, 80.880, 23.0630
20.000000, 80.903, 22.2400
20.299999, 80.902, 21.2661
20.600000, 80.875, 20.4043
20.900000, 80.835, 19.7185
21.200001, 80.798, 19.2145
21.400000, 80.782, 18.9558
21.799999, 80.777, 18.5203
22.000000, 80.787, 18.2959
22.400000, 80.820, 17.7574
22.700001, 80.846, 17.2648
23.000000, 80.866, 16.7214
23.299999, 80.877, 16.1638
23.600000, 80.881, 15.6221
24.000000, 80.880, 14.9487
24.299999, 80.879, 14.4786
24.700001, 80.880, 13.8834
25.000000, 80.882, 13.4503
25.400000, 80.887, 12.8760
25.799999, 80.893, 12.2865
26.200001, 80.897, 11.6712
26.500000, 80.894, 11.2062
26.900000, 80.880, 10.6316
27.200001, 80.866, 10.2721
27.600000, 80.857, 9.8972
28.000000, 80.874, 9.5571
28.500000, 80.927, 8.9443
29.000000, 80.968, 7.9871
29.500000, 80.945, 6.9158
30.000000, 80.869, 6.1504
30.400000, 80.816, 5.8652
30.700001, 80.801, 5.7501
31.100000, 80.816, 5.5322
31.500000, 80.842, 5.1055
32.000000, 80.838, 4.3809
32.500000, 80.785, 3.8091
33.000000, 80.736, 3.6011
33.500000, 80.739, 3.5398
34.000000, 80.780, 3.2848
34.500000, 80.811, 2.7838
35.000000, 80.810, 2.2543
35.500000, 80.802, 1.8464
36.000000, 80.809, 1.4802
36.500000, 80.824, 1.0121
37.000000, 80.821, 0.4591
37.500000, 80.796, -0.0217
38.200001, 80.770, -0.4503
38.700001, 80.782, -0.7676
39.500000, 80.799, -1.6391
40.000000, 80.769, -2.2581
40.599998, 80.708, -2.7705
41.200001, 80.669, -3.0508
41.799999, 80.663, -3.3965
42.500000, 80.643, -3.9999
43.099998, 80.601, -4.4250
43.700001, 80.575, -4.6827
44.400002, 80.583, -5.0919
45.000000, 80.582, -5.6609
45.500000, 80.557, -6.1432
46.200001, 80.512, -6.6438
46.799999, 80.489, -6.9978
47.500000, 80.466, -7.4459
48.200001, 80.440, -7.8419
48.700001, 80.432, -8.0931
49.400002, 80.434, -8.5455
50.000000, 80.425, -9.0542
50.799999, 80.382, -9.6602
51.500000, 80.351, -10.0237
52.200001, 80.341, -10.4261
53.000000, 80.321, -11.0478
53.799999, 80.275, -11.5970
54.500000, 80.244, -11.9380
55.200001, 80.230, -12.3127
56.000000, 80.206, -12.8105
57.000000, 80.169, -13.2657
58.000000, 80.168, -13.7126
59.000000, 80.156, -14.4008
60.000000, 80.110, -15.0154
60.799999, 80.073, -15.4110
61.500000, 80.043, -15.7664
62.200001, 80.009, -16.1014
63.000000, 79.976, -16.4157
64.000000, 79.961, -16.8972
65.000000, 79.931, -17.6218
66.000000, 79.859, -18.2394
67.000000, 79.795, -18.6075
68.000000, 79.752, -18.9667
69.000000, 79.712, -19.3683
70.000000, 79.675, -19.8046
71.000000, 79.638, -20.2792
72.000000, 79.612, -20.7635
73.000000, 79.593, -21.4615
74.000000, 79.530, -22.2277
75.000000, 79.447, -22.6323
76.199997, 79.392, -22.8932
77.500000, 79.344, -23.2490
78.800003, 79.295, -23.5353
80.000000, 79.263, -23.9316
81.199997, 79.211, -24.4882
82.500000, 79.148, -25.0621
83.800003, 79.084, -25.6807
85.000000, 79.023, -26.0774
86.199997, 78.990, -26.4482
87.500000, 78.934, -26.9545
88.500000, 78.875, -27.2501
90.000000, 78.788, -27.6037
91.199997, 78.731, -27.9631
92.500000, 78.668, -28.4469
93.800003, 78.613, -28.8772
95.000000, 78.572, -29.2618
96.199997, 78.515, -29.5775
97.500000, 78.437, -29.6740
98.800003, 78.378, -29.5185
100.000000, 78.359, -29.6859
101.500000, 78.270, -30.4763
103.000000, 78.149, -31.1469
104.400002, 78.051, -31.7695
106.000000, 77.961, -32.3336
107.500000, 77.890, -32.6522
109.000000, 77.842, -32.8429
110.599998, 77.786, -33.2344
112.000000, 77.713, -33.6736
113.800003, 77.605, -34.2020
115.000000, 77.538, -34.5249
117.199997, 77.433, -34.9382
118.000000, 77.402, -35.0699
120.599998, 77.307, -35.4191
122.000000, 77.258, -35.6382
124.099998, 77.173, -35.9412
125.000000, 77.133, -36.0674
126.500000, 77.057, -36.2870
128.000000, 76.971, -36.5156
131.500000, 76.770, -37.2347
132.000000, 76.744, -37.3063
134.000000, 76.673, -37.5463
136.000000, 76.606, -37.8763
138.000000, 76.518, -38.0510
140.000000, 76.434, -38.1208
143.000000, 76.323, -38.4365
145.000000, 76.228, -38.6337
147.500000, 76.094, -38.8998
150.000000, 75.959, -39.1777
152.500000, 75.852, -39.4401
155.000000, 75.760, -39.5651
157.500000, 75.659, -39.5715
160.000000, 75.553, -39.5343
162.500000, 75.441, -39.7183
165.000000, 75.319, -39.9085
167.500000, 75.195, -39.9973
170.000000, 75.089, -40.0089
172.500000, 74.986, -40.0688
175.000000, 74.880, -40.1303
177.500000, 74.764, -40.2345
180.000000, 74.643, -40.2480
182.500000, 74.544, -40.1926
185.000000, 74.455, -40.2823
187.500000, 74.340, -40.3688
190.000000, 74.222, -40.2175
192.500000, 74.129, -40.0416
195.000000, 74.043, -39.9869
197.500000, 73.946, -39.8608
200.000000, 73.845, -39.6447
203.000000, 73.726, -39.5325
206.000000, 73.617, -39.4948
209.000000, 73.520, -39.2256
212.000000, 73.421, -38.7288
214.000000, 73.347, -38.4352
218.000000, 73.209, -37.8364
220.000000, 73.156, -37.5446
224.000000, 73.081, -37.0540
227.000000, 73.049, -36.8146
230.000000, 73.011, -36.5624
233.000000, 72.959, -36.2615
236.000000, 72.915, -36.0620
240.000000, 72.852, -36.0107
243.000000, 72.777, -35.9017
247.000000, 72.686, -35.6772
250.000000, 72.627, -35.5234
254.000000, 72.527, -35.2634
258.000000, 72.427, -35.0037
262.000000, 72.352, -34.6776
265.000000, 72.296, -34.4000
269.000000, 72.222, -34.1382
272.000000, 72.178, -33.9332
276.000000, 72.119, -33.5895
280.000000, 72.052, -33.2273
285.000000, 71.976, -32.7825
290.000000, 71.910, -32.3469
295.000000, 71.844, -31.9216
300.000000, 71.790, -31.4870
304.000000, 71.760, -31.1876
307.000000, 71.739, -30.9656
311.000000, 71.697, -30.6722
315.000000, 71.645, -30.3880
320.000000, 71.601, -29.9681
325.000000, 71.581, -29.5925
330.000000, 71.547, -29.2388
335.000000, 71.510, -28.9701
340.000000, 71.485, -28.6570
345.000000, 71.466, -28.2994
350.000000, 71.444, -27.9527
355.000000, 71.422, -27.7142
360.000000, 71.397, -27.4689
365.000000, 71.370, -27.0947
370.000000, 71.353, -26.7933
375.000000, 71.343, -26.5589
382.000000, 71.321, -26.2700
387.000000, 71.307, -26.0048
395.000000, 71.291, -25.5773
400.000000, 71.278, -25.3304
406.000000, 71.260, -25.1162
412.000000, 71.252, -24.8950
418.000000, 71.243, -24.6641
425.000000, 71.233, -24.4132
431.000000, 71.226, -24.1820
437.000000, 71.218, -23.9298
444.000000, 71.211, -23.7215
450.000000, 71.210, -23.5305
455.000000, 71.207, -23.3691
462.000000, 71.200, -23.1821
468.000000, 71.194, -23.0061
475.000000, 71.187, -22.8282
482.000000, 71.184, -22.6647
487.000000, 71.181, -22.5403
494.000000, 71.175, -22.3668
500.000000, 71.174, -22.2084
508.000000, 71.174, -22.0331
515.000000, 71.173, -21.8746
522.000000, 71.171, -21.7116
530.000000, 71.167, -21.5319
538.000000, 71.166, -21.3785
545.000000, 71.164, -21.2517
552.000000, 71.162, -21.1290
560.000000, 71.162, -20.9914
570.000000, 71.163, -20.8280
580.000000, 71.165, -20.6300
590.000000, 71.166, -20.4293
600.000000, 71.168, -20.2539
608.000000, 71.170, -20.1182
615.000000, 71.172, -19.9955
622.000000, 71.176, -19.8792
630.000000, 71.178, -19.7501
640.000000, 71.181, -19.5660
650.000000, 71.188, -19.3660
660.000000, 71.196, -19.1839
670.000000, 71.207, -19.0095
680.000000, 71.216, -18.8477
690.000000, 71.222, -18.6856
700.000000, 71.224, -18.4874
710.000000, 71.226, -18.2675
720.000000, 71.229, -18.0322
730.000000, 71.236, -17.7474
740.000000, 71.248, -17.4373
750.000000, 71.263, -17.1162
762.000000, 71.285, -16.6984
775.000000, 71.313, -16.2207
788.000000, 71.351, -15.6987
800.000000, 71.397, -15.1840
812.000000, 71.451, -14.6570
825.000000, 71.520, -14.0662
838.000000, 71.610, -13.4810
850.000000, 71.713, -12.9741
862.000000, 71.832, -12.5433
875.000000, 71.981, -12.2407
885.000000, 72.100, -12.1353
900.000000, 72.276, -12.1819
912.000000, 72.411, -12.3674
925.000000, 72.543, -12.6490
938.000000, 72.656, -12.9946
950.000000, 72.748, -13.3304
962.000000, 72.830, -13.6593
975.000000, 72.912, -13.9943
988.000000, 72.992, -14.2970
1000.000000, 73.067, -14.5624
1015.000000, 73.162, -14.8934
1030.000000, 73.259, -15.2249
1044.000000, 73.350, -15.5403
1060.000000, 73.455, -15.9176
1075.000000, 73.553, -16.2926
1090.000000, 73.650, -16.6875
1106.000000, 73.752, -17.1371
1120.000000, 73.842, -17.5561
1138.000000, 73.954, -18.1235
1150.000000, 74.027, -18.5192
1172.000000, 74.158, -19.2770
1180.000000, 74.205, -19.5605
1206.000000, 74.356, -20.5055
1220.000000, 74.433, -21.0259
1241.000000, 74.547, -21.8204
1250.000000, 74.595, -22.1647
1265.000000, 74.675, -22.7391
1280.000000, 74.754, -23.3192
1315.000000, 74.932, -24.6693
1320.000000, 74.957, -24.8617
1340.000000, 75.057, -25.6277
1360.000000, 75.154, -26.3894
1380.000000, 75.247, -27.1462
1400.000000, 75.339, -27.8955
1430.000000, 75.475, -29.0027
1450.000000, 75.566, -29.7367
1475.000000, 75.680, -30.6449
1500.000000, 75.794, -31.5450
1525.000000, 75.909, -32.4393
1550.000000, 76.023, -33.3296
1575.000000, 76.138, -34.2200
1600.000000, 76.255, -35.1107
1625.000000, 76.376, -36.0044
1650.000000, 76.499, -36.9025
1675.000000, 76.623, -37.8079
1700.000000, 76.752, -38.7251
1725.000000, 76.882, -39.6508
1750.000000, 77.012, -40.5894
1775.000000, 77.145, -41.5472
1800.000000, 77.278, -42.5209
1825.000000, 77.414, -43.5145
1850.000000, 77.554, -44.5305
1875.000000, 77.694, -45.5697
1900.000000, 77.833, -46.6333
1925.000000, 77.972, -47.7215
1950.000000, 78.112, -48.8324
1975.000000, 78.254, -49.9688
2000.000000, 78.399, -51.1364
2030.000000, 78.572, -52.5787
2060.000000, 78.745, -54.0703
2090.000000, 78.917, -55.6095
2120.000000, 79.089, -57.1982
2140.000000, 79.202, -58.2829
2180.000000, 79.425, -60.5178
2200.000000, 79.534, -61.6672
2240.000000, 79.748, -64.0276
2270.000000, 79.903, -65.8492
2300.000000, 80.053, -67.7125
2330.000000, 80.197, -69.6165
2360.000000, 80.338, -71.5581
2400.000000, 80.515, -74.1997
2430.000000, 80.640, -76.2172
2470.000000, 80.795, -78.9526
2500.000000, 80.903, -81.0358
2540.000000, 81.032, -83.8478
2580.000000, 81.145, -86.6871
2620.000000, 81.244, -89.5481
2650.000000, 81.310, -91.7036
2690.000000, 81.386, -94.5812
2720.000000, 81.435, -96.7385
2760.000000, 81.489, -99.6079
2800.000000, 81.530, -102.4640
2850.000000, 81.566, -106.0106
2900.000000, 81.582, -109.5261
2950.000000, 81.581, -113.0059
3000.000000, 81.562, -116.4388
3040.000000, 81.536, -119.1367
3070.000000, 81.511, -121.1206
3110.000000, 81.473, -123.7015
3150.000000, 81.435, -126.2095
3200.000000, 81.397, -129.2742
3250.000000, 81.368, -132.3116
3300.000000, 81.346, -135.3651
3350.000000, 81.329, -138.4684
3400.000000, 81.315, -141.6595
3450.000000, 81.302, -144.9912
3500.000000, 81.281, -148.5226
3550.000000, 81.237, -152.3036
3600.000000, 81.152, -156.3428
3650.000000, 81.007, -160.5805
3700.000000, 80.782, -164.8985
3750.000000, 80.470, -169.1460
3820.000000, 79.881, -174.6826
3870.000000, 79.355, -178.1136
3950.000000, 78.357, 177.8997
4000.000000, 77.677, 176.6859
4060.000000, 76.887, 176.6918
4120.000000, 76.231, 178.0817
4180.000000, 75.786, -179.7088
4250.000000, 75.547, -177.0020
4310.000000, 75.540, -175.1516
4370.000000, 75.654, -173.9929
4440.000000, 75.873, -173.5593
4500.000000, 76.090, -173.8968
4550.000000, 76.274, -174.6063
4620.000000, 76.522, -176.1376
4680.000000, 76.716, -177.8488
4750.000000, 76.912, 179.8024
4820.000000, 77.071, 177.1802
4870.000000, 77.162, 175.1925
4940.000000, 77.265, 172.3093
5000.000000, 77.335, 169.7875
5080.000000, 77.413, 166.3954
5150.000000, 77.470, 163.4178
5220.000000, 77.521, 160.4249
5300.000000, 77.577, 156.9553
5380.000000, 77.631, 153.3814
5450.000000, 77.677, 150.1236
5520.000000, 77.715, 146.7136
5600.000000, 77.740, 142.6226
5700.000000, 77.727, 137.2404
5800.000000, 77.649, 131.6672
5900.000000, 77.500, 126.0627
6000.000000, 77.286, 120.5595
6080.000000, 77.071, 116.3077
6150.000000, 76.856, 112.7433
6220.000000, 76.623, 109.3516
6300.000000, 76.340, 105.7083
6400.000000, 75.972, 101.5087
6500.000000, 75.609, 97.6933
6600.000000, 75.266, 94.2254
6700.000000, 74.952, 91.0547
6800.000000, 74.668, 88.1830
6900.000000, 74.427, 85.7994
7000.000000, 74.325, 83.8731
7100.000000, 74.377, 81.3173
7200.000000, 74.425, 78.0745
7300.000000, 74.469, 74.9263
7400.000000, 74.582, 71.8842
7500.000000, 74.780, 68.5905
7620.000000, 75.103, 64.0836
7750.000000, 75.535, 58.3801
7880.000000, 76.027, 51.5978
8000.000000, 76.466, 44.1917
8120.000000, 76.807, 35.9200
8250.000000, 77.101, 26.5467
8380.000000, 77.329, 16.2762
8500.000000, 77.361, 6.1547
8620.000000, 77.198, -3.8435
8750.000000, 76.850, -13.9501
8850.000000, 76.508, -21.0332
9000.000000, 75.956, -30.5182
9120.000000, 75.524, -37.2521
9250.000000, 75.090, -43.8711
9380.000000, 74.704, -49.9686
9500.000000, 74.396, -55.2930
9620.000000, 74.132, -60.4719
9750.000000, 73.880, -66.0641
9880.000000, 73.640, -71.7336
10000.000000, 73.404, -77.0568
10150.000000, 73.052, -83.7552
10300.000000, 72.605, -90.2673
10440.000000, 72.094, -95.8214
10600.000000, 71.438, -101.1737
10750.000000, 70.812, -105.1572
10900.000000, 70.214, -108.2508
11060.000000, 69.627, -110.6796
11200.000000, 69.178, -112.1620
11380.000000, 68.712, -113.3814
11500.000000, 68.479, -113.9010
11720.000000, 68.226, -114.6399
11800.000000, 68.186, -114.9565
12060.000000, 68.198, -116.6726
12200.000000, 68.246, -118.1928
12410.000000, 68.288, -121.1981
12500.000000, 68.280, -122.6466
12650.000000, 68.223, -125.0645
12800.000000, 68.111, -127.2634
13150.000000, 67.754, -130.5969
13200.000000, 67.708, -130.8434
13400.000000, 67.577, -131.3337
13600.000000, 67.562, -131.2314
13800.000000, 67.698, -130.8663
14000.000000, 67.999, -130.6052
14300.000000, 68.770, -131.3140
14500.000000, 69.467, -133.3235
14750.000000, 70.407, -138.5923
15000.000000, 71.150, -147.3633
15250.000000, 71.382, -158.5042
15500.000000, 70.999, -169.5001
15750.000000, 70.162, -178.2437
16000.000000, 69.148, 176.0396
16250.000000, 68.206, 172.9009
16500.000000, 67.395, 171.4216
16750.000000, 66.680, 171.5765
17000.000000, 66.214, 174.2941
17250.000000, 66.359, 178.1265
17500.000000, 67.042, 178.5587
17750.000000, 67.734, 174.2712
18000.000000, 68.113, 166.9099
18250.000000, 68.059, 157.8940
18500.000000, 67.505, 148.5254
18750.000000, 66.462, 140.2617
19000.000000, 65.022, 134.3318
