* Measurement data measured by REW V5.31.3
* Source: Headset (USB-C to 3.5mm Headphone Jack Adapter), MICROPHONE (Master Volume), R, volume: 0.700
* Format: 256k Log Swept Sine, 1 sweep at -12.0 dBFS with no timing reference
* Dated: Oct 15, 2024 6:05:08 AM
* REW Settings:
*  C-weighting compensation: Off
*  Target level: 75.0 dB
* Note: ; 
* Measurement: FATfreq x HBB Deuce L
* Smoothing: 1/24 octave
* Frequency Step: 1/48 octave
* Start Frequency: 1.000 Hz
*
* Freq(Hz), SPL(dB), Phase(degrees)
1.000000, 76.935, 28.3597
1.015000, 77.227, 27.6457
1.030000, 77.517, 26.9228
1.044000, 77.784, 26.2385
1.060000, 78.087, 25.4440
1.075000, 78.369, 24.6861
1.090000, 78.648, 23.9157
1.106000, 78.942, 23.0875
1.120000, 79.197, 22.3708
1.138000, 79.518, 21.4696
1.150000, 79.729, 20.8816
1.172000, 80.110, 19.8283
1.180000, 80.246, 19.4527
1.206000, 80.681, 18.2560
1.220000, 80.910, 17.6254
1.241000, 81.249, 16.6949
1.250000, 81.392, 16.3011
1.265000, 81.629, 15.6506
1.280000, 81.862, 15.0062
1.315000, 82.395, 13.5212
1.320000, 82.469, 13.3106
1.340000, 82.766, 12.4707
1.360000, 83.059, 11.6330
1.380000, 83.347, 10.7956
1.400000, 83.632, 9.9563
1.430000, 84.053, 8.6901
1.450000, 84.330, 7.8392
1.475000, 84.671, 6.7725
1.500000, 85.006, 5.7195
1.525000, 85.333, 4.6874
1.550000, 85.652, 3.6746
1.575000, 85.964, 2.6784
1.600000, 86.269, 1.6957
1.625000, 86.568, 0.7237
1.650000, 86.860, -0.2407
1.675000, 87.147, -1.2004
1.700000, 87.429, -2.1583
1.725000, 87.705, -3.1172
1.750000, 87.977, -4.0798
1.775000, 88.245, -5.0487
1.800000, 88.509, -6.0265
1.825000, 88.768, -7.0149
1.850000, 89.024, -8.0124
1.875000, 89.274, -9.0142
1.900000, 89.518, -10.0161
1.925000, 89.757, -11.0154
1.950000, 89.991, -12.0099
1.975000, 90.220, -12.9982
2.000000, 90.444, -13.9792
2.030000, 90.707, -15.1461
2.060000, 90.965, -16.3014
2.090000, 91.216, -17.4453
2.120000, 91.463, -18.5788
2.140000, 91.624, -19.3293
2.180000, 91.941, -20.8206
2.200000, 92.097, -21.5639
2.240000, 92.400, -23.0547
2.270000, 92.621, -24.1770
2.300000, 92.836, -25.2989
2.330000, 93.045, -26.4165
2.360000, 93.249, -27.5266
2.400000, 93.513, -28.9909
2.430000, 93.706, -30.0747
2.470000, 93.956, -31.4981
2.500000, 94.139, -32.5484
2.540000, 94.378, -33.9262
2.580000, 94.610, -35.2861
2.620000, 94.834, -36.6456
2.650000, 94.996, -37.6672
2.690000, 95.206, -39.0265
2.720000, 95.358, -40.0398
2.760000, 95.556, -41.3772
2.800000, 95.747, -42.6938
2.850000, 95.977, -44.3028
2.900000, 96.200, -45.8653
2.950000, 96.415, -47.3879
3.000000, 96.621, -48.8977
3.040000, 96.778, -50.1009
3.070000, 96.893, -50.9977
3.110000, 97.040, -52.1818
3.150000, 97.183, -53.3479
3.200000, 97.356, -54.7731
3.250000, 97.523, -56.1550
3.300000, 97.685, -57.4919
3.350000, 97.840, -58.7988
3.400000, 97.989, -60.0890
3.450000, 98.130, -61.3608
3.500000, 98.267, -62.6091
3.550000, 98.399, -63.8285
3.600000, 98.527, -65.0139
3.650000, 98.652, -66.1618
3.700000, 98.773, -67.2765
3.750000, 98.891, -68.3673
3.820000, 99.048, -69.8594
3.870000, 99.156, -70.8991
3.950000, 99.324, -72.5134
4.000000, 99.427, -73.4893
4.060000, 99.549, -74.6266
4.120000, 99.667, -75.7319
4.180000, 99.782, -76.8096
4.250000, 99.913, -78.0359
4.310000, 100.023, -79.0627
4.370000, 100.132, -80.0685
4.440000, 100.258, -81.2163
4.500000, 100.364, -82.1785
4.550000, 100.451, -82.9666
4.620000, 100.571, -84.0521
4.680000, 100.672, -84.9687
4.750000, 100.788, -86.0248
4.820000, 100.903, -87.0684
4.870000, 100.983, -87.8060
4.940000, 101.095, -88.8279
5.000000, 101.188, -89.6943
5.080000, 101.309, -90.8372
5.150000, 101.413, -91.8277
5.220000, 101.514, -92.8122
5.300000, 101.626, -93.9289
5.380000, 101.734, -95.0331
5.450000, 101.825, -95.9864
5.520000, 101.914, -96.9281
5.600000, 102.011, -97.9949
5.700000, 102.127, -99.3127
5.800000, 102.237, -100.6036
5.900000, 102.342, -101.8620
6.000000, 102.441, -103.0949
6.080000, 102.516, -104.0627
6.150000, 102.580, -104.8931
6.220000, 102.642, -105.7059
6.300000, 102.711, -106.6146
6.400000, 102.793, -107.7240
6.500000, 102.872, -108.8047
6.600000, 102.949, -109.8554
6.700000, 103.024, -110.8767
6.800000, 103.097, -111.8719
6.900000, 103.168, -112.8446
7.000000, 103.239, -113.7971
7.100000, 103.309, -114.7297
7.200000, 103.377, -115.6450
7.300000, 103.445, -116.5469
7.400000, 103.512, -117.4374
7.500000, 103.577, -118.3167
7.620000, 103.654, -119.3587
7.750000, 103.735, -120.4745
7.880000, 103.813, -121.5782
8.000000, 103.883, -122.5848
8.120000, 103.950, -123.5796
8.250000, 104.019, -124.6451
8.380000, 104.084, -125.6951
8.500000, 104.142, -126.6490
8.620000, 104.196, -127.5891
8.750000, 104.252, -128.5898
8.850000, 104.293, -129.3459
9.000000, 104.351, -130.4591
9.120000, 104.395, -131.3306
9.250000, 104.440, -132.2550
9.380000, 104.483, -133.1597
9.500000, 104.521, -133.9772
9.620000, 104.557, -134.7778
9.750000, 104.594, -135.6268
9.880000, 104.630, -136.4569
10.000000, 104.662, -137.2068
10.150000, 104.700, -138.1231
10.300000, 104.737, -139.0173
10.440000, 104.771, -139.8328
10.600000, 104.808, -140.7449
10.750000, 104.842, -141.5827
10.900000, 104.876, -142.4057
11.060000, 104.911, -143.2709
11.200000, 104.942, -144.0185
11.380000, 104.980, -144.9696
11.500000, 105.004, -145.5985
11.720000, 105.046, -146.7410
11.800000, 105.060, -147.1532
12.060000, 105.103, -148.4785
12.200000, 105.124, -149.1806
12.410000, 105.151, -150.2153
12.500000, 105.161, -150.6504
12.650000, 105.177, -151.3638
12.800000, 105.191, -152.0612
13.150000, 105.220, -153.6227
13.200000, 105.224, -153.8385
13.400000, 105.240, -154.6857
13.600000, 105.256, -155.5109
13.800000, 105.272, -156.3192
14.000000, 105.289, -157.1172
14.300000, 105.315, -158.3042
14.500000, 105.331, -159.0934
14.750000, 105.349, -160.0776
15.000000, 105.363, -161.0550
15.250000, 105.372, -162.0170
15.500000, 105.376, -162.9534
15.750000, 105.377, -163.8562
16.000000, 105.375, -164.7201
16.250000, 105.373, -165.5468
16.500000, 105.372, -166.3424
16.750000, 105.373, -167.1175
17.000000, 105.376, -167.8833
17.250000, 105.379, -168.6478
17.500000, 105.381, -169.4140
17.750000, 105.380, -170.1784
18.000000, 105.376, -170.9328
18.250000, 105.368, -171.6674
18.500000, 105.359, -172.3743
18.750000, 105.349, -173.0518
19.000000, 105.341, -173.7042
19.250000, 105.336, -174.3424
19.500000, 105.333, -174.9788
19.750000, 105.331, -175.6238
20.000000, 105.330, -176.2824
20.299999, 105.325, -177.0867
20.600000, 105.316, -177.8930
20.900000, 105.302, -178.6844
21.200001, 105.286, -179.4507
21.400000, 105.274, -179.9481
21.799999, 105.253, 179.0750
22.000000, 105.243, 178.5875
22.400000, 105.221, 177.6046
22.700001, 105.198, 176.8690
23.000000, 105.170, 176.1548
23.299999, 105.138, 175.4830
23.600000, 105.103, 174.8666
24.000000, 105.062, 174.1255
24.299999, 105.039, 173.6071
24.700001, 105.017, 172.9193
25.000000, 105.005, 172.3811
25.400000, 104.990, 171.6205
25.799999, 104.969, 170.8225
26.200001, 104.940, 170.0157
26.500000, 104.912, 169.4238
26.900000, 104.870, 168.6713
27.200001, 104.837, 168.1392
27.600000, 104.795, 167.4608
28.000000, 104.759, 166.7820
28.500000, 104.714, 165.8707
29.000000, 104.654, 164.8904
29.500000, 104.566, 163.9709
30.000000, 104.467, 163.2739
30.400000, 104.403, 162.8853
30.700001, 104.375, 162.6297
31.100000, 104.361, 162.2251
31.500000, 104.361, 161.6627
32.000000, 104.347, 160.7596
32.500000, 104.303, 159.8143
33.000000, 104.244, 158.9912
33.500000, 104.193, 158.2801
34.000000, 104.154, 157.5670
34.500000, 104.113, 156.8053
35.000000, 104.058, 156.0625
35.500000, 103.998, 155.4109
36.000000, 103.944, 154.8347
36.500000, 103.899, 154.2636
37.000000, 103.853, 153.6673
37.500000, 103.800, 153.0783
38.200001, 103.726, 152.3162
38.700001, 103.679, 151.7765
39.500000, 103.606, 150.8188
40.000000, 103.549, 150.1851
40.599998, 103.472, 149.4617
41.200001, 103.395, 148.8035
41.799999, 103.323, 148.1742
42.500000, 103.243, 147.4252
43.099998, 103.172, 146.7813
43.700001, 103.097, 146.1716
44.400002, 103.014, 145.5050
45.000000, 102.945, 144.9368
45.500000, 102.887, 144.4599
46.200001, 102.800, 143.8207
46.799999, 102.728, 143.3059
47.500000, 102.649, 142.6871
48.200001, 102.565, 142.0218
48.700001, 102.499, 141.5557
49.400002, 102.403, 140.9696
50.000000, 102.328, 140.5172
50.799999, 102.240, 139.9008
51.500000, 102.165, 139.3184
52.200001, 102.087, 138.7382
53.000000, 101.996, 138.1193
53.799999, 101.908, 137.5208
54.500000, 101.828, 137.0137
55.200001, 101.748, 136.5316
56.000000, 101.659, 135.9398
57.000000, 101.523, 135.1377
58.000000, 101.367, 134.5103
59.000000, 101.232, 133.9617
60.000000, 101.103, 133.3278
60.799999, 100.999, 132.8168
61.500000, 100.910, 132.3787
62.200001, 100.824, 131.9442
63.000000, 100.726, 131.4503
64.000000, 100.602, 130.8530
65.000000, 100.475, 130.3300
66.000000, 100.353, 129.8431
67.000000, 100.228, 129.3441
68.000000, 100.098, 128.8698
69.000000, 99.968, 128.4117
70.000000, 99.838, 127.9552
71.000000, 99.710, 127.5073
72.000000, 99.584, 127.0646
73.000000, 99.460, 126.6366
74.000000, 99.335, 126.2208
75.000000, 99.207, 125.8394
76.199997, 99.055, 125.4458
77.500000, 98.892, 125.0181
78.800003, 98.725, 124.6012
80.000000, 98.569, 124.2106
81.199997, 98.411, 123.8722
82.500000, 98.252, 123.5428
83.800003, 98.097, 123.1932
85.000000, 97.953, 122.8784
86.199997, 97.802, 122.5782
87.500000, 97.635, 122.3244
88.500000, 97.509, 122.1439
90.000000, 97.320, 121.8770
91.199997, 97.169, 121.6841
92.500000, 97.008, 121.4915
93.800003, 96.850, 121.3183
95.000000, 96.705, 121.1813
96.199997, 96.560, 121.0551
97.500000, 96.402, 120.9569
98.800003, 96.247, 120.8918
100.000000, 96.106, 120.8396
101.500000, 95.933, 120.7946
103.000000, 95.760, 120.7631
104.400002, 95.598, 120.7518
106.000000, 95.411, 120.7853
107.500000, 95.241, 120.8414
109.000000, 95.072, 120.8810
110.599998, 94.886, 120.9319
112.000000, 94.715, 121.0237
113.800003, 94.507, 121.2386
115.000000, 94.381, 121.3307
117.199997, 94.176, 121.3575
118.000000, 94.108, 121.3071
120.599998, 93.820, 121.3331
122.000000, 93.673, 121.8925
124.099998, 93.484, 122.6016
125.000000, 93.396, 122.8330
126.500000, 93.242, 123.1423
128.000000, 93.082, 123.4030
131.500000, 92.757, 124.3411
132.000000, 92.719, 124.4899
134.000000, 92.565, 125.0468
136.000000, 92.390, 125.6330
138.000000, 92.218, 126.2010
140.000000, 92.046, 126.5530
143.000000, 91.788, 126.9624
145.000000, 91.613, 127.1161
147.500000, 91.354, 127.7936
150.000000, 91.163, 128.9815
152.500000, 90.988, 130.3764
155.000000, 90.828, 131.8386
157.500000, 90.648, 133.8323
160.000000, 90.591, 135.9483
162.500000, 90.511, 137.0555
165.000000, 90.495, 138.3627
167.500000, 90.549, 138.2767
170.000000, 90.448, 137.9098
172.500000, 90.295, 138.5727
175.000000, 90.191, 139.4888
177.500000, 90.103, 140.3019
180.000000, 90.024, 141.0550
182.500000, 89.950, 141.7833
185.000000, 89.881, 142.5309
187.500000, 89.817, 143.2969
190.000000, 89.763, 144.0624
192.500000, 89.711, 144.7535
195.000000, 89.652, 145.4206
197.500000, 89.590, 146.1127
200.000000, 89.531, 146.8215
203.000000, 89.470, 147.6926
206.000000, 89.419, 148.5097
209.000000, 89.374, 149.2937
212.000000, 89.331, 150.0610
214.000000, 89.303, 150.5756
218.000000, 89.256, 151.5972
220.000000, 89.234, 152.0956
224.000000, 89.186, 153.0482
227.000000, 89.152, 153.7426
230.000000, 89.124, 154.4209
233.000000, 89.100, 155.0901
236.000000, 89.079, 155.7474
240.000000, 89.050, 156.6070
243.000000, 89.032, 157.2184
247.000000, 89.012, 158.0087
250.000000, 88.998, 158.5883
254.000000, 88.979, 159.3248
258.000000, 88.964, 160.0408
262.000000, 88.951, 160.7466
265.000000, 88.942, 161.2648
269.000000, 88.929, 161.9262
272.000000, 88.919, 162.4102
276.000000, 88.908, 163.0441
280.000000, 88.899, 163.6690
285.000000, 88.891, 164.4360
290.000000, 88.883, 165.1708
295.000000, 88.875, 165.8888
300.000000, 88.871, 166.5829
304.000000, 88.869, 167.1267
307.000000, 88.868, 167.5344
311.000000, 88.865, 168.0679
315.000000, 88.865, 168.5823
320.000000, 88.867, 169.2186
325.000000, 88.870, 169.8440
330.000000, 88.875, 170.4363
335.000000, 88.884, 171.0115
340.000000, 88.893, 171.5561
345.000000, 88.902, 172.0668
350.000000, 88.909, 172.5702
355.000000, 88.916, 173.0605
360.000000, 88.921, 173.5334
365.000000, 88.926, 174.0012
370.000000, 88.931, 174.4632
375.000000, 88.938, 174.9108
382.000000, 88.947, 175.5367
387.000000, 88.955, 175.9726
395.000000, 88.967, 176.6523
400.000000, 88.976, 177.0701
406.000000, 88.988, 177.5553
412.000000, 89.000, 178.0214
418.000000, 89.011, 178.4699
425.000000, 89.023, 178.9814
431.000000, 89.033, 179.4139
437.000000, 89.044, 179.8298
444.000000, 89.058, -179.7007
450.000000, 89.070, -179.3078
455.000000, 89.079, -178.9846
462.000000, 89.092, -178.5544
468.000000, 89.102, -178.2000
475.000000, 89.115, -177.7941
482.000000, 89.125, -177.4050
487.000000, 89.132, -177.1269
494.000000, 89.141, -176.7371
500.000000, 89.148, -176.4118
508.000000, 89.156, -175.9865
515.000000, 89.164, -175.6231
522.000000, 89.170, -175.2634
530.000000, 89.177, -174.8571
538.000000, 89.182, -174.4523
545.000000, 89.185, -174.1075
552.000000, 89.189, -173.7631
560.000000, 89.193, -173.3635
570.000000, 89.197, -172.8758
580.000000, 89.199, -172.3863
590.000000, 89.199, -171.9010
600.000000, 89.200, -171.4117
608.000000, 89.199, -171.0239
615.000000, 89.199, -170.6810
622.000000, 89.198, -170.3342
630.000000, 89.197, -169.9348
640.000000, 89.195, -169.4282
650.000000, 89.194, -168.9194
660.000000, 89.192, -168.4099
670.000000, 89.190, -167.8940
680.000000, 89.189, -167.3602
690.000000, 89.188, -166.8136
700.000000, 89.188, -166.2683
710.000000, 89.188, -165.7206
720.000000, 89.191, -165.1644
730.000000, 89.195, -164.6024
740.000000, 89.199, -164.0286
750.000000, 89.204, -163.4493
762.000000, 89.212, -162.7456
775.000000, 89.224, -161.9753
788.000000, 89.238, -161.1946
800.000000, 89.256, -160.4679
812.000000, 89.277, -159.7384
825.000000, 89.302, -158.9419
838.000000, 89.330, -158.1365
850.000000, 89.360, -157.3983
862.000000, 89.394, -156.6635
875.000000, 89.436, -155.8666
885.000000, 89.471, -155.2519
900.000000, 89.527, -154.3386
912.000000, 89.576, -153.6189
925.000000, 89.634, -152.8523
938.000000, 89.697, -152.1020
950.000000, 89.759, -151.4185
962.000000, 89.824, -150.7549
975.000000, 89.898, -150.0652
988.000000, 89.975, -149.4021
1000.000000, 90.050, -148.8076
1015.000000, 90.147, -148.1009
1030.000000, 90.246, -147.4405
1044.000000, 90.340, -146.8598
1060.000000, 90.449, -146.2319
1075.000000, 90.554, -145.6847
1090.000000, 90.658, -145.1793
1106.000000, 90.769, -144.6842
1120.000000, 90.866, -144.2858
1138.000000, 90.988, -143.8203
1150.000000, 91.068, -143.5345
1172.000000, 91.212, -143.0592
1180.000000, 91.263, -142.9017
1206.000000, 91.423, -142.4326
1220.000000, 91.505, -142.2026
1241.000000, 91.624, -141.8827
1250.000000, 91.673, -141.7533
1265.000000, 91.754, -141.5444
1280.000000, 91.832, -141.3418
1315.000000, 92.006, -140.8798
1320.000000, 92.030, -140.8151
1340.000000, 92.124, -140.5635
1360.000000, 92.215, -140.3180
1380.000000, 92.304, -140.0682
1400.000000, 92.392, -139.8189
1430.000000, 92.521, -139.4478
1450.000000, 92.605, -139.2044
1475.000000, 92.710, -138.8999
1500.000000, 92.813, -138.5935
1525.000000, 92.915, -138.2943
1550.000000, 93.018, -138.0036
1575.000000, 93.120, -137.7172
1600.000000, 93.222, -137.4357
1625.000000, 93.323, -137.1602
1650.000000, 93.425, -136.8939
1675.000000, 93.526, -136.6375
1700.000000, 93.627, -136.3872
1725.000000, 93.728, -136.1435
1750.000000, 93.828, -135.9044
1775.000000, 93.929, -135.6706
1800.000000, 94.030, -135.4449
1825.000000, 94.133, -135.2303
1850.000000, 94.235, -135.0276
1875.000000, 94.339, -134.8327
1900.000000, 94.441, -134.6467
1925.000000, 94.544, -134.4684
1950.000000, 94.647, -134.2973
1975.000000, 94.751, -134.1370
2000.000000, 94.856, -133.9873
2030.000000, 94.983, -133.8200
2060.000000, 95.110, -133.6672
2090.000000, 95.240, -133.5343
2120.000000, 95.370, -133.4194
2140.000000, 95.457, -133.3517
2180.000000, 95.634, -133.2428
2200.000000, 95.723, -133.2034
2240.000000, 95.903, -133.1601
2270.000000, 96.041, -133.1615
2300.000000, 96.180, -133.1917
2330.000000, 96.319, -133.2529
2360.000000, 96.459, -133.3500
2400.000000, 96.646, -133.5405
2430.000000, 96.786, -133.7294
2470.000000, 96.971, -134.0383
2500.000000, 97.108, -134.3162
2540.000000, 97.287, -134.7462
2580.000000, 97.462, -135.2412
2620.000000, 97.633, -135.7993
2650.000000, 97.757, -136.2567
2690.000000, 97.917, -136.9187
2720.000000, 98.034, -137.4556
2760.000000, 98.183, -138.2202
2800.000000, 98.324, -139.0383
2850.000000, 98.489, -140.1317
2900.000000, 98.640, -141.2988
2950.000000, 98.776, -142.5352
3000.000000, 98.896, -143.8313
3040.000000, 98.979, -144.9046
3070.000000, 99.035, -145.7274
3110.000000, 99.098, -146.8425
3150.000000, 99.148, -147.9718
3200.000000, 99.194, -149.3896
3250.000000, 99.221, -150.7975
3300.000000, 99.230, -152.1791
3350.000000, 99.223, -153.5189
3400.000000, 99.203, -154.8114
3450.000000, 99.173, -156.0630
3500.000000, 99.133, -157.2898
3550.000000, 99.082, -158.5047
3600.000000, 99.017, -159.6981
3650.000000, 98.937, -160.8418
3700.000000, 98.843, -161.9127
3750.000000, 98.740, -162.9023
3820.000000, 98.585, -164.1569
3870.000000, 98.470, -164.9712
3950.000000, 98.279, -166.1604
4000.000000, 98.156, -166.8448
4060.000000, 98.004, -167.6180
4120.000000, 97.846, -168.3355
4180.000000, 97.680, -168.9849
4250.000000, 97.478, -169.6463
4310.000000, 97.300, -170.1267
4370.000000, 97.119, -170.5225
4440.000000, 96.905, -170.8779
4500.000000, 96.722, -171.0961
4550.000000, 96.570, -171.2219
4620.000000, 96.359, -171.3247
4680.000000, 96.180, -171.3519
4750.000000, 95.972, -171.3137
4820.000000, 95.765, -171.1954
4870.000000, 95.617, -171.0573
4940.000000, 95.414, -170.7842
5000.000000, 95.243, -170.4777
5080.000000, 95.023, -169.9760
5150.000000, 94.839, -169.4597
5220.000000, 94.662, -168.8798
5300.000000, 94.470, -168.1478
5380.000000, 94.288, -167.3394
5450.000000, 94.139, -166.5679
5520.000000, 94.000, -165.7350
5600.000000, 93.856, -164.7162
5700.000000, 93.703, -163.3721
5800.000000, 93.580, -161.9745
5900.000000, 93.488, -160.5520
6000.000000, 93.427, -159.1254
6080.000000, 93.401, -157.9875
6150.000000, 93.397, -157.0019
6220.000000, 93.410, -156.0351
6300.000000, 93.448, -154.9713
6400.000000, 93.533, -153.7390
6500.000000, 93.659, -152.6535
6600.000000, 93.824, -151.7614
6700.000000, 94.028, -151.1215
6800.000000, 94.267, -150.7920
6900.000000, 94.532, -150.8315
7000.000000, 94.811, -151.2846
7100.000000, 95.087, -152.1385
7200.000000, 95.351, -153.3151
7300.000000, 95.601, -154.6781
7400.000000, 95.861, -156.0903
7500.000000, 96.177, -157.5582
7620.000000, 96.702, -159.8622
7750.000000, 97.454, -164.2044
7880.000000, 98.225, -171.8036
8000.000000, 98.652, 177.9262
8120.000000, 98.502, 165.7001
8250.000000, 97.562, 153.0408
8380.000000, 96.024, 143.5991
8500.000000, 94.406, 138.4347
8620.000000, 92.840, 136.0707
8750.000000, 91.320, 135.6088
8850.000000, 90.290, 136.1749
9000.000000, 88.947, 137.9009
9120.000000, 88.019, 139.7462
9250.000000, 87.132, 142.0244
9380.000000, 86.351, 144.4968
9500.000000, 85.710, 146.8905
9620.000000, 85.135, 149.3576
9750.000000, 84.581, 152.0834
9880.000000, 84.090, 154.8396
10000.000000, 83.691, 157.3952
10150.000000, 83.257, 160.5935
10300.000000, 82.890, 163.7734
10440.000000, 82.605, 166.7000
10600.000000, 82.343, 169.9825
10750.000000, 82.157, 172.9817
10900.000000, 82.028, 175.8831
11060.000000, 81.949, 178.8503
11200.000000, 81.929, -178.6862
11380.000000, 81.972, -175.7046
11500.000000, 82.042, -173.8486
11720.000000, 82.261, -170.7952
11800.000000, 82.372, -169.8111
12060.000000, 82.849, -167.1572
12200.000000, 83.189, -166.1248
12410.000000, 83.816, -165.2385
12500.000000, 84.133, -165.1569
12650.000000, 84.733, -165.5189
12800.000000, 85.427, -166.6432
13150.000000, 87.418, -173.5290
13200.000000, 87.736, -175.1697
13400.000000, 89.028, 176.1387
13600.000000, 90.184, 163.6587
13800.000000, 90.931, 147.6912
14000.000000, 91.051, 129.7125
14300.000000, 90.055, 103.4399
