* Measurement data measured by REW V5.31.3
* Source: Headset (USB-C to 3.5mm Headphone Jack Adapter), MICROPHONE (Master Volume), R, volume: 0.700
* Format: 256k Log Swept Sine, 1 sweep at -12.0 dBFS with no timing reference
* Dated: Aug 25, 2024 8:46:14 AM
* REW Settings:
*  C-weighting compensation: Off
*  Target level: 75.0 dB
* Note: ; 
* Measurement: Celest Wyvern Abyss R
* Smoothing: 1/24 octave
* Frequency Step: 1/48 octave
* Start Frequency: 1.000 Hz
*
* Freq(Hz), SPL(dB), Phase(degrees)
1.000000, 68.878, 48.2475
1.015000, 69.311, 47.6306
1.030000, 69.736, 46.9787
1.044000, 70.125, 46.3388
1.060000, 70.560, 45.5704
1.075000, 70.959, 44.8147
1.090000, 71.347, 44.0276
1.106000, 71.751, 43.1687
1.120000, 72.095, 42.4257
1.138000, 72.524, 41.4988
1.150000, 72.802, 40.8987
1.172000, 73.297, 39.8319
1.180000, 73.472, 39.4536
1.206000, 74.026, 38.2545
1.220000, 74.315, 37.6253
1.241000, 74.736, 36.6985
1.250000, 74.913, 36.3065
1.265000, 75.202, 35.6587
1.280000, 75.486, 35.0163
1.315000, 76.127, 33.5294
1.320000, 76.216, 33.3176
1.340000, 76.570, 32.4697
1.360000, 76.917, 31.6186
1.380000, 77.259, 30.7614
1.400000, 77.596, 29.8955
1.430000, 78.096, 28.5750
1.450000, 78.426, 27.6779
1.475000, 78.835, 26.5445
1.500000, 79.234, 25.4219
1.525000, 79.621, 24.3215
1.550000, 79.996, 23.2425
1.575000, 80.360, 22.1822
1.600000, 80.714, 21.1376
1.625000, 81.058, 20.1056
1.650000, 81.393, 19.0832
1.675000, 81.721, 18.0672
1.700000, 82.041, 17.0546
1.725000, 82.354, 16.0422
1.750000, 82.662, 15.0273
1.775000, 82.964, 14.0068
1.800000, 83.262, 12.9781
1.825000, 83.557, 11.9392
1.850000, 83.845, 10.8912
1.875000, 84.127, 9.8392
1.900000, 84.402, 8.7880
1.925000, 84.670, 7.7412
1.950000, 84.930, 6.7014
1.975000, 85.185, 5.6705
2.000000, 85.433, 4.6497
2.030000, 85.724, 3.4394
2.060000, 86.007, 2.2453
2.090000, 86.284, 1.0674
2.120000, 86.555, -0.0954
2.140000, 86.732, -0.8629
2.180000, 87.080, -2.3824
2.200000, 87.251, -3.1373
2.240000, 87.584, -4.6486
2.270000, 87.825, -5.7845
2.300000, 88.060, -6.9178
2.330000, 88.287, -8.0445
2.360000, 88.508, -9.1608
2.400000, 88.795, -10.6283
2.430000, 89.003, -11.7103
2.470000, 89.274, -13.1252
2.500000, 89.472, -14.1642
2.540000, 89.731, -15.5202
2.580000, 89.982, -16.8509
2.620000, 90.224, -18.1756
2.650000, 90.400, -19.1680
2.690000, 90.627, -20.4844
2.720000, 90.792, -21.4626
2.760000, 91.005, -22.7492
2.800000, 91.211, -24.0102
2.850000, 91.461, -25.5430
2.900000, 91.704, -27.0209
2.950000, 91.938, -28.4495
3.000000, 92.163, -29.8548
3.040000, 92.336, -30.9676
3.070000, 92.461, -31.7933
3.110000, 92.624, -32.8792
3.150000, 92.782, -33.9439
3.200000, 92.974, -35.2393
3.250000, 93.161, -36.4890
3.300000, 93.343, -37.6911
3.350000, 93.520, -38.8572
3.400000, 93.690, -39.9983
3.450000, 93.855, -41.1151
3.500000, 94.014, -42.2052
3.550000, 94.170, -43.2661
3.600000, 94.322, -44.2949
3.650000, 94.473, -45.2896
3.700000, 94.621, -46.2520
3.750000, 94.766, -47.1872
3.820000, 94.963, -48.4573
3.870000, 95.100, -49.3391
3.950000, 95.316, -50.7095
4.000000, 95.450, -51.5419
4.060000, 95.609, -52.5165
4.120000, 95.766, -53.4642
4.180000, 95.921, -54.3881
4.250000, 96.099, -55.4423
4.310000, 96.250, -56.3308
4.370000, 96.399, -57.2090
4.440000, 96.571, -58.2217
4.500000, 96.717, -59.0777
4.550000, 96.838, -59.7828
4.620000, 97.004, -60.7598
4.680000, 97.144, -61.5904
4.750000, 97.305, -62.5545
4.820000, 97.462, -63.5157
4.870000, 97.573, -64.2003
4.940000, 97.725, -65.1541
5.000000, 97.853, -65.9659
5.080000, 98.019, -67.0385
5.150000, 98.159, -67.9689
5.220000, 98.296, -68.8961
5.300000, 98.447, -69.9504
5.380000, 98.594, -70.9924
5.450000, 98.718, -71.8887
5.520000, 98.838, -72.7700
5.600000, 98.970, -73.7648
5.700000, 99.128, -74.9889
5.800000, 99.280, -76.1810
5.900000, 99.426, -77.3341
6.000000, 99.566, -78.4543
6.080000, 99.675, -79.3287
6.150000, 99.767, -80.0765
6.220000, 99.859, -80.8068
6.300000, 99.961, -81.6204
6.400000, 100.087, -82.6095
6.500000, 100.210, -83.5723
6.600000, 100.331, -84.5122
6.700000, 100.452, -85.4294
6.800000, 100.570, -86.3267
6.900000, 100.688, -87.2102
7.000000, 100.804, -88.0844
7.100000, 100.919, -88.9493
7.200000, 101.033, -89.8059
7.300000, 101.144, -90.6570
7.400000, 101.253, -91.5050
7.500000, 101.359, -92.3497
7.620000, 101.483, -93.3557
7.750000, 101.613, -94.4344
7.880000, 101.737, -95.5034
8.000000, 101.846, -96.4751
8.120000, 101.951, -97.4273
8.250000, 102.060, -98.4389
8.380000, 102.164, -99.4256
8.500000, 102.257, -100.3101
8.620000, 102.347, -101.1714
8.750000, 102.442, -102.0799
8.850000, 102.514, -102.7613
9.000000, 102.621, -103.7572
9.120000, 102.705, -104.5367
9.250000, 102.795, -105.3677
9.380000, 102.885, -106.1864
9.500000, 102.967, -106.9354
9.620000, 103.047, -107.6813
9.750000, 103.132, -108.4853
9.880000, 103.215, -109.2853
10.000000, 103.289, -110.0210
10.150000, 103.378, -110.9343
10.300000, 103.462, -111.8337
10.440000, 103.536, -112.6592
10.600000, 103.615, -113.5791
10.750000, 103.687, -114.4124
10.900000, 103.755, -115.2176
11.060000, 103.826, -116.0426
11.200000, 103.887, -116.7371
11.380000, 103.967, -117.6018
11.500000, 104.021, -118.1636
11.720000, 104.124, -119.1806
11.800000, 104.162, -119.5511
12.060000, 104.287, -120.7704
12.200000, 104.353, -121.4464
12.410000, 104.450, -122.4876
12.500000, 104.489, -122.9432
12.650000, 104.550, -123.7134
12.800000, 104.605, -124.4881
13.150000, 104.710, -126.2701
13.200000, 104.723, -126.5162
13.400000, 104.766, -127.4691
13.600000, 104.803, -128.3602
13.800000, 104.837, -129.1821
14.000000, 104.871, -129.9401
14.300000, 104.930, -130.9849
14.500000, 104.976, -131.6500
14.750000, 105.041, -132.4830
15.000000, 105.110, -133.3445
15.250000, 105.178, -134.2469
15.500000, 105.240, -135.1797
15.750000, 105.292, -136.1207
16.000000, 105.336, -137.0413
16.250000, 105.372, -137.9193
16.500000, 105.406, -138.7458
16.750000, 105.440, -139.5250
17.000000, 105.477, -140.2742
17.250000, 105.517, -141.0131
17.500000, 105.559, -141.7584
17.750000, 105.600, -142.5170
18.000000, 105.638, -143.2854
18.250000, 105.670, -144.0526
18.500000, 105.698, -144.8047
18.750000, 105.721, -145.5310
19.000000, 105.742, -146.2261
19.250000, 105.763, -146.8920
19.500000, 105.784, -147.5354
19.750000, 105.805, -148.1641
20.000000, 105.827, -148.7845
20.299999, 105.853, -149.5213
20.600000, 105.876, -150.2479
20.900000, 105.897, -150.9592
21.200001, 105.917, -151.6513
21.400000, 105.929, -152.1021
21.799999, 105.954, -152.9833
22.000000, 105.966, -153.4169
22.400000, 105.991, -154.2773
22.700001, 106.008, -154.9195
23.000000, 106.023, -155.5600
23.299999, 106.037, -156.1982
23.600000, 106.048, -156.8326
24.000000, 106.059, -157.6654
24.299999, 106.063, -158.2718
24.700001, 106.064, -159.0415
25.000000, 106.065, -159.5837
25.400000, 106.068, -160.2658
25.799999, 106.078, -160.9280
26.200001, 106.093, -161.6081
26.500000, 106.105, -162.1447
26.900000, 106.116, -162.8912
27.200001, 106.118, -163.4563
27.600000, 106.113, -164.1815
28.000000, 106.103, -164.8469
28.500000, 106.093, -165.5970
29.000000, 106.092, -166.3099
29.500000, 106.096, -167.0406
30.000000, 106.096, -167.7914
30.400000, 106.092, -168.3829
30.700001, 106.087, -168.8114
31.100000, 106.081, -169.3634
31.500000, 106.076, -169.9044
32.000000, 106.070, -170.5826
32.500000, 106.061, -171.2625
33.000000, 106.047, -171.9252
33.500000, 106.030, -172.5575
34.000000, 106.014, -173.1638
34.500000, 105.998, -173.7551
35.000000, 105.983, -174.3364
35.500000, 105.967, -174.9081
36.000000, 105.952, -175.4732
36.500000, 105.936, -176.0349
37.000000, 105.918, -176.5909
37.500000, 105.899, -177.1335
38.200001, 105.872, -177.8644
38.700001, 105.854, -178.3730
39.500000, 105.823, -179.1805
40.000000, 105.802, -179.6787
40.599998, 105.774, 179.7429
41.200001, 105.744, 179.1953
41.799999, 105.715, 178.6753
42.500000, 105.684, 178.0833
43.099998, 105.657, 177.5716
43.700001, 105.628, 177.0572
44.400002, 105.590, 176.4774
45.000000, 105.556, 176.0150
45.500000, 105.530, 175.6469
46.200001, 105.499, 175.1252
46.799999, 105.471, 174.6591
47.500000, 105.434, 174.1244
48.200001, 105.396, 173.6312
48.700001, 105.372, 173.2922
49.400002, 105.340, 172.8088
50.000000, 105.309, 172.3938
50.799999, 105.266, 171.8748
51.500000, 105.230, 171.4449
52.200001, 105.193, 171.0266
53.000000, 105.151, 170.5723
53.799999, 105.114, 170.0931
54.500000, 105.073, 169.6319
55.200001, 105.021, 169.2173
56.000000, 104.965, 168.8521
57.000000, 104.915, 168.3772
58.000000, 104.859, 167.8136
59.000000, 104.797, 167.2985
60.000000, 104.740, 166.8113
60.799999, 104.694, 166.4243
61.500000, 104.655, 166.0950
62.200001, 104.615, 165.7785
63.000000, 104.570, 165.4336
64.000000, 104.516, 165.0101
65.000000, 104.459, 164.5872
66.000000, 104.398, 164.1987
67.000000, 104.340, 163.8464
68.000000, 104.284, 163.4864
69.000000, 104.225, 163.1265
70.000000, 104.168, 162.7834
71.000000, 104.111, 162.4395
72.000000, 104.053, 162.1068
73.000000, 103.995, 161.7994
74.000000, 103.940, 161.5056
75.000000, 103.885, 161.2189
76.199997, 103.819, 160.8840
77.500000, 103.746, 160.5173
78.800003, 103.670, 160.1600
80.000000, 103.599, 159.8382
81.199997, 103.524, 159.5587
82.500000, 103.453, 159.3745
83.800003, 103.399, 159.1418
85.000000, 103.348, 158.8897
86.199997, 103.293, 158.5841
87.500000, 103.216, 158.2854
88.500000, 103.157, 158.1093
90.000000, 103.074, 157.8541
91.199997, 103.010, 157.6458
92.500000, 102.942, 157.4157
93.800003, 102.875, 157.2015
95.000000, 102.813, 157.0269
96.199997, 102.754, 156.8629
97.500000, 102.690, 156.6842
98.800003, 102.625, 156.5215
100.000000, 102.567, 156.3785
101.500000, 102.494, 156.2099
103.000000, 102.422, 156.0549
104.400002, 102.355, 155.9138
106.000000, 102.278, 155.7613
107.500000, 102.208, 155.6268
109.000000, 102.140, 155.4931
110.599998, 102.065, 155.3650
112.000000, 101.998, 155.2817
113.800003, 101.914, 155.1695
115.000000, 101.861, 155.0761
117.199997, 101.773, 154.8686
118.000000, 101.745, 154.7690
120.599998, 101.626, 154.4611
122.000000, 101.559, 154.5228
124.099998, 101.475, 154.6041
125.000000, 101.438, 154.6096
126.500000, 101.374, 154.5963
128.000000, 101.310, 154.5663
131.500000, 101.166, 154.4777
132.000000, 101.146, 154.4724
134.000000, 101.065, 154.4550
136.000000, 100.983, 154.4480
138.000000, 100.906, 154.4619
140.000000, 100.831, 154.4572
143.000000, 100.715, 154.4770
145.000000, 100.639, 154.4991
147.500000, 100.543, 154.5104
150.000000, 100.445, 154.5267
152.500000, 100.350, 154.6223
155.000000, 100.262, 154.7473
157.500000, 100.166, 154.9047
160.000000, 100.060, 155.1003
162.500000, 99.958, 155.3395
165.000000, 99.863, 155.5717
167.500000, 99.768, 155.9496
170.000000, 99.694, 156.5308
172.500000, 99.662, 157.2132
175.000000, 99.687, 157.7505
177.500000, 99.729, 157.8504
180.000000, 99.739, 157.6172
182.500000, 99.708, 157.3140
185.000000, 99.649, 157.0941
187.500000, 99.578, 156.9890
190.000000, 99.505, 156.9721
192.500000, 99.432, 156.9998
195.000000, 99.360, 157.0535
197.500000, 99.290, 157.1348
200.000000, 99.223, 157.2329
203.000000, 99.145, 157.3791
206.000000, 99.070, 157.5455
209.000000, 98.998, 157.7220
212.000000, 98.927, 157.9114
214.000000, 98.881, 158.0388
218.000000, 98.790, 158.3095
220.000000, 98.747, 158.4493
224.000000, 98.662, 158.7271
227.000000, 98.600, 158.9365
230.000000, 98.539, 159.1541
233.000000, 98.480, 159.3813
236.000000, 98.423, 159.6123
240.000000, 98.348, 159.9191
243.000000, 98.293, 160.1503
247.000000, 98.222, 160.4659
250.000000, 98.170, 160.7057
254.000000, 98.103, 161.0281
258.000000, 98.037, 161.3509
262.000000, 97.972, 161.6730
265.000000, 97.926, 161.9163
269.000000, 97.865, 162.2438
272.000000, 97.820, 162.4891
276.000000, 97.761, 162.8210
280.000000, 97.704, 163.1602
285.000000, 97.635, 163.5822
290.000000, 97.567, 164.0040
295.000000, 97.502, 164.4277
300.000000, 97.440, 164.8499
304.000000, 97.391, 165.1869
307.000000, 97.356, 165.4441
311.000000, 97.310, 165.7887
315.000000, 97.264, 166.1324
320.000000, 97.208, 166.5598
325.000000, 97.154, 166.9865
330.000000, 97.101, 167.4149
335.000000, 97.049, 167.8508
340.000000, 97.000, 168.2876
345.000000, 96.953, 168.7254
350.000000, 96.908, 169.1681
355.000000, 96.865, 169.6113
360.000000, 96.824, 170.0555
365.000000, 96.785, 170.4922
370.000000, 96.748, 170.9161
375.000000, 96.712, 171.3327
382.000000, 96.660, 171.9032
387.000000, 96.624, 172.3098
395.000000, 96.567, 172.9714
400.000000, 96.533, 173.3865
406.000000, 96.494, 173.8842
412.000000, 96.455, 174.3775
418.000000, 96.418, 174.8702
425.000000, 96.376, 175.4529
431.000000, 96.341, 175.9537
437.000000, 96.308, 176.4553
444.000000, 96.270, 177.0355
450.000000, 96.240, 177.5308
455.000000, 96.215, 177.9447
462.000000, 96.181, 178.5255
468.000000, 96.153, 179.0206
475.000000, 96.122, 179.5979
482.000000, 96.093, -179.8236
487.000000, 96.073, -179.4124
494.000000, 96.044, -178.8396
500.000000, 96.021, -178.3479
508.000000, 95.992, -177.6911
515.000000, 95.968, -177.1151
522.000000, 95.945, -176.5356
530.000000, 95.920, -175.8764
538.000000, 95.895, -175.2169
545.000000, 95.875, -174.6397
552.000000, 95.857, -174.0583
560.000000, 95.837, -173.3923
570.000000, 95.815, -172.5641
580.000000, 95.795, -171.7367
590.000000, 95.775, -170.9103
600.000000, 95.756, -170.0687
608.000000, 95.743, -169.3882
615.000000, 95.733, -168.7902
622.000000, 95.725, -168.1878
630.000000, 95.717, -167.4954
640.000000, 95.708, -166.6248
650.000000, 95.702, -165.7481
660.000000, 95.698, -164.8636
670.000000, 95.697, -163.9707
680.000000, 95.700, -163.0693
690.000000, 95.707, -162.1594
700.000000, 95.716, -161.2403
710.000000, 95.729, -160.3099
720.000000, 95.747, -159.3718
730.000000, 95.770, -158.4251
740.000000, 95.797, -157.4750
750.000000, 95.831, -156.5211
762.000000, 95.880, -155.3774
775.000000, 95.944, -154.1537
788.000000, 96.020, -152.9553
800.000000, 96.099, -151.8826
812.000000, 96.186, -150.8538
825.000000, 96.289, -149.7996
838.000000, 96.398, -148.8193
850.000000, 96.501, -147.9845
862.000000, 96.606, -147.2086
875.000000, 96.719, -146.4282
885.000000, 96.805, -145.8669
900.000000, 96.931, -145.0750
912.000000, 97.029, -144.4774
925.000000, 97.132, -143.8560
938.000000, 97.233, -143.2536
950.000000, 97.325, -142.7102
962.000000, 97.415, -142.1745
975.000000, 97.512, -141.6040
988.000000, 97.610, -141.0461
1000.000000, 97.700, -140.5407
1015.000000, 97.814, -139.9263
1030.000000, 97.929, -139.3362
1044.000000, 98.036, -138.8077
1060.000000, 98.160, -138.2294
1075.000000, 98.275, -137.7124
1090.000000, 98.390, -137.2197
1106.000000, 98.511, -136.7246
1120.000000, 98.616, -136.3220
1138.000000, 98.747, -135.8365
1150.000000, 98.830, -135.5284
1172.000000, 98.974, -134.9874
1180.000000, 99.021, -134.7879
1206.000000, 99.151, -133.9841
1220.000000, 99.218, -133.2906
1241.000000, 99.398, -131.8401
1250.000000, 99.524, -131.2815
1265.000000, 99.764, -130.8288
1280.000000, 99.977, -130.9436
1315.000000, 100.271, -131.4688
1320.000000, 100.302, -131.4914
1340.000000, 100.421, -131.4799
1360.000000, 100.538, -131.3709
1380.000000, 100.657, -131.2142
1400.000000, 100.777, -131.0353
1430.000000, 100.958, -130.7465
1450.000000, 101.080, -130.5499
1475.000000, 101.234, -130.3053
1500.000000, 101.388, -130.0667
1525.000000, 101.543, -129.8372
1550.000000, 101.700, -129.6198
1575.000000, 101.859, -129.4161
1600.000000, 102.020, -129.2280
1625.000000, 102.182, -129.0605
1650.000000, 102.346, -128.9146
1675.000000, 102.512, -128.7930
1700.000000, 102.680, -128.6977
1725.000000, 102.849, -128.6330
1750.000000, 103.020, -128.5997
1775.000000, 103.191, -128.5997
1800.000000, 103.365, -128.6369
1825.000000, 103.539, -128.7131
1850.000000, 103.714, -128.8294
1875.000000, 103.890, -128.9861
1900.000000, 104.066, -129.1857
1925.000000, 104.241, -129.4308
1950.000000, 104.416, -129.7229
1975.000000, 104.589, -130.0627
2000.000000, 104.761, -130.4503
2030.000000, 104.964, -130.9816
2060.000000, 105.163, -131.5854
2090.000000, 105.358, -132.2615
2120.000000, 105.548, -133.0081
2140.000000, 105.671, -133.5448
2180.000000, 105.906, -134.7087
2200.000000, 106.017, -135.3339
2240.000000, 106.228, -136.6659
2270.000000, 106.374, -137.7309
2300.000000, 106.508, -138.8458
2330.000000, 106.630, -140.0031
2360.000000, 106.740, -141.1953
2400.000000, 106.865, -142.8267
2430.000000, 106.944, -144.0720
2470.000000, 107.029, -145.7462
2500.000000, 107.076, -147.0010
2540.000000, 107.120, -148.6563
2580.000000, 107.141, -150.2747
2620.000000, 107.142, -151.8408
2650.000000, 107.130, -152.9738
2690.000000, 107.099, -154.4187
2720.000000, 107.066, -155.4486
2760.000000, 107.010, -156.7456
2800.000000, 106.944, -157.9515
2850.000000, 106.849, -159.3278
2900.000000, 106.745, -160.5597
2950.000000, 106.635, -161.6546
3000.000000, 106.521, -162.6202
3040.000000, 106.430, -163.3049
3070.000000, 106.362, -163.7714
3110.000000, 106.273, -164.3361
3150.000000, 106.187, -164.8406
3200.000000, 106.084, -165.3971
3250.000000, 105.988, -165.8858
3300.000000, 105.899, -166.3187
3350.000000, 105.817, -166.7092
3400.000000, 105.743, -167.0700
3450.000000, 105.677, -167.4124
3500.000000, 105.619, -167.7472
3550.000000, 105.567, -168.0848
3600.000000, 105.523, -168.4362
3650.000000, 105.484, -168.8117
3700.000000, 105.450, -169.2204
3750.000000, 105.420, -169.6701
3820.000000, 105.383, -170.3826
3870.000000, 105.357, -170.9602
3950.000000, 105.312, -172.0148
4000.000000, 105.279, -172.7580
4060.000000, 105.231, -173.7332
4120.000000, 105.171, -174.7924
4180.000000, 105.095, -175.9268
4250.000000, 104.985, -177.3271
4310.000000, 104.868, -178.5724
4370.000000, 104.728, -179.8378
4440.000000, 104.536, 178.6941
4500.000000, 104.344, 177.4728
4550.000000, 104.167, 176.5005
4620.000000, 103.892, 175.2370
4680.000000, 103.635, 174.2657
4750.000000, 103.313, 173.2880
4820.000000, 102.971, 172.4965
4870.000000, 102.717, 172.0520
4940.000000, 102.352, 171.6055
5000.000000, 102.033, 171.3888
5080.000000, 101.603, 171.3400
5150.000000, 101.227, 171.5189
5220.000000, 100.853, 171.8984
5300.000000, 100.429, 172.5883
5380.000000, 100.014, 173.6215
5450.000000, 99.681, 174.8842
5520.000000, 99.413, 176.2708
5600.000000, 99.149, 177.5397
5700.000000, 98.785, 179.0600
5800.000000, 98.424, -179.0127
5900.000000, 98.105, -176.7949
6000.000000, 97.837, -174.4036
6080.000000, 97.659, -172.4097
6150.000000, 97.530, -170.6229
6220.000000, 97.426, -168.8092
6300.000000, 97.338, -166.7196
6400.000000, 97.276, -164.1030
6500.000000, 97.270, -161.5119
6600.000000, 97.322, -158.9888
6700.000000, 97.434, -156.5765
6800.000000, 97.608, -154.3234
6900.000000, 97.845, -152.2844
7000.000000, 98.147, -150.5202
7100.000000, 98.514, -149.0973
7200.000000, 98.948, -148.0848
7300.000000, 99.453, -147.5661
7400.000000, 100.038, -147.6742
7500.000000, 100.708, -148.6331
7620.000000, 101.614, -151.4180
7750.000000, 102.626, -157.2983
7880.000000, 103.423, -166.7431
8000.000000, 103.683, -178.0372
8120.000000, 103.316, 169.9636
8250.000000, 102.258, 158.5202
8380.000000, 100.767, 150.1828
8500.000000, 99.251, 145.3939
8620.000000, 97.755, 142.9065
8750.000000, 96.242, 142.1215
8850.000000, 95.171, 142.4843
9000.000000, 93.719, 144.1078
9120.000000, 92.680, 146.0654
9250.000000, 91.663, 148.6485
9380.000000, 90.748, 151.5845
9500.000000, 89.983, 154.5321
9620.000000, 89.286, 157.6631
9750.000000, 88.601, 161.2258
9880.000000, 87.982, 164.9443
10000.000000, 87.466, 168.5171
10150.000000, 86.891, 173.1948
10300.000000, 86.398, 178.1663
10440.000000, 86.021, -176.8517
10600.000000, 85.717, -170.6652
10750.000000, 85.609, -164.3794
10900.000000, 85.745, -157.8764
11060.000000, 86.222, -151.4933
11200.000000, 86.887, -147.3457
11380.000000, 87.878, -144.8761
11500.000000, 88.499, -144.7653
11720.000000, 89.506, -146.4025
11800.000000, 89.828, -147.5484
12060.000000, 90.635, -152.3367
12200.000000, 90.983, -155.0918
12410.000000, 91.498, -159.5708
12500.000000, 91.724, -161.7435
12650.000000, 92.098, -165.8520
12800.000000, 92.450, -170.6650
13150.000000, 93.008, 175.3076
13200.000000, 93.040, 173.0467
13400.000000, 93.021, 163.6987
