* Measurement data measured by REW V5.31.3
* Source: Frequency response averaged data
* Format: Averaged data produced from the rms magnitudes of Dusk Analog (L) 1, Dusk Analog (L) 2, Dusk Analog (L) 3
* Dated: Aug 8, 2024 9:10:22 AM
* REW Settings:
*  C-weighting compensation: Off
*  Target level: 75.0 dB
* Note: ; Averaged data produced from the rms magnitudes of Dusk Analog (L) 1, Dusk Analog (L) 2, Dusk Analog (L) 3
* Measurement: Moondrop Dusk Analog L
* Smoothing: 1/24 octave
* Frequency Step: 1/48 octave
* Start Frequency: 2.200 Hz
*
* Freq(Hz), SPL(dB)
2.200000, 89.804
2.240000, 90.008
2.270000, 90.195
2.300000, 90.380
2.330000, 90.561
2.360000, 90.737
2.400000, 90.967
2.430000, 91.135
2.470000, 91.354
2.500000, 91.514
2.540000, 91.722
2.580000, 91.925
2.620000, 92.121
2.650000, 92.264
2.690000, 92.450
2.720000, 92.585
2.760000, 92.760
2.800000, 92.931
2.850000, 93.137
2.900000, 93.336
2.950000, 93.528
3.000000, 93.713
3.040000, 93.855
3.070000, 93.959
3.110000, 94.093
3.150000, 94.224
3.200000, 94.382
3.250000, 94.535
3.300000, 94.683
3.350000, 94.826
3.400000, 94.964
3.450000, 95.097
3.500000, 95.225
3.550000, 95.349
3.600000, 95.470
3.650000, 95.588
3.700000, 95.703
3.750000, 95.814
3.820000, 95.965
3.870000, 96.070
3.950000, 96.232
4.000000, 96.332
4.060000, 96.449
4.120000, 96.563
4.180000, 96.676
4.250000, 96.804
4.310000, 96.912
4.370000, 97.018
4.440000, 97.140
4.500000, 97.243
4.550000, 97.327
4.620000, 97.444
4.680000, 97.542
4.750000, 97.655
4.820000, 97.766
4.870000, 97.844
4.940000, 97.951
5.000000, 98.040
5.080000, 98.157
5.150000, 98.257
5.220000, 98.354
5.300000, 98.461
5.380000, 98.565
5.450000, 98.653
5.520000, 98.737
5.600000, 98.831
5.700000, 98.943
5.800000, 99.049
5.900000, 99.151
6.000000, 99.247
6.080000, 99.321
6.150000, 99.383
6.220000, 99.444
6.300000, 99.511
6.400000, 99.592
6.500000, 99.670
6.600000, 99.746
6.700000, 99.820
6.800000, 99.892
6.900000, 99.962
7.000000, 100.031
7.100000, 100.099
7.200000, 100.165
7.300000, 100.230
7.400000, 100.294
7.500000, 100.356
7.620000, 100.428
7.750000, 100.504
7.880000, 100.577
8.000000, 100.641
8.120000, 100.703
8.250000, 100.766
8.380000, 100.827
8.500000, 100.880
8.620000, 100.930
8.750000, 100.983
8.850000, 101.021
9.000000, 101.076
9.120000, 101.119
9.250000, 101.163
9.380000, 101.206
9.500000, 101.244
9.620000, 101.281
9.750000, 101.321
9.880000, 101.359
10.000000, 101.393
10.150000, 101.435
10.300000, 101.476
10.440000, 101.513
10.600000, 101.553
10.750000, 101.588
10.900000, 101.622
11.060000, 101.655
11.200000, 101.682
11.380000, 101.713
11.500000, 101.731
11.720000, 101.760
11.800000, 101.770
12.060000, 101.796
12.200000, 101.808
12.410000, 101.824
12.500000, 101.831
12.650000, 101.843
12.800000, 101.856
13.150000, 101.889
13.200000, 101.895
13.400000, 101.917
13.600000, 101.940
13.800000, 101.964
14.000000, 101.986
14.300000, 102.013
14.500000, 102.026
14.750000, 102.037
15.000000, 102.041
15.250000, 102.041
15.500000, 102.039
15.750000, 102.036
16.000000, 102.033
16.250000, 102.031
16.500000, 102.029
16.750000, 102.028
17.000000, 102.028
17.250000, 102.027
17.500000, 102.027
17.750000, 102.026
18.000000, 102.025
18.250000, 102.023
18.500000, 102.019
18.750000, 102.013
19.000000, 102.002
19.250000, 101.989
19.500000, 101.973
19.750000, 101.956
20.000000, 101.941
20.299999, 101.929
20.600000, 101.923
20.900000, 101.923
21.200001, 101.926
21.400000, 101.927
21.799999, 101.920
22.000000, 101.911
22.400000, 101.881
22.700001, 101.852
23.000000, 101.822
23.299999, 101.794
23.600000, 101.770
24.000000, 101.744
24.299999, 101.728
24.700001, 101.706
25.000000, 101.687
25.400000, 101.659
25.799999, 101.628
26.200001, 101.595
26.500000, 101.569
26.900000, 101.533
27.200001, 101.506
27.600000, 101.469
28.000000, 101.433
28.500000, 101.391
29.000000, 101.354
29.500000, 101.320
30.000000, 101.287
30.400000, 101.259
30.700001, 101.237
31.100000, 101.207
31.500000, 101.179
32.000000, 101.149
32.500000, 101.122
33.000000, 101.090
33.500000, 101.049
34.000000, 101.000
34.500000, 100.949
35.000000, 100.902
35.500000, 100.860
36.000000, 100.819
36.500000, 100.778
37.000000, 100.738
37.500000, 100.699
38.200001, 100.643
38.700001, 100.598
39.500000, 100.521
40.000000, 100.473
40.599998, 100.419
41.200001, 100.369
41.799999, 100.319
42.500000, 100.261
43.099998, 100.213
43.700001, 100.168
44.400002, 100.115
45.000000, 100.069
45.500000, 100.030
46.200001, 99.978
46.799999, 99.934
47.500000, 99.881
48.200001, 99.826
48.700001, 99.787
49.400002, 99.733
50.000000, 99.688
50.799999, 99.627
51.500000, 99.574
52.200001, 99.521
53.000000, 99.464
53.799999, 99.406
54.500000, 99.357
55.200001, 99.307
56.000000, 99.252
57.000000, 99.183
58.000000, 99.114
59.000000, 99.046
60.000000, 98.977
60.799999, 98.922
61.500000, 98.873
62.200001, 98.824
63.000000, 98.769
64.000000, 98.702
65.000000, 98.637
66.000000, 98.572
67.000000, 98.504
68.000000, 98.435
69.000000, 98.368
70.000000, 98.302
71.000000, 98.238
72.000000, 98.175
73.000000, 98.113
74.000000, 98.053
75.000000, 97.994
76.199997, 97.923
77.500000, 97.846
78.800003, 97.769
80.000000, 97.698
81.199997, 97.627
82.500000, 97.549
83.800003, 97.473
85.000000, 97.409
86.199997, 97.348
87.500000, 97.285
88.500000, 97.234
90.000000, 97.154
91.199997, 97.090
92.500000, 97.023
93.800003, 96.960
95.000000, 96.902
96.199997, 96.844
97.500000, 96.777
98.800003, 96.707
100.000000, 96.641
101.500000, 96.562
103.000000, 96.489
104.400002, 96.423
106.000000, 96.342
107.500000, 96.257
109.000000, 96.168
110.599998, 96.085
112.000000, 96.032
113.800003, 95.992
115.000000, 95.974
117.199997, 95.956
118.000000, 95.963
120.599998, 96.019
122.000000, 96.009
124.099998, 95.927
125.000000, 95.891
126.500000, 95.847
128.000000, 95.814
131.500000, 95.721
132.000000, 95.706
134.000000, 95.650
136.000000, 95.602
138.000000, 95.555
140.000000, 95.501
143.000000, 95.418
145.000000, 95.367
147.500000, 95.308
150.000000, 95.246
152.500000, 95.183
155.000000, 95.123
157.500000, 95.066
160.000000, 95.013
162.500000, 94.964
165.000000, 94.919
167.500000, 94.874
170.000000, 94.831
172.500000, 94.789
175.000000, 94.748
177.500000, 94.708
180.000000, 94.670
182.500000, 94.632
185.000000, 94.595
187.500000, 94.559
190.000000, 94.523
192.500000, 94.489
195.000000, 94.456
197.500000, 94.426
200.000000, 94.400
203.000000, 94.377
206.000000, 94.363
209.000000, 94.362
212.000000, 94.371
214.000000, 94.381
218.000000, 94.406
220.000000, 94.418
224.000000, 94.435
227.000000, 94.440
230.000000, 94.439
233.000000, 94.433
236.000000, 94.425
240.000000, 94.411
243.000000, 94.399
247.000000, 94.383
250.000000, 94.370
254.000000, 94.354
258.000000, 94.340
262.000000, 94.327
265.000000, 94.317
269.000000, 94.306
272.000000, 94.299
276.000000, 94.290
280.000000, 94.282
285.000000, 94.273
290.000000, 94.266
295.000000, 94.259
300.000000, 94.254
304.000000, 94.251
307.000000, 94.249
311.000000, 94.247
315.000000, 94.245
320.000000, 94.243
325.000000, 94.241
330.000000, 94.239
335.000000, 94.238
340.000000, 94.238
345.000000, 94.238
350.000000, 94.239
355.000000, 94.239
360.000000, 94.240
365.000000, 94.241
370.000000, 94.242
375.000000, 94.243
382.000000, 94.245
387.000000, 94.246
395.000000, 94.248
400.000000, 94.249
406.000000, 94.250
412.000000, 94.251
418.000000, 94.252
425.000000, 94.254
431.000000, 94.255
437.000000, 94.255
444.000000, 94.256
450.000000, 94.258
455.000000, 94.259
462.000000, 94.261
468.000000, 94.262
475.000000, 94.265
482.000000, 94.267
487.000000, 94.269
494.000000, 94.272
500.000000, 94.273
508.000000, 94.275
515.000000, 94.277
522.000000, 94.277
530.000000, 94.278
538.000000, 94.279
545.000000, 94.279
552.000000, 94.280
560.000000, 94.281
570.000000, 94.281
580.000000, 94.282
590.000000, 94.283
600.000000, 94.285
608.000000, 94.286
615.000000, 94.288
622.000000, 94.289
630.000000, 94.291
640.000000, 94.294
650.000000, 94.298
660.000000, 94.302
670.000000, 94.308
680.000000, 94.314
690.000000, 94.321
700.000000, 94.329
710.000000, 94.338
720.000000, 94.348
730.000000, 94.360
740.000000, 94.372
750.000000, 94.386
762.000000, 94.404
775.000000, 94.425
788.000000, 94.450
800.000000, 94.475
812.000000, 94.503
825.000000, 94.536
838.000000, 94.572
850.000000, 94.609
862.000000, 94.649
875.000000, 94.696
885.000000, 94.734
900.000000, 94.797
912.000000, 94.851
925.000000, 94.913
938.000000, 94.979
950.000000, 95.044
962.000000, 95.111
975.000000, 95.188
988.000000, 95.267
1000.000000, 95.343
1015.000000, 95.441
1030.000000, 95.541
1044.000000, 95.637
1060.000000, 95.748
1075.000000, 95.853
1090.000000, 95.958
1106.000000, 96.070
1120.000000, 96.166
1138.000000, 96.287
1150.000000, 96.367
1172.000000, 96.508
1180.000000, 96.557
1206.000000, 96.712
1220.000000, 96.791
1241.000000, 96.903
1250.000000, 96.949
1265.000000, 97.023
1280.000000, 97.094
1315.000000, 97.247
1320.000000, 97.267
1340.000000, 97.348
1360.000000, 97.427
1380.000000, 97.505
1400.000000, 97.581
1430.000000, 97.690
1450.000000, 97.757
1475.000000, 97.833
1500.000000, 97.901
1525.000000, 97.963
1550.000000, 98.022
1575.000000, 98.078
1600.000000, 98.133
1625.000000, 98.186
1650.000000, 98.240
1675.000000, 98.294
1700.000000, 98.347
1725.000000, 98.402
1750.000000, 98.457
1775.000000, 98.514
1800.000000, 98.573
1825.000000, 98.633
1850.000000, 98.695
1875.000000, 98.757
1900.000000, 98.819
1925.000000, 98.880
1950.000000, 98.941
1975.000000, 99.001
2000.000000, 99.061
2030.000000, 99.133
2060.000000, 99.204
2090.000000, 99.275
2120.000000, 99.348
2140.000000, 99.397
2180.000000, 99.500
2200.000000, 99.555
2240.000000, 99.672
2270.000000, 99.767
2300.000000, 99.870
2330.000000, 99.976
2360.000000, 100.084
2400.000000, 100.221
2430.000000, 100.314
2470.000000, 100.419
2500.000000, 100.483
2540.000000, 100.552
2580.000000, 100.603
2620.000000, 100.641
2650.000000, 100.662
2690.000000, 100.680
2720.000000, 100.686
2760.000000, 100.686
2800.000000, 100.678
2850.000000, 100.657
2900.000000, 100.626
2950.000000, 100.588
3000.000000, 100.546
3040.000000, 100.511
3070.000000, 100.484
3110.000000, 100.449
3150.000000, 100.414
3200.000000, 100.372
3250.000000, 100.329
3300.000000, 100.284
3350.000000, 100.234
3400.000000, 100.178
3450.000000, 100.115
3500.000000, 100.046
3550.000000, 99.972
3600.000000, 99.895
3650.000000, 99.818
3700.000000, 99.743
3750.000000, 99.673
3820.000000, 99.586
3870.000000, 99.532
3950.000000, 99.457
4000.000000, 99.414
4060.000000, 99.366
4120.000000, 99.320
4180.000000, 99.276
4250.000000, 99.228
4310.000000, 99.191
4370.000000, 99.158
4440.000000, 99.124
4500.000000, 99.099
4550.000000, 99.080
4620.000000, 99.055
4680.000000, 99.032
4750.000000, 99.002
4820.000000, 98.962
4870.000000, 98.927
4940.000000, 98.865
5000.000000, 98.800
5080.000000, 98.698
5150.000000, 98.598
5220.000000, 98.494
5300.000000, 98.374
5380.000000, 98.255
5450.000000, 98.153
5520.000000, 98.054
5600.000000, 97.944
5700.000000, 97.808
5800.000000, 97.670
5900.000000, 97.525
6000.000000, 97.367
6080.000000, 97.229
6150.000000, 97.104
6220.000000, 96.982
6300.000000, 96.864
6400.000000, 96.784
6500.000000, 96.817
6600.000000, 96.981
6700.000000, 97.272
6800.000000, 97.671
6900.000000, 98.154
7000.000000, 98.694
7100.000000, 99.254
7200.000000, 99.783
7300.000000, 100.228
7400.000000, 100.538
7500.000000, 100.682
7620.000000, 100.630
7750.000000, 100.333
7880.000000, 99.849
8000.000000, 99.280
8120.000000, 98.620
8250.000000, 97.832
8380.000000, 97.027
8500.000000, 96.381
8620.000000, 95.936
8750.000000, 95.665
8850.000000, 95.511
9000.000000, 95.226
9120.000000, 94.954
9250.000000, 94.708
9380.000000, 94.583
9500.000000, 94.583
9620.000000, 94.666
9750.000000, 94.803
9880.000000, 94.938
10000.000000, 95.022
10150.000000, 95.032
10300.000000, 94.910
10440.000000, 94.668
10600.000000, 94.247
10750.000000, 93.731
10900.000000, 93.123
11060.000000, 92.397
11200.000000, 91.714
11380.000000, 90.799
11500.000000, 90.187
11720.000000, 89.151
11800.000000, 88.827
12060.000000, 88.036
12200.000000, 87.761
12410.000000, 87.477
12500.000000, 87.385
12650.000000, 87.257
12800.000000, 87.153
13150.000000, 86.986
13200.000000, 86.970
13400.000000, 86.927
13600.000000, 86.918
13800.000000, 86.945
14000.000000, 87.021
14300.000000, 87.273
14500.000000, 87.593
14750.000000, 88.270
15000.000000, 89.351
15250.000000, 90.821
15500.000000, 92.457
15750.000000, 93.884
16000.000000, 94.732
16250.000000, 94.784
16500.000000, 94.035
16750.000000, 92.667
17000.000000, 90.939
17250.000000, 89.096
17500.000000, 87.303
17750.000000, 85.641
18000.000000, 84.132
18250.000000, 82.775
18500.000000, 81.562
18750.000000, 80.470
19000.000000, 79.461
19250.000000, 78.488
19500.000000, 77.534
19750.000000, 76.679
20000.000000, 76.150
