* Measurement data measured by REW V5.31.3
* Source: EXCL: Headset (USB-C to 3.5mm Headphone Jack Adapter), MICROPHONE (Master Volume), 0, volume: 0.700
* Format: 256k Log Swept Sine, 1 sweep at -12.0 dBFS with no timing reference
* Dated: Dec 21, 2024 1:55:43 AM
* REW Settings:
*  C-weighting compensation: Off
*  Target level: 75.0 dB
* Note: ; 
* Measurement: Duality BH S+ IMP R
* Smoothing: 1/24 octave
* Frequency Step: 1/48 octave
* Start Frequency: 1.000 Hz
*
* Freq(Hz), SPL(dB), Phase(degrees)
1.000000, 84.514, -166.7254
1.015000, 84.746, -167.8009
1.030000, 84.975, -168.8570
1.044000, 85.186, -169.8275
1.060000, 85.423, -170.9211
1.075000, 85.641, -171.9341
1.090000, 85.855, -172.9377
1.106000, 86.079, -174.0010
1.120000, 86.271, -174.9273
1.138000, 86.514, -176.1121
1.150000, 86.673, -176.8970
1.172000, 86.960, -178.3230
1.180000, 87.063, -178.8367
1.206000, 87.392, 179.5143
1.220000, 87.566, 178.6405
1.241000, 87.822, 177.3502
1.250000, 87.930, 176.8050
1.265000, 88.109, 175.9072
1.280000, 88.285, 175.0233
1.315000, 88.688, 173.0166
1.320000, 88.744, 172.7364
1.340000, 88.969, 171.6319
1.360000, 89.190, 170.5535
1.380000, 89.407, 169.5013
1.400000, 89.622, 168.4747
1.430000, 89.940, 166.9823
1.450000, 90.148, 166.0179
1.475000, 90.405, 164.8427
1.500000, 90.657, 163.6927
1.525000, 90.902, 162.5640
1.550000, 91.141, 161.4556
1.575000, 91.374, 160.3669
1.600000, 91.603, 159.2973
1.625000, 91.826, 158.2461
1.650000, 92.044, 157.2123
1.675000, 92.259, 156.1950
1.700000, 92.469, 155.1933
1.725000, 92.676, 154.2060
1.750000, 92.879, 153.2322
1.775000, 93.080, 152.2707
1.800000, 93.277, 151.3203
1.825000, 93.473, 150.3794
1.850000, 93.665, 149.4445
1.875000, 93.853, 148.5128
1.900000, 94.037, 147.5847
1.925000, 94.217, 146.6621
1.950000, 94.394, 145.7465
1.975000, 94.567, 144.8394
2.000000, 94.736, 143.9421
2.030000, 94.936, 142.8797
2.060000, 95.131, 141.8345
2.090000, 95.322, 140.8076
2.120000, 95.510, 139.8000
2.140000, 95.634, 139.1392
2.180000, 95.878, 137.8439
2.200000, 95.998, 137.2079
2.240000, 96.234, 135.9495
2.270000, 96.405, 135.0138
2.300000, 96.573, 134.0857
2.330000, 96.737, 133.1668
2.360000, 96.898, 132.2583
2.400000, 97.107, 131.0652
2.430000, 97.261, 130.1855
2.470000, 97.462, 129.0341
2.500000, 97.610, 128.1877
2.540000, 97.804, 127.0827
2.580000, 97.994, 126.0016
2.620000, 98.180, 124.9360
2.650000, 98.316, 124.1447
2.690000, 98.493, 123.1010
2.720000, 98.623, 122.3273
2.760000, 98.793, 121.3092
2.800000, 98.960, 120.3077
2.850000, 99.163, 119.0807
2.900000, 99.362, 117.8830
2.950000, 99.557, 116.7124
3.000000, 99.747, 115.5602
3.040000, 99.895, 114.6497
3.070000, 100.004, 113.9738
3.110000, 100.147, 113.0827
3.150000, 100.287, 112.2040
3.200000, 100.458, 111.1243
3.250000, 100.627, 110.0669
3.300000, 100.793, 109.0317
3.350000, 100.955, 108.0150
3.400000, 101.113, 107.0130
3.450000, 101.268, 106.0251
3.500000, 101.420, 105.0515
3.550000, 101.568, 104.0923
3.600000, 101.715, 103.1476
3.650000, 101.858, 102.2172
3.700000, 102.000, 101.2992
3.750000, 102.138, 100.3916
3.820000, 102.328, 99.1376
3.870000, 102.460, 98.2542
3.950000, 102.668, 96.8630
4.000000, 102.794, 96.0077
4.060000, 102.944, 94.9942
4.120000, 103.090, 93.9922
4.180000, 103.233, 93.0008
4.250000, 103.395, 91.8583
4.310000, 103.532, 90.8919
4.370000, 103.666, 89.9373
4.440000, 103.818, 88.8366
4.500000, 103.946, 87.9015
4.550000, 104.050, 87.1281
4.620000, 104.192, 86.0562
4.680000, 104.312, 85.1487
4.750000, 104.448, 84.1039
4.820000, 104.580, 83.0716
4.870000, 104.673, 82.3399
4.940000, 104.799, 81.3243
5.000000, 104.905, 80.4632
5.080000, 105.042, 79.3311
5.150000, 105.159, 78.3554
5.220000, 105.273, 77.3907
5.300000, 105.400, 76.2999
5.380000, 105.522, 75.2240
5.450000, 105.627, 74.2965
5.520000, 105.729, 73.3823
5.600000, 105.842, 72.3504
5.700000, 105.980, 71.0788
5.800000, 106.112, 69.8295
5.900000, 106.241, 68.6038
6.000000, 106.365, 67.3979
6.080000, 106.462, 66.4465
6.150000, 106.545, 65.6241
6.220000, 106.626, 64.8110
6.300000, 106.716, 63.8924
6.400000, 106.826, 62.7581
6.500000, 106.933, 61.6393
6.600000, 107.037, 60.5362
6.700000, 107.138, 59.4469
6.800000, 107.235, 58.3703
6.900000, 107.330, 57.3069
7.000000, 107.422, 56.2567
7.100000, 107.511, 55.2177
7.200000, 107.598, 54.1900
7.300000, 107.682, 53.1747
7.400000, 107.763, 52.1714
7.500000, 107.842, 51.1785
7.620000, 107.933, 50.0015
7.750000, 108.029, 48.7451
7.880000, 108.121, 47.5059
8.000000, 108.203, 46.3766
8.120000, 108.283, 45.2612
8.250000, 108.366, 44.0668
8.380000, 108.447, 42.8854
8.500000, 108.519, 41.8050
8.620000, 108.589, 40.7333
8.750000, 108.663, 39.5809
8.850000, 108.717, 38.6996
9.000000, 108.796, 37.3849
9.120000, 108.857, 36.3400
9.250000, 108.920, 35.2141
9.380000, 108.979, 34.0942
9.500000, 109.032, 33.0682
9.620000, 109.081, 32.0500
9.750000, 109.131, 30.9556
9.880000, 109.178, 29.8739
10.000000, 109.218, 28.8874
10.150000, 109.266, 27.6709
10.300000, 109.309, 26.4761
10.440000, 109.347, 25.3810
10.600000, 109.388, 24.1523
10.750000, 109.425, 23.0229
10.900000, 109.460, 21.9128
11.060000, 109.496, 20.7471
11.200000, 109.526, 19.7405
11.380000, 109.565, 18.4598
11.500000, 109.590, 17.6125
11.720000, 109.633, 16.0690
11.800000, 109.648, 15.5099
12.060000, 109.692, 13.7014
12.200000, 109.712, 12.7344
12.410000, 109.739, 11.2960
12.500000, 109.748, 10.6862
12.650000, 109.761, 9.6796
12.800000, 109.772, 8.6881
13.150000, 109.788, 6.4452
13.200000, 109.790, 6.1332
13.400000, 109.795, 4.9061
13.600000, 109.800, 3.7078
13.800000, 109.805, 2.5330
14.000000, 109.810, 1.3724
14.300000, 109.818, -0.3568
14.500000, 109.821, -1.5102
14.750000, 109.821, -2.9532
15.000000, 109.815, -4.3912
15.250000, 109.802, -5.8090
15.500000, 109.781, -7.1886
15.750000, 109.755, -8.5165
16.000000, 109.728, -9.7863
16.250000, 109.702, -11.0057
16.500000, 109.681, -12.1920
16.750000, 109.666, -13.3696
17.000000, 109.654, -14.5620
17.250000, 109.642, -15.7827
17.500000, 109.627, -17.0336
17.750000, 109.604, -18.3007
18.000000, 109.573, -19.5616
18.250000, 109.532, -20.7910
18.500000, 109.485, -21.9677
18.750000, 109.437, -23.0839
19.000000, 109.389, -24.1441
19.250000, 109.346, -25.1661
19.500000, 109.307, -26.1721
19.750000, 109.271, -27.1802
20.000000, 109.235, -28.2000
20.299999, 109.187, -29.4318
20.600000, 109.131, -30.6474
20.900000, 109.068, -31.8152
21.200001, 109.002, -32.9155
21.400000, 108.960, -33.6133
21.799999, 108.884, -34.9578
22.000000, 108.850, -35.6263
22.400000, 108.787, -36.9976
22.700001, 108.737, -38.0625
23.000000, 108.679, -39.1395
23.299999, 108.614, -40.1997
23.600000, 108.543, -41.2209
24.000000, 108.448, -42.5172
24.299999, 108.379, -43.4619
24.700001, 108.291, -44.7248
25.000000, 108.223, -45.6843
25.400000, 108.124, -46.9551
25.799999, 108.018, -48.1658
26.200001, 107.912, -49.2889
26.500000, 107.840, -50.0918
26.900000, 107.756, -51.1652
27.200001, 107.697, -52.0044
27.600000, 107.616, -53.1748
28.000000, 107.523, -54.3585
28.500000, 107.395, -55.7590
29.000000, 107.268, -57.0327
29.500000, 107.153, -58.2493
30.000000, 107.045, -59.4876
30.400000, 106.953, -60.4880
30.700001, 106.880, -61.2185
31.100000, 106.779, -62.1406
31.500000, 106.682, -63.0035
32.000000, 106.570, -64.0500
32.500000, 106.465, -65.1289
33.000000, 106.354, -66.2523
33.500000, 106.233, -67.3655
34.000000, 106.104, -68.4080
34.500000, 105.979, -69.3737
35.000000, 105.865, -70.3143
35.500000, 105.757, -71.2868
36.000000, 105.646, -72.3002
36.500000, 105.527, -73.3111
37.000000, 105.403, -74.2726
37.500000, 105.281, -75.1799
38.200001, 105.116, -76.4141
38.700001, 104.996, -77.2768
39.500000, 104.802, -78.5470
40.000000, 104.691, -79.2833
40.599998, 104.569, -80.2077
41.200001, 104.442, -81.2133
41.799999, 104.297, -82.2028
42.500000, 104.121, -83.2101
43.099998, 103.984, -83.9986
43.700001, 103.855, -84.8061
44.400002, 103.704, -85.7654
45.000000, 103.577, -86.5720
45.500000, 103.473, -87.2489
46.200001, 103.324, -88.2053
46.799999, 103.191, -88.9767
47.500000, 103.044, -89.8047
48.200001, 102.907, -90.6453
48.700001, 102.807, -91.2712
49.400002, 102.661, -92.1314
50.000000, 102.533, -92.8228
50.799999, 102.366, -93.6909
51.500000, 102.227, -94.4331
52.200001, 102.092, -95.2103
53.000000, 101.927, -96.1097
53.799999, 101.758, -96.8899
54.500000, 101.628, -97.5297
55.200001, 101.502, -98.2476
56.000000, 101.345, -99.0689
57.000000, 101.152, -99.9474
58.000000, 100.972, -100.8389
59.000000, 100.788, -101.7054
60.000000, 100.612, -102.5699
60.799999, 100.464, -103.2858
61.500000, 100.330, -103.8514
62.200001, 100.204, -104.3698
63.000000, 100.069, -104.9779
64.000000, 99.902, -105.7782
65.000000, 99.736, -106.5558
66.000000, 99.574, -107.3160
67.000000, 99.410, -108.0668
68.000000, 99.246, -108.7451
69.000000, 99.090, -109.3882
70.000000, 98.933, -110.0431
71.000000, 98.774, -110.6677
72.000000, 98.616, -111.2566
73.000000, 98.463, -111.8434
74.000000, 98.309, -112.4326
75.000000, 98.158, -112.9840
76.199997, 97.985, -113.6476
77.500000, 97.797, -114.3719
78.800003, 97.617, -115.0475
80.000000, 97.453, -115.7101
81.199997, 97.284, -116.3409
82.500000, 97.107, -116.9578
83.800003, 96.938, -117.5656
85.000000, 96.785, -118.1572
86.199997, 96.627, -118.7281
87.500000, 96.462, -119.2756
88.500000, 96.343, -119.7164
90.000000, 96.161, -120.4009
91.199997, 96.026, -120.8741
92.500000, 95.885, -121.4867
93.800003, 95.732, -122.0176
95.000000, 95.597, -122.4329
96.199997, 95.466, -122.8467
97.500000, 95.323, -123.2875
98.800003, 95.183, -123.7256
100.000000, 95.055, -124.1494
101.500000, 94.893, -124.6978
103.000000, 94.728, -125.2243
104.400002, 94.573, -125.6510
106.000000, 94.413, -126.1014
107.500000, 94.278, -126.5850
109.000000, 94.150, -127.0735
110.599998, 94.017, -127.5538
112.000000, 93.895, -127.9113
113.800003, 93.727, -128.3044
115.000000, 93.615, -128.5875
117.199997, 93.410, -129.4327
118.000000, 93.328, -129.8320
120.599998, 93.034, -130.4363
122.000000, 92.941, -130.3871
124.099998, 92.822, -130.5924
125.000000, 92.766, -130.7649
126.500000, 92.660, -131.1577
128.000000, 92.554, -131.5857
131.500000, 92.331, -132.7657
132.000000, 92.292, -132.9011
134.000000, 92.135, -133.2458
136.000000, 92.004, -133.5212
138.000000, 91.892, -133.8524
140.000000, 91.781, -134.1143
143.000000, 91.558, -134.4840
145.000000, 91.388, -134.5814
147.500000, 91.294, -134.7421
150.000000, 91.202, -135.5969
152.500000, 91.042, -136.0630
155.000000, 90.898, -136.3468
157.500000, 90.794, -136.7156
160.000000, 90.697, -137.0231
162.500000, 90.589, -137.3517
165.000000, 90.481, -137.7970
167.500000, 90.382, -138.2467
170.000000, 90.288, -138.6534
172.500000, 90.179, -139.1029
175.000000, 90.071, -139.5782
177.500000, 89.967, -140.0289
180.000000, 89.861, -140.3881
182.500000, 89.752, -140.6898
185.000000, 89.649, -140.9806
187.500000, 89.550, -141.3214
190.000000, 89.454, -141.6650
192.500000, 89.363, -141.9907
195.000000, 89.274, -142.2596
197.500000, 89.189, -142.5013
200.000000, 89.109, -142.7885
203.000000, 89.016, -143.1322
206.000000, 88.925, -143.4372
209.000000, 88.831, -143.7446
212.000000, 88.736, -144.0519
214.000000, 88.675, -144.2547
218.000000, 88.557, -144.6047
220.000000, 88.503, -144.7753
224.000000, 88.398, -145.1464
227.000000, 88.318, -145.4023
230.000000, 88.235, -145.6394
233.000000, 88.156, -145.8807
236.000000, 88.084, -146.1122
240.000000, 87.991, -146.4057
243.000000, 87.921, -146.6333
247.000000, 87.838, -146.8995
250.000000, 87.776, -147.0981
254.000000, 87.687, -147.3722
258.000000, 87.603, -147.6664
262.000000, 87.525, -147.8927
265.000000, 87.468, -148.0261
269.000000, 87.392, -148.2472
272.000000, 87.337, -148.4296
276.000000, 87.264, -148.6671
280.000000, 87.195, -148.8880
285.000000, 87.115, -149.1589
290.000000, 87.033, -149.3760
295.000000, 86.951, -149.5743
300.000000, 86.876, -149.7531
304.000000, 86.820, -149.8918
307.000000, 86.780, -150.0011
311.000000, 86.731, -150.1542
315.000000, 86.685, -150.3020
320.000000, 86.628, -150.4854
325.000000, 86.570, -150.6727
330.000000, 86.509, -150.8510
335.000000, 86.451, -151.0352
340.000000, 86.394, -151.2196
345.000000, 86.340, -151.3799
350.000000, 86.284, -151.5024
355.000000, 86.228, -151.6180
360.000000, 86.177, -151.7449
365.000000, 86.130, -151.8572
370.000000, 86.083, -151.9596
375.000000, 86.037, -152.0559
382.000000, 85.973, -152.1761
387.000000, 85.931, -152.2595
395.000000, 85.869, -152.3931
400.000000, 85.830, -152.4708
406.000000, 85.781, -152.5527
412.000000, 85.733, -152.6174
418.000000, 85.686, -152.6803
425.000000, 85.635, -152.7452
431.000000, 85.592, -152.7784
437.000000, 85.550, -152.8005
444.000000, 85.501, -152.8352
450.000000, 85.462, -152.8494
455.000000, 85.430, -152.8537
462.000000, 85.385, -152.8651
468.000000, 85.346, -152.8636
475.000000, 85.301, -152.8510
482.000000, 85.259, -152.8320
487.000000, 85.232, -152.8131
494.000000, 85.194, -152.7844
500.000000, 85.163, -152.7682
508.000000, 85.118, -152.7252
515.000000, 85.079, -152.6714
522.000000, 85.043, -152.6114
530.000000, 85.003, -152.5193
538.000000, 84.959, -152.4354
545.000000, 84.923, -152.3351
552.000000, 84.892, -152.2316
560.000000, 84.856, -152.1086
570.000000, 84.810, -151.9352
580.000000, 84.767, -151.7575
590.000000, 84.722, -151.5581
600.000000, 84.677, -151.3522
608.000000, 84.646, -151.1736
615.000000, 84.619, -151.0223
622.000000, 84.591, -150.8512
630.000000, 84.560, -150.6398
640.000000, 84.520, -150.3759
650.000000, 84.481, -150.0787
660.000000, 84.445, -149.7592
670.000000, 84.411, -149.4403
680.000000, 84.377, -149.0970
690.000000, 84.344, -148.7473
700.000000, 84.309, -148.3710
710.000000, 84.275, -147.9792
720.000000, 84.246, -147.5562
730.000000, 84.222, -147.1050
740.000000, 84.202, -146.6442
750.000000, 84.183, -146.1909
762.000000, 84.158, -145.6372
775.000000, 84.137, -145.0196
788.000000, 84.118, -144.3707
800.000000, 84.101, -143.7398
812.000000, 84.087, -143.0785
825.000000, 84.078, -142.3369
838.000000, 84.075, -141.5642
850.000000, 84.075, -140.8337
862.000000, 84.081, -140.0882
875.000000, 84.093, -139.2771
885.000000, 84.106, -138.6406
900.000000, 84.133, -137.6490
912.000000, 84.161, -136.8514
925.000000, 84.194, -135.9825
938.000000, 84.234, -135.1201
950.000000, 84.279, -134.3287
962.000000, 84.329, -133.5216
975.000000, 84.390, -132.6340
988.000000, 84.457, -131.7577
1000.000000, 84.525, -130.9528
1015.000000, 84.615, -129.9664
1030.000000, 84.715, -129.0015
1044.000000, 84.819, -128.1102
1060.000000, 84.946, -127.1006
1075.000000, 85.073, -126.1915
1090.000000, 85.210, -125.3029
1106.000000, 85.369, -124.3913
1120.000000, 85.519, -123.6542
1138.000000, 85.724, -122.7786
1150.000000, 85.866, -122.2485
1172.000000, 86.137, -121.4264
1180.000000, 86.238, -121.1750
1206.000000, 86.569, -120.5250
1220.000000, 86.747, -120.2910
1241.000000, 87.012, -120.0764
1250.000000, 87.124, -120.0303
1265.000000, 87.306, -120.0067
1280.000000, 87.486, -120.0496
1315.000000, 87.882, -120.3922
1320.000000, 87.935, -120.4623
1340.000000, 88.137, -120.7957
1360.000000, 88.329, -121.2065
1380.000000, 88.507, -121.6603
1400.000000, 88.671, -122.1539
1430.000000, 88.891, -122.9416
1450.000000, 89.023, -123.4747
1475.000000, 89.171, -124.1481
1500.000000, 89.305, -124.8045
1525.000000, 89.423, -125.4418
1550.000000, 89.528, -126.0480
1575.000000, 89.624, -126.6063
1600.000000, 89.711, -127.1288
1625.000000, 89.790, -127.6233
1650.000000, 89.863, -128.0720
1675.000000, 89.931, -128.4789
1700.000000, 89.995, -128.8586
1725.000000, 90.057, -129.2057
1750.000000, 90.115, -129.5188
1775.000000, 90.171, -129.8024
1800.000000, 90.226, -130.0620
1825.000000, 90.280, -130.2957
1850.000000, 90.334, -130.4971
1875.000000, 90.389, -130.6791
1900.000000, 90.444, -130.8425
1925.000000, 90.499, -130.9861
1950.000000, 90.554, -131.1149
1975.000000, 90.610, -131.2358
2000.000000, 90.668, -131.3476
2030.000000, 90.739, -131.4698
2060.000000, 90.810, -131.5801
2090.000000, 90.883, -131.6790
2120.000000, 90.959, -131.7677
2140.000000, 91.011, -131.8270
2180.000000, 91.117, -131.9495
2200.000000, 91.171, -132.0098
2240.000000, 91.283, -132.1302
2270.000000, 91.369, -132.2230
2300.000000, 91.458, -132.3214
2330.000000, 91.548, -132.4302
2360.000000, 91.641, -132.5547
2400.000000, 91.768, -132.7434
2430.000000, 91.865, -132.9017
2470.000000, 91.999, -133.1377
2500.000000, 92.101, -133.3375
2540.000000, 92.240, -133.6334
2580.000000, 92.381, -133.9658
2620.000000, 92.524, -134.3486
2650.000000, 92.633, -134.6689
2690.000000, 92.780, -135.1377
2720.000000, 92.891, -135.5292
2760.000000, 93.040, -136.1121
2800.000000, 93.188, -136.7570
2850.000000, 93.373, -137.6511
2900.000000, 93.556, -138.6661
2950.000000, 93.735, -139.8068
3000.000000, 93.905, -141.0739
3040.000000, 94.034, -142.1764
3070.000000, 94.127, -143.0547
3110.000000, 94.242, -144.2938
3150.000000, 94.346, -145.6108
3200.000000, 94.459, -147.3619
3250.000000, 94.551, -149.2157
3300.000000, 94.618, -151.1649
3350.000000, 94.659, -153.1852
3400.000000, 94.672, -155.2456
3450.000000, 94.655, -157.3190
3500.000000, 94.607, -159.3861
3550.000000, 94.530, -161.4175
3600.000000, 94.427, -163.3890
3650.000000, 94.299, -165.2828
3700.000000, 94.148, -167.0880
3750.000000, 93.979, -168.7968
3820.000000, 93.711, -171.0200
3870.000000, 93.501, -172.4835
3950.000000, 93.134, -174.5938
4000.000000, 92.888, -175.7546
4060.000000, 92.579, -176.9672
4120.000000, 92.258, -177.9825
4180.000000, 91.927, -178.8021
4250.000000, 91.534, -179.5182
4310.000000, 91.196, -179.9260
4370.000000, 90.857, 179.8497
4440.000000, 90.464, 179.8109
4500.000000, 90.132, 179.9647
4550.000000, 89.858, -179.7768
4620.000000, 89.482, -179.2153
4680.000000, 89.166, -178.5342
4750.000000, 88.808, -177.4806
4820.000000, 88.473, -176.0769
4870.000000, 88.264, -174.8235
4940.000000, 88.047, -172.8110
5000.000000, 87.951, -171.1860
5080.000000, 87.893, -169.7525
5150.000000, 87.815, -169.0918
5220.000000, 87.679, -168.5577
5300.000000, 87.475, -167.7554
5380.000000, 87.258, -166.6453
5450.000000, 87.076, -165.4602
5520.000000, 86.910, -164.1114
5600.000000, 86.746, -162.4171
5700.000000, 86.581, -160.1492
5800.000000, 86.465, -157.7764
5900.000000, 86.394, -155.3599
6000.000000, 86.369, -152.9305
6080.000000, 86.380, -150.9955
6150.000000, 86.413, -149.3104
6220.000000, 86.467, -147.6427
6300.000000, 86.553, -145.7609
6400.000000, 86.703, -143.4520
6500.000000, 86.900, -141.2330
6600.000000, 87.145, -139.1378
6700.000000, 87.442, -137.1825
6800.000000, 87.793, -135.4091
6900.000000, 88.202, -133.8678
7000.000000, 88.671, -132.6174
7100.000000, 89.205, -131.7356
7200.000000, 89.805, -131.3257
7300.000000, 90.473, -131.5289
7400.000000, 91.203, -132.5254
7500.000000, 91.980, -134.5328
7620.000000, 92.930, -138.6003
7750.000000, 93.874, -145.3955
7880.000000, 94.554, -154.6715
8000.000000, 94.784, -164.7616
8120.000000, 94.554, -175.1198
8250.000000, 93.834, 174.7949
8380.000000, 92.781, 166.8634
8500.000000, 91.673, 161.6627
8620.000000, 90.553, 158.2653
8750.000000, 89.395, 156.1628
8850.000000, 88.565, 155.3667
9000.000000, 87.434, 155.1110
9120.000000, 86.624, 155.4698
9250.000000, 85.832, 156.2368
9380.000000, 85.117, 157.2600
9500.000000, 84.516, 158.3425
9620.000000, 83.964, 159.5135
9750.000000, 83.411, 160.8555
9880.000000, 82.894, 162.2787
10000.000000, 82.441, 163.6970
10150.000000, 81.909, 165.6978
10300.000000, 81.438, 168.0241
10440.000000, 81.080, 170.4429
10600.000000, 80.793, 173.2280
10750.000000, 80.635, 175.5194
10900.000000, 80.550, 177.2952
11060.000000, 80.493, 178.5743
11200.000000, 80.447, 179.2659
11380.000000, 80.375, 179.7444
11500.000000, 80.317, 179.8743
11720.000000, 80.187, 179.8520
11800.000000, 80.134, 179.7938
12060.000000, 79.954, 179.5151
12200.000000, 79.859, 179.3408
12410.000000, 79.727, 179.0560
12500.000000, 79.676, 178.9438
12650.000000, 79.610, 178.8112
12800.000000, 79.588, 178.7591
13150.000000, 79.802, 177.7787
13200.000000, 79.849, 177.3776
13400.000000, 80.000, 175.2808
13600.000000, 80.124, 172.9886
13800.000000, 80.297, 170.3577
14000.000000, 80.509, 166.9429
