* Measurement data measured by REW V5.31.3
* Source: EXCL: Headset (USB-C to 3.5mm Headphone Jack Adapter), MICROPHONE (Master Volume), 0, volume: 0.700
* Format: 256k Log Swept Sine, 1 sweep at -12.0 dBFS with no timing reference
* Dated: Dec 21, 2024 1:55:16 AM
* REW Settings:
*  C-weighting compensation: Off
*  Target level: 75.0 dB
* Note: ; 
* Measurement: Duality BH S- IMP R
* Smoothing: 1/24 octave
* Frequency Step: 1/48 octave
* Start Frequency: 1.000 Hz
*
* Freq(Hz), SPL(dB), Phase(degrees)
1.000000, 79.845, -170.3273
1.015000, 80.062, -171.3031
1.030000, 80.276, -172.2656
1.044000, 80.474, -173.1540
1.060000, 80.698, -174.1595
1.075000, 80.906, -175.0950
1.090000, 81.110, -176.0255
1.106000, 81.326, -177.0152
1.120000, 81.512, -177.8799
1.138000, 81.747, -178.9892
1.150000, 81.901, -179.7259
1.172000, 82.178, 178.9322
1.180000, 82.278, 178.4476
1.206000, 82.595, 176.8883
1.220000, 82.762, 176.0598
1.241000, 83.009, 174.8333
1.250000, 83.113, 174.3140
1.265000, 83.285, 173.4576
1.280000, 83.455, 172.6128
1.315000, 83.842, 170.6888
1.320000, 83.897, 170.4195
1.340000, 84.112, 169.3563
1.360000, 84.325, 168.3157
1.380000, 84.535, 167.2978
1.400000, 84.742, 166.3024
1.430000, 85.048, 164.8508
1.450000, 85.249, 163.9100
1.475000, 85.498, 162.7605
1.500000, 85.741, 161.6329
1.525000, 85.978, 160.5236
1.550000, 86.210, 159.4320
1.575000, 86.436, 158.3577
1.600000, 86.658, 157.3003
1.625000, 86.875, 156.2591
1.650000, 87.087, 155.2335
1.675000, 87.295, 154.2225
1.700000, 87.500, 153.2254
1.725000, 87.700, 152.2412
1.750000, 87.898, 151.2689
1.775000, 88.093, 150.3074
1.800000, 88.286, 149.3556
1.825000, 88.476, 148.4119
1.850000, 88.662, 147.4730
1.875000, 88.846, 146.5359
1.900000, 89.025, 145.6013
1.925000, 89.200, 144.6710
1.950000, 89.372, 143.7467
1.975000, 89.541, 142.8301
2.000000, 89.706, 141.9223
2.030000, 89.900, 140.8464
2.060000, 90.091, 139.7867
2.090000, 90.278, 138.7442
2.120000, 90.461, 137.7202
2.140000, 90.582, 137.0479
2.180000, 90.820, 135.7285
2.200000, 90.937, 135.0799
2.240000, 91.166, 133.7946
2.270000, 91.334, 132.8374
2.300000, 91.497, 131.8869
2.330000, 91.657, 130.9446
2.360000, 91.814, 130.0121
2.400000, 92.018, 128.7862
2.430000, 92.167, 127.8814
2.470000, 92.363, 126.6964
2.500000, 92.507, 125.8245
2.540000, 92.696, 124.6854
2.580000, 92.881, 123.5698
2.620000, 93.062, 122.4684
2.650000, 93.194, 121.6494
2.690000, 93.366, 120.5678
2.720000, 93.492, 119.7653
2.760000, 93.657, 118.7085
2.800000, 93.818, 117.6683
2.850000, 94.015, 116.3936
2.900000, 94.207, 115.1491
2.950000, 94.396, 113.9326
3.000000, 94.579, 112.7341
3.040000, 94.722, 111.7859
3.070000, 94.826, 111.0815
3.110000, 94.964, 110.1525
3.150000, 95.098, 109.2362
3.200000, 95.263, 108.1106
3.250000, 95.424, 107.0088
3.300000, 95.583, 105.9312
3.350000, 95.738, 104.8729
3.400000, 95.890, 103.8297
3.450000, 96.037, 102.8010
3.500000, 96.182, 101.7874
3.550000, 96.324, 100.7892
3.600000, 96.463, 99.8073
3.650000, 96.600, 98.8415
3.700000, 96.734, 97.8899
3.750000, 96.866, 96.9499
3.820000, 97.047, 95.6522
3.870000, 97.172, 94.7387
3.950000, 97.369, 93.3015
4.000000, 97.490, 92.4188
4.060000, 97.632, 91.3741
4.120000, 97.772, 90.3427
4.180000, 97.908, 89.3232
4.250000, 98.064, 88.1492
4.310000, 98.194, 87.1561
4.370000, 98.322, 86.1751
4.440000, 98.469, 85.0439
4.500000, 98.591, 84.0836
4.550000, 98.692, 83.2896
4.620000, 98.829, 82.1886
4.680000, 98.945, 81.2556
4.750000, 99.076, 80.1797
4.820000, 99.205, 79.1152
4.870000, 99.295, 78.3601
4.940000, 99.418, 77.3109
5.000000, 99.521, 76.4201
5.080000, 99.655, 75.2466
5.150000, 99.769, 74.2328
5.220000, 99.880, 73.2279
5.300000, 100.003, 72.0894
5.380000, 100.123, 70.9641
5.450000, 100.224, 69.9925
5.520000, 100.323, 69.0330
5.600000, 100.433, 67.9475
5.700000, 100.566, 66.6069
5.800000, 100.693, 65.2883
5.900000, 100.816, 63.9941
6.000000, 100.935, 62.7195
6.080000, 101.026, 61.7132
6.150000, 101.105, 60.8439
6.220000, 101.181, 59.9855
6.300000, 101.266, 59.0168
6.400000, 101.369, 57.8217
6.500000, 101.468, 56.6445
6.600000, 101.565, 55.4858
6.700000, 101.658, 54.3441
6.800000, 101.749, 53.2174
6.900000, 101.837, 52.1054
7.000000, 101.922, 51.0076
7.100000, 102.005, 49.9222
7.200000, 102.086, 48.8486
7.300000, 102.164, 47.7866
7.400000, 102.239, 46.7351
7.500000, 102.313, 45.6928
7.620000, 102.397, 44.4550
7.750000, 102.485, 43.1297
7.880000, 102.569, 41.8184
8.000000, 102.642, 40.6216
8.120000, 102.713, 39.4389
8.250000, 102.785, 38.1715
8.380000, 102.854, 36.9201
8.500000, 102.914, 35.7804
8.620000, 102.971, 34.6538
8.750000, 103.030, 33.4490
8.850000, 103.073, 32.5336
9.000000, 103.134, 31.1776
9.120000, 103.181, 30.1067
9.250000, 103.230, 28.9600
9.380000, 103.276, 27.8260
9.500000, 103.316, 26.7894
9.620000, 103.355, 25.7618
9.750000, 103.395, 24.6578
9.880000, 103.432, 23.5631
10.000000, 103.464, 22.5602
10.150000, 103.502, 21.3168
10.300000, 103.535, 20.0870
10.440000, 103.564, 18.9513
10.600000, 103.592, 17.6707
10.750000, 103.615, 16.4900
10.900000, 103.635, 15.3289
11.060000, 103.653, 14.1163
11.200000, 103.666, 13.0773
11.380000, 103.682, 11.7716
11.500000, 103.691, 10.9200
11.720000, 103.708, 9.3922
11.800000, 103.714, 8.8461
12.060000, 103.734, 7.0982
12.200000, 103.745, 6.1681
12.410000, 103.761, 4.7815
12.500000, 103.768, 4.1884
12.650000, 103.779, 3.2005
12.800000, 103.788, 2.2138
13.150000, 103.802, -0.0800
13.200000, 103.803, -0.4053
13.400000, 103.804, -1.6974
13.600000, 103.800, -2.9691
13.800000, 103.793, -4.2148
14.000000, 103.783, -5.4319
14.300000, 103.765, -7.2045
14.500000, 103.753, -8.3555
14.750000, 103.736, -9.7681
15.000000, 103.718, -11.1586
15.250000, 103.698, -12.5309
15.500000, 103.675, -13.8822
15.750000, 103.648, -15.2069
16.000000, 103.617, -16.4978
16.250000, 103.586, -17.7518
16.500000, 103.553, -18.9716
16.750000, 103.522, -20.1652
17.000000, 103.492, -21.3440
17.250000, 103.462, -22.5168
17.500000, 103.431, -23.6879
17.750000, 103.396, -24.8539
18.000000, 103.358, -26.0063
18.250000, 103.316, -27.1356
18.500000, 103.272, -28.2352
18.750000, 103.227, -29.3065
19.000000, 103.184, -30.3575
19.250000, 103.143, -31.4022
19.500000, 103.102, -32.4528
19.750000, 103.060, -33.5154
20.000000, 103.013, -34.5870
20.299999, 102.949, -35.8666
20.600000, 102.875, -37.1099
20.900000, 102.795, -38.2906
21.200001, 102.714, -39.3990
21.400000, 102.662, -40.1033
21.799999, 102.567, -41.4639
22.000000, 102.523, -42.1375
22.400000, 102.438, -43.4975
22.700001, 102.373, -44.5277
23.000000, 102.306, -45.5515
23.299999, 102.235, -46.5540
23.600000, 102.165, -47.5297
24.000000, 102.075, -48.8040
24.299999, 102.010, -49.7582
24.700001, 101.922, -51.0428
25.000000, 101.851, -52.0054
25.400000, 101.750, -53.2518
25.799999, 101.645, -54.4233
26.200001, 101.546, -55.5243
26.500000, 101.477, -56.3301
26.900000, 101.391, -57.4181
27.200001, 101.327, -58.2559
27.600000, 101.235, -59.3842
28.000000, 101.134, -60.4819
28.500000, 101.002, -61.7573
29.000000, 100.877, -62.9367
29.500000, 100.762, -64.0892
30.000000, 100.651, -65.2585
30.400000, 100.558, -66.1965
30.700001, 100.488, -66.8893
31.100000, 100.393, -67.7937
31.500000, 100.300, -68.6848
32.000000, 100.184, -69.8038
32.500000, 100.065, -70.9321
33.000000, 99.938, -72.0347
33.500000, 99.808, -73.0718
34.000000, 99.683, -74.0454
34.500000, 99.566, -74.9979
35.000000, 99.454, -75.9660
35.500000, 99.341, -76.9412
36.000000, 99.224, -77.8868
36.500000, 99.109, -78.7820
37.000000, 98.998, -79.6392
37.500000, 98.893, -80.4775
38.200001, 98.750, -81.6223
38.700001, 98.652, -82.4244
39.500000, 98.501, -83.7465
40.000000, 98.400, -84.5968
40.599998, 98.266, -85.5645
41.200001, 98.131, -86.4296
41.799999, 98.007, -87.2527
42.500000, 97.868, -88.2552
43.099998, 97.743, -89.1259
43.700001, 97.615, -89.9642
44.400002, 97.471, -90.9227
45.000000, 97.347, -91.7450
45.500000, 97.243, -92.4164
46.200001, 97.098, -93.3264
46.799999, 96.975, -94.0834
47.500000, 96.830, -94.9026
48.200001, 96.695, -95.6392
48.700001, 96.609, -96.1654
49.400002, 96.493, -96.9579
50.000000, 96.389, -97.6604
50.799999, 96.247, -98.5723
51.500000, 96.123, -99.3746
52.200001, 95.990, -100.1662
53.000000, 95.835, -100.9729
53.799999, 95.692, -101.7079
54.500000, 95.575, -102.3550
55.200001, 95.459, -102.9875
56.000000, 95.336, -103.6891
57.000000, 95.188, -104.6059
58.000000, 95.035, -105.5214
59.000000, 94.879, -106.3824
60.000000, 94.721, -107.1809
60.799999, 94.599, -107.7769
61.500000, 94.497, -108.3043
62.200001, 94.395, -108.8409
63.000000, 94.278, -109.4427
64.000000, 94.140, -110.1873
65.000000, 94.007, -110.9744
66.000000, 93.868, -111.7885
67.000000, 93.722, -112.5028
68.000000, 93.590, -113.1083
69.000000, 93.470, -113.7378
70.000000, 93.347, -114.3871
71.000000, 93.222, -114.9877
72.000000, 93.101, -115.5629
73.000000, 92.984, -116.1503
74.000000, 92.867, -116.7493
75.000000, 92.750, -117.3405
76.199997, 92.612, -118.0175
77.500000, 92.469, -118.7068
78.800003, 92.333, -119.3636
80.000000, 92.212, -119.9608
81.199997, 92.091, -120.5718
82.500000, 91.958, -121.1855
83.800003, 91.836, -121.7931
85.000000, 91.720, -122.3882
86.199997, 91.603, -122.9158
87.500000, 91.486, -123.4703
88.500000, 91.396, -123.9041
90.000000, 91.262, -124.5382
91.199997, 91.160, -125.0176
92.500000, 91.057, -125.5647
93.800003, 90.951, -126.0866
95.000000, 90.861, -126.4718
96.199997, 90.780, -126.8867
97.500000, 90.687, -127.3540
98.800003, 90.590, -127.8115
100.000000, 90.499, -128.2452
101.500000, 90.383, -128.7600
103.000000, 90.277, -129.2356
104.400002, 90.185, -129.6625
106.000000, 90.083, -130.2079
107.500000, 89.977, -130.7385
109.000000, 89.880, -131.2393
110.599998, 89.789, -131.7683
112.000000, 89.716, -132.1530
113.800003, 89.618, -132.4991
115.000000, 89.535, -132.7134
117.199997, 89.309, -133.2888
118.000000, 89.197, -133.5074
120.599998, 88.973, -133.1768
122.000000, 89.011, -133.7672
124.099998, 89.004, -134.8867
125.000000, 88.986, -135.1304
126.500000, 88.947, -135.2671
128.000000, 88.903, -135.3093
131.500000, 88.778, -136.1158
132.000000, 88.759, -136.3005
134.000000, 88.685, -137.0242
136.000000, 88.609, -137.5184
138.000000, 88.525, -137.8433
140.000000, 88.442, -138.1105
143.000000, 88.367, -138.7446
145.000000, 88.339, -139.2288
147.500000, 88.260, -139.8375
150.000000, 88.147, -140.0392
152.500000, 88.055, -140.3269
155.000000, 87.987, -140.6592
157.500000, 87.936, -140.9843
160.000000, 87.888, -141.3792
162.500000, 87.840, -141.7842
165.000000, 87.800, -142.1588
167.500000, 87.756, -142.5699
170.000000, 87.701, -143.0587
172.500000, 87.638, -143.5464
175.000000, 87.581, -143.9648
177.500000, 87.528, -144.3386
180.000000, 87.473, -144.6899
182.500000, 87.421, -145.0171
185.000000, 87.372, -145.3361
187.500000, 87.324, -145.6354
190.000000, 87.276, -145.9543
192.500000, 87.226, -146.2694
195.000000, 87.179, -146.5699
197.500000, 87.136, -146.8577
200.000000, 87.094, -147.1241
203.000000, 87.048, -147.4430
206.000000, 87.003, -147.7594
209.000000, 86.960, -148.0447
212.000000, 86.920, -148.3469
214.000000, 86.894, -148.5601
218.000000, 86.838, -148.9244
220.000000, 86.808, -149.0891
224.000000, 86.749, -149.4447
227.000000, 86.711, -149.7169
230.000000, 86.676, -149.9586
233.000000, 86.643, -150.1809
236.000000, 86.612, -150.4073
240.000000, 86.568, -150.7112
243.000000, 86.534, -150.9307
247.000000, 86.493, -151.1931
250.000000, 86.463, -151.3842
254.000000, 86.422, -151.6345
258.000000, 86.381, -151.8668
262.000000, 86.343, -152.1010
265.000000, 86.318, -152.2722
269.000000, 86.283, -152.5049
272.000000, 86.256, -152.6666
276.000000, 86.222, -152.8565
280.000000, 86.191, -153.0244
285.000000, 86.151, -153.2289
290.000000, 86.111, -153.4266
295.000000, 86.077, -153.6102
300.000000, 86.045, -153.7829
304.000000, 86.023, -153.9323
307.000000, 86.008, -154.0529
311.000000, 85.987, -154.2200
315.000000, 85.965, -154.3661
320.000000, 85.938, -154.5425
325.000000, 85.910, -154.7116
330.000000, 85.880, -154.8743
335.000000, 85.851, -155.0327
340.000000, 85.822, -155.1874
345.000000, 85.791, -155.3184
350.000000, 85.762, -155.4224
355.000000, 85.735, -155.5315
360.000000, 85.710, -155.6282
365.000000, 85.686, -155.6957
370.000000, 85.662, -155.7668
375.000000, 85.639, -155.8466
382.000000, 85.609, -155.9462
387.000000, 85.588, -156.0210
395.000000, 85.554, -156.1346
400.000000, 85.533, -156.1865
406.000000, 85.506, -156.2410
412.000000, 85.480, -156.2935
418.000000, 85.455, -156.3390
425.000000, 85.427, -156.3860
431.000000, 85.404, -156.4122
437.000000, 85.379, -156.4395
444.000000, 85.351, -156.4528
450.000000, 85.327, -156.4498
455.000000, 85.307, -156.4410
462.000000, 85.280, -156.4231
468.000000, 85.258, -156.4119
475.000000, 85.233, -156.3900
482.000000, 85.207, -156.3456
487.000000, 85.189, -156.3045
494.000000, 85.165, -156.2565
500.000000, 85.144, -156.2089
508.000000, 85.116, -156.1341
515.000000, 85.091, -156.0594
522.000000, 85.067, -155.9849
530.000000, 85.040, -155.8943
538.000000, 85.012, -155.7820
545.000000, 84.988, -155.6789
552.000000, 84.965, -155.5634
560.000000, 84.939, -155.4176
570.000000, 84.905, -155.2396
580.000000, 84.871, -155.0402
590.000000, 84.839, -154.8235
600.000000, 84.807, -154.5953
608.000000, 84.782, -154.4053
615.000000, 84.760, -154.2361
622.000000, 84.739, -154.0575
630.000000, 84.714, -153.8419
640.000000, 84.683, -153.5524
650.000000, 84.654, -153.2443
660.000000, 84.624, -152.9199
670.000000, 84.595, -152.5846
680.000000, 84.567, -152.2414
690.000000, 84.540, -151.8824
700.000000, 84.511, -151.4993
710.000000, 84.484, -151.0985
720.000000, 84.459, -150.6773
730.000000, 84.436, -150.2332
740.000000, 84.414, -149.7785
750.000000, 84.394, -149.3208
762.000000, 84.371, -148.7531
775.000000, 84.348, -148.1068
788.000000, 84.326, -147.4227
800.000000, 84.309, -146.7777
812.000000, 84.295, -146.1279
825.000000, 84.284, -145.3859
838.000000, 84.275, -144.6154
850.000000, 84.271, -143.8799
862.000000, 84.272, -143.1168
875.000000, 84.276, -142.2720
885.000000, 84.283, -141.6154
900.000000, 84.299, -140.6091
912.000000, 84.318, -139.7911
925.000000, 84.343, -138.8903
938.000000, 84.373, -137.9698
950.000000, 84.407, -137.1153
962.000000, 84.447, -136.2588
975.000000, 84.494, -135.3187
988.000000, 84.548, -134.3713
1000.000000, 84.603, -133.4940
1015.000000, 84.681, -132.4091
1030.000000, 84.767, -131.3213
1044.000000, 84.856, -130.2956
1060.000000, 84.967, -129.1318
1075.000000, 85.083, -128.0576
1090.000000, 85.210, -127.0007
1106.000000, 85.360, -125.8998
1120.000000, 85.502, -124.9693
1138.000000, 85.700, -123.8427
1150.000000, 85.841, -123.1531
1172.000000, 86.116, -122.0238
1180.000000, 86.220, -121.6572
1206.000000, 86.565, -120.6360
1220.000000, 86.755, -120.2094
1241.000000, 87.042, -119.7282
1250.000000, 87.164, -119.5773
1265.000000, 87.365, -119.3948
1280.000000, 87.562, -119.2939
1315.000000, 88.004, -119.3486
1320.000000, 88.065, -119.3862
1340.000000, 88.297, -119.6003
1360.000000, 88.517, -119.9008
1380.000000, 88.722, -120.2722
1400.000000, 88.913, -120.6971
1430.000000, 89.172, -121.4086
1450.000000, 89.329, -121.9183
1475.000000, 89.506, -122.5648
1500.000000, 89.666, -123.2098
1525.000000, 89.810, -123.8423
1550.000000, 89.940, -124.4537
1575.000000, 90.056, -125.0413
1600.000000, 90.162, -125.5942
1625.000000, 90.259, -126.1124
1650.000000, 90.347, -126.5963
1675.000000, 90.431, -127.0393
1700.000000, 90.509, -127.4487
1725.000000, 90.583, -127.8251
1750.000000, 90.654, -128.1730
1775.000000, 90.722, -128.4891
1800.000000, 90.788, -128.7748
1825.000000, 90.853, -129.0322
1850.000000, 90.915, -129.2659
1875.000000, 90.977, -129.4795
1900.000000, 91.040, -129.6752
1925.000000, 91.102, -129.8529
1950.000000, 91.164, -130.0136
1975.000000, 91.227, -130.1631
2000.000000, 91.290, -130.3016
2030.000000, 91.368, -130.4508
2060.000000, 91.446, -130.5892
2090.000000, 91.525, -130.7203
2120.000000, 91.606, -130.8447
2140.000000, 91.661, -130.9246
2180.000000, 91.774, -131.0813
2200.000000, 91.832, -131.1582
2240.000000, 91.949, -131.3124
2270.000000, 92.039, -131.4318
2300.000000, 92.132, -131.5565
2330.000000, 92.226, -131.6893
2360.000000, 92.322, -131.8338
2400.000000, 92.452, -132.0475
2430.000000, 92.553, -132.2263
2470.000000, 92.690, -132.4896
2500.000000, 92.795, -132.7071
2540.000000, 92.937, -133.0280
2580.000000, 93.082, -133.3928
2620.000000, 93.228, -133.8036
2650.000000, 93.340, -134.1445
2690.000000, 93.489, -134.6472
2720.000000, 93.602, -135.0616
2760.000000, 93.753, -135.6664
2800.000000, 93.904, -136.3322
2850.000000, 94.092, -137.2617
2900.000000, 94.277, -138.3154
2950.000000, 94.457, -139.4902
3000.000000, 94.630, -140.7906
3040.000000, 94.762, -141.9243
3070.000000, 94.854, -142.8281
3110.000000, 94.969, -144.1047
3150.000000, 95.074, -145.4612
3200.000000, 95.187, -147.2590
3250.000000, 95.279, -149.1622
3300.000000, 95.345, -151.1562
3350.000000, 95.384, -153.2151
3400.000000, 95.393, -155.3158
3450.000000, 95.371, -157.4333
3500.000000, 95.318, -159.5374
3550.000000, 95.235, -161.5979
3600.000000, 95.125, -163.5884
3650.000000, 94.988, -165.4857
3700.000000, 94.829, -167.2786
3750.000000, 94.651, -168.9630
3820.000000, 94.374, -171.1316
3870.000000, 94.160, -172.5465
3950.000000, 93.791, -174.5744
4000.000000, 93.546, -175.6845
4060.000000, 93.239, -176.8505
4120.000000, 92.922, -177.8312
4180.000000, 92.596, -178.6279
4250.000000, 92.208, -179.3179
4310.000000, 91.875, -179.7079
4370.000000, 91.541, -179.9219
4440.000000, 91.154, -179.9557
4500.000000, 90.825, -179.8030
4550.000000, 90.555, -179.5470
4620.000000, 90.182, -178.9893
4680.000000, 89.869, -178.3111
4750.000000, 89.515, -177.2548
4820.000000, 89.184, -175.8415
4870.000000, 88.977, -174.5822
4940.000000, 88.766, -172.5733
5000.000000, 88.675, -170.9590
5080.000000, 88.623, -169.5389
5150.000000, 88.548, -168.8924
5220.000000, 88.415, -168.3643
5300.000000, 88.215, -167.5645
5380.000000, 88.001, -166.4512
5450.000000, 87.822, -165.2554
5520.000000, 87.659, -163.9056
5600.000000, 87.496, -162.2166
5700.000000, 87.332, -159.9380
5800.000000, 87.217, -157.5482
5900.000000, 87.149, -155.1097
6000.000000, 87.125, -152.6619
6080.000000, 87.137, -150.7163
6150.000000, 87.171, -149.0305
6220.000000, 87.226, -147.3643
6300.000000, 87.315, -145.4886
6400.000000, 87.468, -143.2032
6500.000000, 87.668, -141.0098
6600.000000, 87.916, -138.9391
6700.000000, 88.214, -137.0190
6800.000000, 88.565, -135.2952
6900.000000, 88.972, -133.8032
7000.000000, 89.437, -132.5978
7100.000000, 89.964, -131.7487
7200.000000, 90.558, -131.3606
7300.000000, 91.220, -131.5717
7400.000000, 91.943, -132.5533
7500.000000, 92.715, -134.5181
7620.000000, 93.664, -138.5157
7750.000000, 94.615, -145.2412
7880.000000, 95.306, -154.4845
8000.000000, 95.545, -164.5939
8120.000000, 95.320, -175.0005
8250.000000, 94.599, 174.8665
8380.000000, 93.544, 166.9182
8500.000000, 92.435, 161.7228
8620.000000, 91.314, 158.3238
8750.000000, 90.157, 156.2069
8850.000000, 89.330, 155.4039
9000.000000, 88.201, 155.1422
9120.000000, 87.391, 155.5037
9250.000000, 86.601, 156.2840
9380.000000, 85.889, 157.3240
9500.000000, 85.291, 158.4267
9620.000000, 84.742, 159.6193
9750.000000, 84.190, 160.9882
9880.000000, 83.674, 162.4355
10000.000000, 83.222, 163.8747
10150.000000, 82.693, 165.9013
10300.000000, 82.223, 168.2675
10440.000000, 81.866, 170.7332
10600.000000, 81.580, 173.5579
10750.000000, 81.427, 175.8796
10900.000000, 81.345, 177.6696
11060.000000, 81.290, 178.9675
11200.000000, 81.246, 179.6758
11380.000000, 81.179, -179.8364
11500.000000, 81.124, -179.6953
11720.000000, 81.000, -179.6820
11800.000000, 80.949, -179.7305
12060.000000, 80.774, -179.9725
12200.000000, 80.681, 179.8628
12410.000000, 80.551, 179.5747
12500.000000, 80.502, 179.4672
12650.000000, 80.439, 179.3503
12800.000000, 80.421, 179.2966
13150.000000, 80.643, 178.2976
13200.000000, 80.690, 177.8979
13400.000000, 80.844, 175.8088
13600.000000, 80.973, 173.4878
13800.000000, 81.149, 170.8344
14000.000000, 81.363, 167.4076
14300.000000, 81.597, 160.5490
14500.000000, 81.598, 155.5617
14750.000000, 81.581, 150.2593
