* Measurement data measured by REW V5.31.3
* Source: EXCL: Headset (USB-C to 3.5mm Headphone Jack Adapter), MICROPHONE (Master Volume), 0, volume: 0.700
* Format: 256k Log Swept Sine, 1 sweep at -12.0 dBFS with no timing reference
* Dated: Dec 21, 2024 1:45:09 AM
* REW Settings:
*  C-weighting compensation: Off
*  Target level: 75.0 dB
* Note: ; 
* Measurement: Duality S- IMP R
* Smoothing: 1/24 octave
* Frequency Step: 1/48 octave
* Start Frequency: 1.000 Hz
*
* Freq(Hz), SPL(dB), Phase(degrees)
1.000000, 79.884, -173.3770
1.015000, 80.097, -174.2836
1.030000, 80.307, -175.1799
1.044000, 80.501, -176.0089
1.060000, 80.721, -176.9491
1.075000, 80.926, -177.8257
1.090000, 81.129, -178.6992
1.106000, 81.343, -179.6298
1.120000, 81.527, 179.5563
1.138000, 81.761, 178.5114
1.150000, 81.914, 177.8168
1.172000, 82.189, 176.5508
1.180000, 82.287, 176.0933
1.206000, 82.601, 174.6198
1.220000, 82.767, 173.8361
1.241000, 83.011, 172.6750
1.250000, 83.115, 172.1831
1.265000, 83.285, 171.3713
1.280000, 83.453, 170.5699
1.315000, 83.836, 168.7425
1.320000, 83.890, 168.4865
1.340000, 84.103, 167.4750
1.360000, 84.313, 166.4840
1.380000, 84.521, 165.5136
1.400000, 84.726, 164.5638
1.430000, 85.029, 163.1770
1.450000, 85.228, 162.2770
1.475000, 85.474, 161.1766
1.500000, 85.716, 160.0964
1.525000, 85.951, 159.0334
1.550000, 86.181, 157.9869
1.575000, 86.405, 156.9565
1.600000, 86.625, 155.9417
1.625000, 86.840, 154.9418
1.650000, 87.051, 153.9562
1.675000, 87.257, 152.9841
1.700000, 87.460, 152.0246
1.725000, 87.660, 151.0768
1.750000, 87.857, 150.1400
1.775000, 88.050, 149.2129
1.800000, 88.242, 148.2947
1.825000, 88.431, 147.3838
1.850000, 88.617, 146.4774
1.875000, 88.799, 145.5729
1.900000, 88.977, 144.6710
1.925000, 89.152, 143.7733
1.950000, 89.323, 142.8814
1.975000, 89.491, 141.9968
2.000000, 89.656, 141.1205
2.030000, 89.850, 140.0815
2.060000, 90.041, 139.0574
2.090000, 90.227, 138.0495
2.120000, 90.411, 137.0585
2.140000, 90.531, 136.4076
2.180000, 90.769, 135.1289
2.200000, 90.887, 134.4999
2.240000, 91.116, 133.2534
2.270000, 91.284, 132.3254
2.300000, 91.448, 131.4041
2.330000, 91.609, 130.4907
2.360000, 91.766, 129.5867
2.400000, 91.972, 128.3977
2.430000, 92.122, 127.5195
2.470000, 92.320, 126.3680
2.500000, 92.465, 125.5200
2.540000, 92.655, 124.4103
2.580000, 92.842, 123.3221
2.620000, 93.025, 122.2473
2.650000, 93.159, 121.4480
2.690000, 93.333, 120.3921
2.720000, 93.461, 119.6084
2.760000, 93.628, 118.5757
2.800000, 93.792, 117.5582
2.850000, 93.992, 116.3091
2.900000, 94.188, 115.0870
2.950000, 94.380, 113.8895
3.000000, 94.567, 112.7078
3.040000, 94.712, 111.7719
3.070000, 94.819, 111.0761
3.110000, 94.959, 110.1577
3.150000, 95.097, 109.2507
3.200000, 95.265, 108.1347
3.250000, 95.430, 107.0400
3.300000, 95.592, 105.9666
3.350000, 95.751, 104.9099
3.400000, 95.905, 103.8659
3.450000, 96.056, 102.8346
3.500000, 96.204, 101.8168
3.550000, 96.348, 100.8132
3.600000, 96.490, 99.8247
3.650000, 96.629, 98.8511
3.700000, 96.766, 97.8901
3.750000, 96.899, 96.9387
3.820000, 97.081, 95.6224
3.870000, 97.208, 94.6946
3.950000, 97.406, 93.2345
4.000000, 97.527, 92.3379
4.060000, 97.669, 91.2769
4.120000, 97.808, 90.2281
4.180000, 97.943, 89.1905
4.250000, 98.097, 87.9955
4.310000, 98.225, 86.9862
4.370000, 98.351, 85.9914
4.440000, 98.494, 84.8469
4.500000, 98.614, 83.8762
4.550000, 98.712, 83.0743
4.620000, 98.845, 81.9642
4.680000, 98.956, 81.0260
4.750000, 99.084, 79.9478
4.820000, 99.207, 78.8849
4.870000, 99.294, 78.1329
4.940000, 99.412, 77.0906
5.000000, 99.511, 76.2079
5.080000, 99.639, 75.0485
5.150000, 99.749, 74.0504
5.220000, 99.855, 73.0650
5.300000, 99.974, 71.9522
5.380000, 100.089, 70.8553
5.450000, 100.188, 69.9096
5.520000, 100.284, 68.9770
5.600000, 100.391, 67.9248
5.700000, 100.521, 66.6281
5.800000, 100.647, 65.3529
5.900000, 100.770, 64.0995
6.000000, 100.889, 62.8648
6.080000, 100.981, 61.8893
6.150000, 101.060, 61.0448
6.220000, 101.138, 60.2086
6.300000, 101.224, 59.2619
6.400000, 101.330, 58.0908
6.500000, 101.432, 56.9330
6.600000, 101.532, 55.7883
6.700000, 101.628, 54.6550
6.800000, 101.722, 53.5318
6.900000, 101.813, 52.4197
7.000000, 101.900, 51.3184
7.100000, 101.985, 50.2257
7.200000, 102.066, 49.1422
7.300000, 102.145, 48.0695
7.400000, 102.221, 47.0067
7.500000, 102.294, 45.9524
7.620000, 102.377, 44.7004
7.750000, 102.464, 43.3624
7.880000, 102.545, 42.0406
8.000000, 102.617, 40.8365
8.120000, 102.685, 39.6494
8.250000, 102.755, 38.3804
8.380000, 102.821, 37.1301
8.500000, 102.879, 35.9933
8.620000, 102.934, 34.8716
8.750000, 102.991, 33.6736
8.850000, 103.033, 32.7643
9.000000, 103.094, 31.4186
9.120000, 103.140, 30.3572
9.250000, 103.188, 29.2218
9.380000, 103.234, 28.1002
9.500000, 103.274, 27.0762
9.620000, 103.313, 26.0624
9.750000, 103.354, 24.9745
9.880000, 103.393, 23.8967
10.000000, 103.427, 22.9102
10.150000, 103.467, 21.6873
10.300000, 103.505, 20.4757
10.440000, 103.538, 19.3544
10.600000, 103.573, 18.0848
10.750000, 103.603, 16.9069
10.900000, 103.629, 15.7410
11.060000, 103.655, 14.5133
11.200000, 103.674, 13.4529
11.380000, 103.696, 12.1113
11.500000, 103.708, 11.2314
11.720000, 103.728, 9.6497
11.800000, 103.734, 9.0851
12.060000, 103.751, 7.2878
12.200000, 103.759, 6.3429
12.410000, 103.771, 4.9517
12.500000, 103.776, 4.3636
12.650000, 103.783, 3.3928
12.800000, 103.791, 2.4310
13.150000, 103.807, 0.2085
13.200000, 103.809, -0.1075
13.400000, 103.815, -1.3688
13.600000, 103.819, -2.6251
13.800000, 103.818, -3.8744
14.000000, 103.814, -5.1110
14.300000, 103.798, -6.9308
14.500000, 103.783, -8.1123
14.750000, 103.760, -9.5475
15.000000, 103.735, -10.9358
15.250000, 103.708, -12.2820
15.500000, 103.682, -13.5966
15.750000, 103.656, -14.8899
16.000000, 103.630, -16.1716
16.250000, 103.602, -17.4455
16.500000, 103.572, -18.7104
16.750000, 103.537, -19.9613
17.000000, 103.499, -21.1909
17.250000, 103.458, -22.3943
17.500000, 103.416, -23.5693
17.750000, 103.373, -24.7186
18.000000, 103.330, -25.8474
18.250000, 103.287, -26.9619
18.500000, 103.245, -28.0672
18.750000, 103.201, -29.1652
19.000000, 103.155, -30.2546
19.250000, 103.108, -31.3317
19.500000, 103.058, -32.3925
19.750000, 103.007, -33.4340
20.000000, 102.955, -34.4547
20.299999, 102.893, -35.6536
20.600000, 102.830, -36.8270
20.900000, 102.766, -37.9778
21.200001, 102.703, -39.1072
21.400000, 102.660, -39.8481
21.799999, 102.574, -41.3011
22.000000, 102.531, -42.0142
22.400000, 102.446, -43.4183
22.700001, 102.382, -44.4557
23.000000, 102.317, -45.4804
23.299999, 102.250, -46.4898
23.600000, 102.182, -47.4797
24.000000, 102.089, -48.7644
24.299999, 102.020, -49.7035
24.700001, 101.929, -50.9339
25.000000, 101.861, -51.8485
25.400000, 101.768, -53.0601
25.799999, 101.672, -54.2517
26.200001, 101.572, -55.4037
26.500000, 101.496, -56.2347
26.900000, 101.398, -57.3045
27.200001, 101.328, -58.0903
27.600000, 101.238, -59.1359
28.000000, 101.149, -60.1903
28.500000, 101.035, -61.5106
29.000000, 100.916, -62.8033
29.500000, 100.795, -64.0489
30.000000, 100.676, -65.2528
30.400000, 100.581, -66.1943
30.700001, 100.510, -66.8889
31.100000, 100.416, -67.7971
31.500000, 100.321, -68.6833
32.000000, 100.204, -69.7650
32.500000, 100.088, -70.8278
33.000000, 99.971, -71.8738
33.500000, 99.852, -72.8918
34.000000, 99.734, -73.8751
34.500000, 99.618, -74.8359
35.000000, 99.505, -75.7951
35.500000, 99.390, -76.7548
36.000000, 99.273, -77.6930
36.500000, 99.155, -78.5903
37.000000, 99.043, -79.4570
37.500000, 98.937, -80.3248
38.200001, 98.789, -81.5682
38.700001, 98.680, -82.4494
39.500000, 98.502, -83.7840
40.000000, 98.394, -84.5750
40.599998, 98.268, -85.5032
41.200001, 98.143, -86.4127
41.799999, 98.017, -87.2926
42.500000, 97.872, -88.2759
43.099998, 97.751, -89.0928
43.700001, 97.632, -89.9037
44.400002, 97.492, -90.8474
45.000000, 97.369, -91.6337
45.500000, 97.267, -92.2629
46.200001, 97.129, -93.1192
46.799999, 97.015, -93.8513
47.500000, 96.882, -94.7023
48.200001, 96.752, -95.5368
48.700001, 96.660, -96.1245
49.400002, 96.534, -96.9368
50.000000, 96.426, -97.6169
50.799999, 96.285, -98.4989
51.500000, 96.163, -99.2516
52.200001, 96.039, -99.9779
53.000000, 95.899, -100.7672
53.799999, 95.762, -101.5176
54.500000, 95.645, -102.1541
55.200001, 95.534, -102.8065
56.000000, 95.404, -103.5993
57.000000, 95.230, -104.5719
58.000000, 95.060, -105.4543
59.000000, 94.899, -106.3368
60.000000, 94.741, -107.2057
60.799999, 94.619, -107.8767
61.500000, 94.514, -108.4506
62.200001, 94.409, -108.9909
63.000000, 94.295, -109.5636
64.000000, 94.163, -110.2772
65.000000, 94.031, -111.0197
66.000000, 93.895, -111.7314
67.000000, 93.762, -112.4046
68.000000, 93.633, -113.1009
69.000000, 93.498, -113.7823
70.000000, 93.366, -114.4116
71.000000, 93.241, -115.0319
72.000000, 93.117, -115.6394
73.000000, 92.996, -116.2017
74.000000, 92.884, -116.7466
75.000000, 92.774, -117.3049
76.199997, 92.641, -117.9642
77.500000, 92.499, -118.6579
78.800003, 92.356, -119.3364
80.000000, 92.231, -119.9097
81.199997, 92.117, -120.5449
82.500000, 91.978, -121.2472
83.800003, 91.844, -121.7847
85.000000, 91.735, -122.2828
86.199997, 91.628, -122.8207
87.500000, 91.510, -123.4136
88.500000, 91.419, -123.8577
90.000000, 91.291, -124.4948
91.199997, 91.193, -125.0082
92.500000, 91.084, -125.5366
93.800003, 90.975, -126.0216
95.000000, 90.875, -126.4586
96.199997, 90.778, -126.9006
97.500000, 90.676, -127.3889
98.800003, 90.581, -127.8593
100.000000, 90.501, -128.2631
101.500000, 90.403, -128.7623
103.000000, 90.295, -129.2754
104.400002, 90.178, -129.7477
106.000000, 90.053, -130.1796
107.500000, 89.980, -130.5703
109.000000, 89.928, -131.1593
110.599998, 89.829, -131.7186
112.000000, 89.719, -132.0219
113.800003, 89.579, -132.4456
115.000000, 89.515, -132.9637
117.199997, 89.516, -134.4957
118.000000, 89.551, -135.2725
120.599998, 89.393, -137.4470
122.000000, 89.253, -136.4644
124.099998, 89.158, -135.3142
125.000000, 89.102, -135.1865
126.500000, 88.993, -135.3702
128.000000, 88.892, -135.9266
131.500000, 88.736, -136.7988
132.000000, 88.722, -136.8255
134.000000, 88.648, -136.8720
136.000000, 88.570, -137.0499
138.000000, 88.517, -137.7899
140.000000, 88.482, -138.6362
143.000000, 88.435, -138.6216
145.000000, 88.420, -137.9268
147.500000, 88.403, -138.1478
150.000000, 88.218, -139.4844
152.500000, 88.075, -140.4230
155.000000, 88.011, -141.0098
157.500000, 87.958, -141.3157
160.000000, 87.897, -141.5901
162.500000, 87.842, -141.9703
165.000000, 87.791, -142.3237
167.500000, 87.745, -142.7528
170.000000, 87.689, -143.1918
172.500000, 87.637, -143.5548
175.000000, 87.587, -143.9156
177.500000, 87.534, -144.2705
180.000000, 87.484, -144.6438
182.500000, 87.432, -145.0179
185.000000, 87.384, -145.3514
187.500000, 87.347, -145.6785
190.000000, 87.306, -146.0281
192.500000, 87.251, -146.3217
195.000000, 87.199, -146.5765
197.500000, 87.159, -146.8799
200.000000, 87.119, -147.2285
203.000000, 87.062, -147.5959
206.000000, 87.012, -147.8644
209.000000, 86.973, -148.1317
212.000000, 86.934, -148.4322
214.000000, 86.906, -148.6378
218.000000, 86.849, -149.0181
220.000000, 86.823, -149.2229
224.000000, 86.770, -149.6171
227.000000, 86.731, -149.8462
230.000000, 86.694, -150.0656
233.000000, 86.658, -150.3052
236.000000, 86.623, -150.5364
240.000000, 86.578, -150.8267
243.000000, 86.546, -151.0546
247.000000, 86.506, -151.3514
250.000000, 86.476, -151.5479
254.000000, 86.438, -151.7889
258.000000, 86.397, -152.0208
262.000000, 86.357, -152.2658
265.000000, 86.329, -152.4515
269.000000, 86.295, -152.6693
272.000000, 86.270, -152.8198
276.000000, 86.236, -153.0266
280.000000, 86.205, -153.2159
285.000000, 86.168, -153.4318
290.000000, 86.130, -153.6824
295.000000, 86.093, -153.9027
300.000000, 86.055, -154.0936
304.000000, 86.026, -154.2284
307.000000, 86.006, -154.3280
311.000000, 85.981, -154.4658
315.000000, 85.957, -154.5996
320.000000, 85.928, -154.7341
325.000000, 85.903, -154.8575
330.000000, 85.879, -155.0112
335.000000, 85.856, -155.1602
340.000000, 85.831, -155.3196
345.000000, 85.803, -155.4719
350.000000, 85.775, -155.6063
355.000000, 85.749, -155.7366
360.000000, 85.723, -155.8574
365.000000, 85.696, -155.9667
370.000000, 85.670, -156.0631
375.000000, 85.645, -156.1508
382.000000, 85.610, -156.2393
387.000000, 85.587, -156.2913
395.000000, 85.551, -156.3873
400.000000, 85.528, -156.4409
406.000000, 85.503, -156.4823
412.000000, 85.478, -156.5151
418.000000, 85.455, -156.5540
425.000000, 85.429, -156.5936
431.000000, 85.406, -156.6330
437.000000, 85.383, -156.6689
444.000000, 85.355, -156.6946
450.000000, 85.332, -156.6912
455.000000, 85.314, -156.6913
462.000000, 85.288, -156.6985
468.000000, 85.264, -156.6931
475.000000, 85.237, -156.6628
482.000000, 85.210, -156.6279
487.000000, 85.191, -156.5983
494.000000, 85.166, -156.5465
500.000000, 85.146, -156.5018
508.000000, 85.119, -156.4373
515.000000, 85.094, -156.3746
522.000000, 85.069, -156.3041
530.000000, 85.042, -156.2125
538.000000, 85.017, -156.1108
545.000000, 84.992, -156.0109
552.000000, 84.968, -155.8954
560.000000, 84.942, -155.7623
570.000000, 84.909, -155.5960
580.000000, 84.875, -155.4019
590.000000, 84.843, -155.1965
600.000000, 84.810, -154.9717
608.000000, 84.785, -154.7859
615.000000, 84.763, -154.6125
622.000000, 84.742, -154.4253
630.000000, 84.718, -154.2059
640.000000, 84.688, -153.9269
650.000000, 84.657, -153.6379
660.000000, 84.626, -153.3218
670.000000, 84.598, -152.9915
680.000000, 84.571, -152.6548
690.000000, 84.542, -152.3054
700.000000, 84.516, -151.9352
710.000000, 84.490, -151.5467
720.000000, 84.463, -151.1317
730.000000, 84.438, -150.6890
740.000000, 84.415, -150.2405
750.000000, 84.395, -149.7759
762.000000, 84.373, -149.2061
775.000000, 84.349, -148.5784
788.000000, 84.328, -147.9146
800.000000, 84.311, -147.2726
812.000000, 84.295, -146.6105
825.000000, 84.283, -145.8746
838.000000, 84.276, -145.1029
850.000000, 84.272, -144.3784
862.000000, 84.273, -143.6311
875.000000, 84.279, -142.8002
885.000000, 84.286, -142.1474
900.000000, 84.302, -141.1345
912.000000, 84.319, -140.3101
925.000000, 84.343, -139.4082
938.000000, 84.373, -138.4944
950.000000, 84.407, -137.6444
962.000000, 84.446, -136.7896
975.000000, 84.494, -135.8630
988.000000, 84.548, -134.9334
1000.000000, 84.603, -134.0740
1015.000000, 84.680, -132.9912
1030.000000, 84.766, -131.8981
1044.000000, 84.853, -130.8801
1060.000000, 84.965, -129.7307
1075.000000, 85.081, -128.6615
1090.000000, 85.208, -127.6027
1106.000000, 85.356, -126.5004
1120.000000, 85.497, -125.5734
1138.000000, 85.695, -124.4559
1150.000000, 85.836, -123.7649
1172.000000, 86.110, -122.6292
1180.000000, 86.213, -122.2635
1206.000000, 86.558, -121.2607
1220.000000, 86.747, -120.8398
1241.000000, 87.033, -120.3595
1250.000000, 87.155, -120.2059
1265.000000, 87.356, -120.0190
1280.000000, 87.553, -119.9155
1315.000000, 87.992, -119.9774
1320.000000, 88.052, -120.0159
1340.000000, 88.284, -120.2277
1360.000000, 88.503, -120.5261
1380.000000, 88.708, -120.8979
1400.000000, 88.899, -121.3232
1430.000000, 89.158, -122.0317
1450.000000, 89.313, -122.5374
1475.000000, 89.491, -123.1857
1500.000000, 89.650, -123.8278
1525.000000, 89.794, -124.4623
1550.000000, 89.923, -125.0769
1575.000000, 90.040, -125.6613
1600.000000, 90.145, -126.2134
1625.000000, 90.242, -126.7314
1650.000000, 90.332, -127.2118
1675.000000, 90.415, -127.6558
1700.000000, 90.493, -128.0664
1725.000000, 90.567, -128.4423
1750.000000, 90.637, -128.7886
1775.000000, 90.705, -129.1055
1800.000000, 90.770, -129.3904
1825.000000, 90.834, -129.6484
1850.000000, 90.897, -129.8818
1875.000000, 90.960, -130.0954
1900.000000, 91.023, -130.2872
1925.000000, 91.085, -130.4581
1950.000000, 91.147, -130.6160
1975.000000, 91.209, -130.7631
2000.000000, 91.272, -130.8990
2030.000000, 91.349, -131.0492
2060.000000, 91.427, -131.1880
2090.000000, 91.506, -131.3154
2120.000000, 91.587, -131.4370
2140.000000, 91.642, -131.5162
2180.000000, 91.755, -131.6741
2200.000000, 91.812, -131.7532
2240.000000, 91.929, -131.9141
2270.000000, 92.020, -132.0401
2300.000000, 92.112, -132.1724
2330.000000, 92.206, -132.3103
2360.000000, 92.302, -132.4579
2400.000000, 92.433, -132.6764
2430.000000, 92.533, -132.8573
2470.000000, 92.669, -133.1177
2500.000000, 92.773, -133.3364
2540.000000, 92.914, -133.6655
2580.000000, 93.058, -134.0367
2620.000000, 93.205, -134.4519
2650.000000, 93.315, -134.7925
2690.000000, 93.464, -135.2916
2720.000000, 93.577, -135.7007
2760.000000, 93.728, -136.2990
2800.000000, 93.880, -136.9619
2850.000000, 94.068, -137.8879
2900.000000, 94.254, -138.9321
2950.000000, 94.434, -140.0968
3000.000000, 94.607, -141.3870
3040.000000, 94.738, -142.5094
3070.000000, 94.831, -143.4053
3110.000000, 94.946, -144.6718
3150.000000, 95.051, -146.0184
3200.000000, 95.165, -147.8035
3250.000000, 95.257, -149.6912
3300.000000, 95.325, -151.6674
3350.000000, 95.365, -153.7119
3400.000000, 95.375, -155.8005
3450.000000, 95.356, -157.9056
3500.000000, 95.305, -159.9998
3550.000000, 95.224, -162.0525
3600.000000, 95.116, -164.0357
3650.000000, 94.982, -165.9301
3700.000000, 94.826, -167.7238
3750.000000, 94.651, -169.4067
3820.000000, 94.378, -171.5742
3870.000000, 94.166, -172.9865
3950.000000, 93.800, -175.0052
4000.000000, 93.557, -176.1160
4060.000000, 93.253, -177.2831
4120.000000, 92.937, -178.2615
4180.000000, 92.613, -179.0557
4250.000000, 92.228, -179.7450
4310.000000, 91.896, 179.8604
4370.000000, 91.564, 179.6400
4440.000000, 91.179, 179.6025
4500.000000, 90.852, 179.7542
4550.000000, 90.582, -179.9943
4620.000000, 90.210, -179.4463
4680.000000, 89.896, -178.7838
4750.000000, 89.541, -177.7507
4820.000000, 89.207, -176.3604
4870.000000, 88.997, -175.1157
4940.000000, 88.777, -173.1052
5000.000000, 88.678, -171.4499
5080.000000, 88.620, -169.9337
5150.000000, 88.547, -169.2100
5220.000000, 88.417, -168.6229
5300.000000, 88.221, -167.7659
5380.000000, 88.012, -166.6027
5450.000000, 87.840, -165.3610
5520.000000, 87.687, -163.9673
5600.000000, 87.539, -162.2500
5700.000000, 87.394, -159.9946
5800.000000, 87.294, -157.6652
5900.000000, 87.236, -155.2883
6000.000000, 87.221, -152.9008
6080.000000, 87.238, -150.9987
6150.000000, 87.275, -149.3430
6220.000000, 87.333, -147.7031
6300.000000, 87.425, -145.8619
6400.000000, 87.579, -143.6304
6500.000000, 87.780, -141.4913
6600.000000, 88.027, -139.4670
6700.000000, 88.325, -137.5796
6800.000000, 88.676, -135.8610
6900.000000, 89.084, -134.3569
7000.000000, 89.555, -133.1316
7100.000000, 90.094, -132.2704
7200.000000, 90.708, -131.8959
7300.000000, 91.395, -132.1766
7400.000000, 92.149, -133.3197
7500.000000, 92.949, -135.5658
7620.000000, 93.916, -140.0698
7750.000000, 94.845, -147.5027
7880.000000, 95.452, -157.4357
8000.000000, 95.565, -167.9136
8120.000000, 95.198, -178.2659
8250.000000, 94.352, 172.0717
8380.000000, 93.221, 164.7897
8500.000000, 92.084, 160.1915
8620.000000, 90.958, 157.2954
8750.000000, 89.811, 155.6169
8850.000000, 88.995, 155.0863
9000.000000, 87.888, 155.1667
9120.000000, 87.097, 155.7595
9250.000000, 86.325, 156.7431
9380.000000, 85.630, 157.9496
9500.000000, 85.048, 159.1805
9620.000000, 84.511, 160.4937
9750.000000, 83.973, 161.9835
9880.000000, 83.469, 163.5460
10000.000000, 83.031, 165.0879
10150.000000, 82.521, 167.2244
10300.000000, 82.074, 169.6553
10440.000000, 81.739, 172.1270
10600.000000, 81.471, 174.9415
10750.000000, 81.330, 177.2260
10900.000000, 81.259, 178.9750
11060.000000, 81.215, -179.7548
11200.000000, 81.175, -179.0438
11380.000000, 81.108, -178.5302
11500.000000, 81.053, -178.3690
11720.000000, 80.932, -178.3170
11800.000000, 80.884, -178.3478
12060.000000, 80.717, -178.5333
12200.000000, 80.630, -178.6495
12410.000000, 80.510, -178.8323
12500.000000, 80.466, -178.8934
12650.000000, 80.411, -178.9401
12800.000000, 80.397, -178.9202
13150.000000, 80.636, -179.7221
13200.000000, 80.687, 179.9017
13400.000000, 80.860, 177.8760
13600.000000, 81.005, 175.5885
13800.000000, 81.195, 172.9359
14000.000000, 81.422, 169.4975
14300.000000, 81.671, 162.6219
14500.000000, 81.682, 157.6392
14750.000000, 81.687, 152.3470
