* Measurement data measured by REW V5.31.3
* Source: EXCL: Headset (USB-C to 3.5mm Headphone Jack Adapter), MICROPHONE (Master Volume), 0, volume: 0.700
* Format: 256k Log Swept Sine, 1 sweep at -12.0 dBFS with no timing reference
* Dated: Dec 21, 2024 1:54:10 AM
* REW Settings:
*  C-weighting compensation: Off
*  Target level: 75.0 dB
* Note: ; 
* Measurement: Duality BH S+ R
* Smoothing: 1/24 octave
* Frequency Step: 1/48 octave
* Start Frequency: 1.000 Hz
*
* Freq(Hz), SPL(dB), Phase(degrees)
1.000000, 77.492, -162.8810
1.015000, 77.720, -163.9576
1.030000, 77.944, -165.0137
1.044000, 78.151, -165.9834
1.060000, 78.383, -167.0749
1.075000, 78.596, -168.0847
1.090000, 78.806, -169.0839
1.106000, 79.024, -170.1414
1.120000, 79.213, -171.0621
1.138000, 79.451, -172.2392
1.150000, 79.607, -173.0189
1.172000, 79.890, -174.4349
1.180000, 79.991, -174.9449
1.206000, 80.314, -176.5820
1.220000, 80.486, -177.4493
1.241000, 80.738, -178.7298
1.250000, 80.845, -179.2708
1.265000, 81.021, 179.8385
1.280000, 81.195, 178.9617
1.315000, 81.593, 176.9719
1.320000, 81.649, 176.6942
1.340000, 81.871, 175.5997
1.360000, 82.089, 174.5318
1.380000, 82.304, 173.4902
1.400000, 82.517, 172.4750
1.430000, 82.831, 171.0005
1.450000, 83.037, 170.0490
1.475000, 83.291, 168.8907
1.500000, 83.539, 167.7582
1.525000, 83.781, 166.6471
1.550000, 84.017, 165.5566
1.575000, 84.248, 164.4863
1.600000, 84.474, 163.4353
1.625000, 84.695, 162.4030
1.650000, 84.911, 161.3887
1.675000, 85.123, 160.3914
1.700000, 85.332, 159.4102
1.725000, 85.536, 158.4442
1.750000, 85.738, 157.4924
1.775000, 85.936, 156.5537
1.800000, 86.132, 155.6271
1.825000, 86.325, 154.7109
1.850000, 86.515, 153.8015
1.875000, 86.701, 152.8957
1.900000, 86.883, 151.9940
1.925000, 87.061, 151.0979
1.950000, 87.236, 150.2092
1.975000, 87.407, 149.3293
2.000000, 87.574, 148.4594
2.030000, 87.771, 147.4305
2.060000, 87.964, 146.4193
2.090000, 88.154, 145.4270
2.120000, 88.340, 144.4547
2.140000, 88.462, 143.8180
2.180000, 88.703, 142.5720
2.200000, 88.822, 141.9613
2.240000, 89.054, 140.7545
2.270000, 89.223, 139.8582
2.300000, 89.389, 138.9700
2.330000, 89.551, 138.0914
2.360000, 89.709, 137.2237
2.400000, 89.916, 136.0858
2.430000, 90.067, 135.2480
2.470000, 90.265, 134.1537
2.500000, 90.411, 133.3508
2.540000, 90.602, 132.3051
2.580000, 90.790, 131.2848
2.620000, 90.973, 130.2813
2.650000, 91.107, 129.5375
2.690000, 91.282, 128.5578
2.720000, 91.410, 127.8329
2.760000, 91.577, 126.8807
2.800000, 91.741, 125.9460
2.850000, 91.941, 124.8037
2.900000, 92.137, 123.6923
2.950000, 92.329, 122.6096
3.000000, 92.517, 121.5477
3.040000, 92.662, 120.7108
3.070000, 92.770, 120.0907
3.110000, 92.911, 119.2748
3.150000, 93.049, 118.4721
3.200000, 93.218, 117.4883
3.250000, 93.385, 116.5276
3.300000, 93.549, 115.5901
3.350000, 93.709, 114.6727
3.400000, 93.866, 113.7721
3.450000, 94.020, 112.8870
3.500000, 94.171, 112.0172
3.550000, 94.319, 111.1623
3.600000, 94.465, 110.3221
3.650000, 94.608, 109.4960
3.700000, 94.750, 108.6831
3.750000, 94.889, 107.8816
3.820000, 95.079, 106.7779
3.870000, 95.212, 106.0024
3.950000, 95.421, 104.7839
4.000000, 95.549, 104.0359
4.060000, 95.700, 103.1509
4.120000, 95.849, 102.2781
4.180000, 95.994, 101.4167
4.250000, 96.160, 100.4260
4.310000, 96.300, 99.5893
4.370000, 96.437, 98.7636
4.440000, 96.594, 97.8125
4.500000, 96.725, 97.0060
4.550000, 96.833, 96.3401
4.620000, 96.980, 95.4185
4.680000, 97.104, 94.6393
4.750000, 97.246, 93.7435
4.820000, 97.384, 92.8599
4.870000, 97.481, 92.2348
4.940000, 97.613, 91.3686
5.000000, 97.725, 90.6355
5.080000, 97.870, 89.6732
5.150000, 97.994, 88.8457
5.220000, 98.116, 88.0293
5.300000, 98.251, 87.1089
5.380000, 98.383, 86.2027
5.450000, 98.497, 85.4227
5.520000, 98.608, 84.6548
5.600000, 98.732, 83.7903
5.700000, 98.884, 82.7273
5.800000, 99.031, 81.6840
5.900000, 99.176, 80.6600
6.000000, 99.317, 79.6535
6.080000, 99.428, 78.8597
6.150000, 99.523, 78.1725
6.220000, 99.617, 77.4917
6.300000, 99.722, 76.7210
6.400000, 99.851, 75.7678
6.500000, 99.977, 74.8252
6.600000, 100.101, 73.8921
6.700000, 100.221, 72.9669
6.800000, 100.339, 72.0494
6.900000, 100.453, 71.1406
7.000000, 100.565, 70.2402
7.100000, 100.673, 69.3467
7.200000, 100.779, 68.4610
7.300000, 100.881, 67.5852
7.400000, 100.981, 66.7192
7.500000, 101.078, 65.8617
7.620000, 101.190, 64.8456
7.750000, 101.308, 63.7627
7.880000, 101.422, 62.6967
8.000000, 101.525, 61.7269
8.120000, 101.625, 60.7708
8.250000, 101.730, 59.7491
8.380000, 101.833, 58.7391
8.500000, 101.926, 57.8155
8.620000, 102.017, 56.8991
8.750000, 102.113, 55.9124
8.850000, 102.185, 55.1561
9.000000, 102.291, 54.0255
9.120000, 102.373, 53.1247
9.250000, 102.458, 52.1517
9.380000, 102.540, 51.1821
9.500000, 102.613, 50.2930
9.620000, 102.683, 49.4105
9.750000, 102.754, 48.4624
9.880000, 102.823, 47.5269
10.000000, 102.883, 46.6760
10.150000, 102.955, 45.6297
10.300000, 103.024, 44.6060
10.440000, 103.086, 43.6712
10.600000, 103.156, 42.6252
10.750000, 103.219, 41.6654
10.900000, 103.282, 40.7224
11.060000, 103.349, 39.7297
11.200000, 103.408, 38.8701
11.380000, 103.482, 37.7713
11.500000, 103.531, 37.0405
11.720000, 103.620, 35.7021
11.800000, 103.651, 35.2151
12.060000, 103.749, 33.6334
12.200000, 103.799, 32.7842
12.410000, 103.869, 31.5175
12.500000, 103.898, 30.9789
12.650000, 103.944, 30.0879
12.800000, 103.987, 29.2067
13.150000, 104.081, 27.1959
13.200000, 104.094, 26.9140
13.400000, 104.144, 25.7997
13.600000, 104.191, 24.7061
13.800000, 104.236, 23.6321
14.000000, 104.280, 22.5770
14.300000, 104.343, 21.0269
14.500000, 104.383, 20.0132
14.750000, 104.433, 18.7631
15.000000, 104.482, 17.5249
15.250000, 104.530, 16.2894
15.500000, 104.576, 15.0492
15.750000, 104.617, 13.8028
16.000000, 104.651, 12.5555
16.250000, 104.677, 11.3224
16.500000, 104.696, 10.1217
16.750000, 104.707, 8.9717
17.000000, 104.716, 7.8817
17.250000, 104.727, 6.8478
17.500000, 104.742, 5.8527
17.750000, 104.764, 4.8673
18.000000, 104.791, 3.8635
18.250000, 104.819, 2.8202
18.500000, 104.845, 1.7322
18.750000, 104.862, 0.6124
19.000000, 104.869, -0.5150
19.250000, 104.866, -1.6185
19.500000, 104.856, -2.6743
19.750000, 104.843, -3.6711
20.000000, 104.831, -4.6139
20.299999, 104.823, -5.7028
20.600000, 104.823, -6.7867
20.900000, 104.827, -7.9006
21.200001, 104.828, -9.0538
21.400000, 104.825, -9.8361
21.799999, 104.806, -11.3909
22.000000, 104.791, -12.1448
22.400000, 104.757, -13.5815
22.700001, 104.731, -14.6022
23.000000, 104.709, -15.5934
23.299999, 104.689, -16.5725
23.600000, 104.670, -17.5472
24.000000, 104.641, -18.8326
24.299999, 104.619, -19.7759
24.700001, 104.590, -21.0031
25.000000, 104.571, -21.9138
25.400000, 104.548, -23.1449
25.799999, 104.523, -24.4138
26.200001, 104.488, -25.7053
26.500000, 104.453, -26.6605
26.900000, 104.396, -27.8748
27.200001, 104.351, -28.7241
27.600000, 104.295, -29.7791
28.000000, 104.248, -30.7825
28.500000, 104.203, -32.0474
29.000000, 104.164, -33.3888
29.500000, 104.114, -34.7915
30.000000, 104.049, -36.1713
30.400000, 103.991, -37.2107
30.700001, 103.949, -37.9525
31.100000, 103.898, -38.9200
31.500000, 103.853, -39.9015
32.000000, 103.792, -41.1688
32.500000, 103.718, -42.4294
33.000000, 103.636, -43.6104
33.500000, 103.559, -44.7102
34.000000, 103.491, -45.7972
34.500000, 103.423, -46.9169
35.000000, 103.348, -48.0388
35.500000, 103.267, -49.1121
36.000000, 103.191, -50.1418
36.500000, 103.120, -51.1801
37.000000, 103.045, -52.2454
37.500000, 102.960, -53.2893
38.200001, 102.837, -54.6143
38.700001, 102.762, -55.4919
39.500000, 102.658, -56.9560
40.000000, 102.590, -57.9309
40.599998, 102.498, -59.0918
41.200001, 102.398, -60.1915
41.799999, 102.299, -61.2366
42.500000, 102.183, -62.4115
43.099998, 102.085, -63.3834
43.700001, 101.988, -64.3329
44.400002, 101.877, -65.4394
45.000000, 101.781, -66.3942
45.500000, 101.698, -67.1852
46.200001, 101.580, -68.2683
46.799999, 101.480, -69.1710
47.500000, 101.364, -70.2101
48.200001, 101.249, -71.2473
48.700001, 101.164, -71.9717
49.400002, 101.046, -72.9318
50.000000, 100.951, -73.7155
50.799999, 100.832, -74.7810
51.500000, 100.724, -75.7396
52.200001, 100.609, -76.6548
53.000000, 100.482, -77.6267
53.799999, 100.362, -78.5899
54.500000, 100.256, -79.4524
55.200001, 100.147, -80.3081
56.000000, 100.019, -81.2446
57.000000, 99.864, -82.3523
58.000000, 99.716, -83.4457
59.000000, 99.568, -84.5460
60.000000, 99.415, -85.6113
60.799999, 99.292, -86.4123
61.500000, 99.188, -87.0875
62.200001, 99.086, -87.7617
63.000000, 98.968, -88.5299
64.000000, 98.820, -89.4569
65.000000, 98.676, -90.3716
66.000000, 98.532, -91.2855
67.000000, 98.389, -92.1671
68.000000, 98.249, -93.0179
69.000000, 98.113, -93.8373
70.000000, 97.983, -94.6540
71.000000, 97.851, -95.4709
72.000000, 97.717, -96.2542
73.000000, 97.584, -97.0010
74.000000, 97.453, -97.7179
75.000000, 97.325, -98.4316
76.199997, 97.171, -99.2955
77.500000, 97.002, -100.2164
78.800003, 96.833, -101.0764
80.000000, 96.685, -101.8351
81.199997, 96.542, -102.6149
82.500000, 96.386, -103.4421
83.800003, 96.233, -104.2330
85.000000, 96.095, -104.9258
86.199997, 95.963, -105.5854
87.500000, 95.825, -106.2951
88.500000, 95.720, -106.8469
90.000000, 95.561, -107.6873
91.199997, 95.431, -108.3495
92.500000, 95.290, -109.0406
93.800003, 95.152, -109.7051
95.000000, 95.027, -110.2856
96.199997, 94.907, -110.8477
97.500000, 94.774, -111.4542
98.800003, 94.640, -112.0234
100.000000, 94.519, -112.5474
101.500000, 94.375, -113.2091
103.000000, 94.242, -113.8932
104.400002, 94.120, -114.5092
106.000000, 93.983, -115.1188
107.500000, 93.855, -115.6490
109.000000, 93.717, -116.2032
110.599998, 93.568, -116.8068
112.000000, 93.444, -117.3630
113.800003, 93.300, -118.0435
115.000000, 93.208, -118.4082
117.199997, 93.030, -118.8419
118.000000, 92.959, -118.9016
120.599998, 92.787, -119.3961
122.000000, 92.663, -120.2061
124.099998, 92.465, -121.1476
125.000000, 92.397, -121.4743
126.500000, 92.294, -121.9208
128.000000, 92.192, -122.2390
131.500000, 91.936, -122.8766
132.000000, 91.901, -122.9797
134.000000, 91.788, -123.4331
136.000000, 91.708, -124.0206
138.000000, 91.620, -124.5809
140.000000, 91.513, -125.1053
143.000000, 91.332, -126.0064
145.000000, 91.221, -126.7104
147.500000, 91.071, -127.3909
150.000000, 90.937, -127.6689
152.500000, 90.807, -127.9817
155.000000, 90.685, -128.3836
157.500000, 90.572, -128.8483
160.000000, 90.476, -129.3252
162.500000, 90.390, -129.9427
165.000000, 90.291, -130.5689
167.500000, 90.187, -131.0607
170.000000, 90.079, -131.5782
172.500000, 89.968, -132.1329
175.000000, 89.859, -132.6359
177.500000, 89.757, -133.0352
180.000000, 89.661, -133.4478
182.500000, 89.563, -133.9188
185.000000, 89.464, -134.3682
187.500000, 89.368, -134.7497
190.000000, 89.279, -135.0964
192.500000, 89.196, -135.4513
195.000000, 89.115, -135.8229
197.500000, 89.032, -136.1714
200.000000, 88.949, -136.5038
203.000000, 88.854, -136.9235
206.000000, 88.763, -137.3497
209.000000, 88.674, -137.7502
212.000000, 88.586, -138.1254
214.000000, 88.529, -138.3652
218.000000, 88.419, -138.8434
220.000000, 88.365, -139.0695
224.000000, 88.262, -139.4800
227.000000, 88.187, -139.7875
230.000000, 88.110, -140.0959
233.000000, 88.035, -140.4052
236.000000, 87.964, -140.7152
240.000000, 87.875, -141.1099
243.000000, 87.810, -141.3778
247.000000, 87.722, -141.7273
250.000000, 87.658, -141.9912
254.000000, 87.579, -142.3249
258.000000, 87.502, -142.6473
262.000000, 87.424, -142.9717
265.000000, 87.368, -143.1919
269.000000, 87.296, -143.4695
272.000000, 87.243, -143.6777
276.000000, 87.175, -143.9529
280.000000, 87.109, -144.2117
285.000000, 87.031, -144.4956
290.000000, 86.955, -144.7880
295.000000, 86.884, -145.0799
300.000000, 86.817, -145.3546
304.000000, 86.766, -145.5927
307.000000, 86.729, -145.7707
311.000000, 86.680, -145.9834
315.000000, 86.631, -146.1924
320.000000, 86.569, -146.4468
325.000000, 86.509, -146.6938
330.000000, 86.452, -146.9332
335.000000, 86.396, -147.1570
340.000000, 86.341, -147.3698
345.000000, 86.287, -147.5700
350.000000, 86.235, -147.7614
355.000000, 86.185, -147.9396
360.000000, 86.136, -148.1094
365.000000, 86.089, -148.2755
370.000000, 86.043, -148.4368
375.000000, 85.997, -148.5873
382.000000, 85.936, -148.7620
387.000000, 85.894, -148.8856
395.000000, 85.829, -149.0789
400.000000, 85.790, -149.1964
406.000000, 85.744, -149.3229
412.000000, 85.700, -149.4389
418.000000, 85.655, -149.5427
425.000000, 85.604, -149.6492
431.000000, 85.562, -149.7357
437.000000, 85.520, -149.8119
444.000000, 85.472, -149.8869
450.000000, 85.433, -149.9319
455.000000, 85.401, -149.9727
462.000000, 85.357, -150.0303
468.000000, 85.321, -150.0596
475.000000, 85.283, -150.0730
482.000000, 85.244, -150.0897
487.000000, 85.217, -150.1066
494.000000, 85.180, -150.1217
500.000000, 85.147, -150.1290
508.000000, 85.103, -150.1239
515.000000, 85.066, -150.1025
522.000000, 85.030, -150.0781
530.000000, 84.990, -150.0254
538.000000, 84.951, -149.9666
545.000000, 84.918, -149.9172
552.000000, 84.884, -149.8536
560.000000, 84.847, -149.7628
570.000000, 84.802, -149.6373
580.000000, 84.755, -149.4764
590.000000, 84.711, -149.3235
600.000000, 84.669, -149.1400
608.000000, 84.637, -148.9835
615.000000, 84.612, -148.8538
622.000000, 84.585, -148.7192
630.000000, 84.554, -148.5476
640.000000, 84.517, -148.3039
650.000000, 84.480, -148.0457
660.000000, 84.443, -147.7622
670.000000, 84.409, -147.4581
680.000000, 84.377, -147.1448
690.000000, 84.343, -146.8206
700.000000, 84.311, -146.4740
710.000000, 84.281, -146.0970
720.000000, 84.254, -145.6937
730.000000, 84.231, -145.2700
740.000000, 84.211, -144.8434
750.000000, 84.192, -144.4217
762.000000, 84.168, -143.9007
775.000000, 84.144, -143.3074
788.000000, 84.123, -142.6640
800.000000, 84.108, -142.0547
812.000000, 84.098, -141.4285
825.000000, 84.091, -140.7160
838.000000, 84.089, -139.9733
850.000000, 84.090, -139.2784
862.000000, 84.095, -138.5713
875.000000, 84.106, -137.7734
885.000000, 84.118, -137.1499
900.000000, 84.144, -136.1894
912.000000, 84.171, -135.4116
925.000000, 84.207, -134.5691
938.000000, 84.250, -133.7223
950.000000, 84.294, -132.9361
962.000000, 84.344, -132.1456
975.000000, 84.404, -131.2828
988.000000, 84.471, -130.4266
1000.000000, 84.539, -129.6428
1015.000000, 84.632, -128.6681
1030.000000, 84.734, -127.7085
1044.000000, 84.838, -126.8257
1060.000000, 84.965, -125.8429
1075.000000, 85.093, -124.9460
1090.000000, 85.232, -124.0745
1106.000000, 85.393, -123.1930
1120.000000, 85.542, -122.4707
1138.000000, 85.745, -121.6183
1150.000000, 85.887, -121.1082
1172.000000, 86.159, -120.3103
1180.000000, 86.260, -120.0652
1206.000000, 86.593, -119.4390
1220.000000, 86.771, -119.2150
1241.000000, 87.036, -119.0207
1250.000000, 87.149, -118.9822
1265.000000, 87.333, -118.9742
1280.000000, 87.512, -119.0343
1315.000000, 87.906, -119.4104
1320.000000, 87.959, -119.4869
1340.000000, 88.165, -119.8430
1360.000000, 88.356, -120.2701
1380.000000, 88.534, -120.7457
1400.000000, 88.698, -121.2559
1430.000000, 88.920, -122.0688
1450.000000, 89.053, -122.6249
1475.000000, 89.203, -123.3214
1500.000000, 89.335, -124.0012
1525.000000, 89.453, -124.6548
1550.000000, 89.559, -125.2777
1575.000000, 89.655, -125.8636
1600.000000, 89.743, -126.4155
1625.000000, 89.822, -126.9274
1650.000000, 89.895, -127.4045
1675.000000, 89.963, -127.8358
1700.000000, 90.028, -128.2322
1725.000000, 90.089, -128.5951
1750.000000, 90.147, -128.9219
1775.000000, 90.204, -129.2218
1800.000000, 90.260, -129.4895
1825.000000, 90.315, -129.7297
1850.000000, 90.370, -129.9503
1875.000000, 90.425, -130.1511
1900.000000, 90.479, -130.3354
1925.000000, 90.533, -130.4989
1950.000000, 90.589, -130.6462
1975.000000, 90.645, -130.7822
2000.000000, 90.703, -130.9047
2030.000000, 90.773, -131.0366
2060.000000, 90.845, -131.1599
2090.000000, 90.919, -131.2751
2120.000000, 90.994, -131.3844
2140.000000, 91.046, -131.4536
2180.000000, 91.152, -131.5923
2200.000000, 91.207, -131.6648
2240.000000, 91.319, -131.8065
2270.000000, 91.405, -131.9167
2300.000000, 91.493, -132.0364
2330.000000, 91.583, -132.1636
2360.000000, 91.676, -132.2987
2400.000000, 91.804, -132.5010
2430.000000, 91.901, -132.6757
2470.000000, 92.033, -132.9326
2500.000000, 92.135, -133.1466
2540.000000, 92.273, -133.4689
2580.000000, 92.414, -133.8328
2620.000000, 92.557, -134.2369
2650.000000, 92.666, -134.5731
2690.000000, 92.812, -135.0695
2720.000000, 92.923, -135.4778
2760.000000, 93.072, -136.0720
2800.000000, 93.220, -136.7295
2850.000000, 93.405, -137.6474
2900.000000, 93.588, -138.6786
2950.000000, 93.766, -139.8345
3000.000000, 93.937, -141.1221
3040.000000, 94.066, -142.2454
3070.000000, 94.157, -143.1404
3110.000000, 94.271, -144.4041
3150.000000, 94.375, -145.7456
3200.000000, 94.488, -147.5253
3250.000000, 94.579, -149.4047
3300.000000, 94.645, -151.3689
3350.000000, 94.686, -153.4005
3400.000000, 94.698, -155.4780
3450.000000, 94.680, -157.5720
3500.000000, 94.632, -159.6564
3550.000000, 94.555, -161.7072
3600.000000, 94.451, -163.6976
3650.000000, 94.323, -165.6051
3700.000000, 94.173, -167.4218
3750.000000, 94.003, -169.1452
3820.000000, 93.734, -171.3904
3870.000000, 93.524, -172.8672
3950.000000, 93.155, -174.9966
4000.000000, 92.909, -176.1688
4060.000000, 92.598, -177.4039
4120.000000, 92.276, -178.4474
4180.000000, 91.944, -179.2931
4250.000000, 91.550, 179.9744
4310.000000, 91.210, 179.5507
4370.000000, 90.869, 179.3077
4440.000000, 90.476, 179.2477
4500.000000, 90.142, 179.3834
4550.000000, 89.868, 179.6213
4620.000000, 89.490, -179.8472
4680.000000, 89.173, -179.1931
4750.000000, 88.813, -178.1597
4820.000000, 88.477, -176.7687
4870.000000, 88.266, -175.5273
4940.000000, 88.048, -173.5396
5000.000000, 87.951, -171.9326
5080.000000, 87.891, -170.5133
5150.000000, 87.811, -169.8690
5220.000000, 87.672, -169.3412
5300.000000, 87.465, -168.5392
5380.000000, 87.243, -167.4235
5450.000000, 87.057, -166.2227
5520.000000, 86.889, -164.8615
5600.000000, 86.723, -163.1537
5700.000000, 86.557, -160.8610
5800.000000, 86.440, -158.4814
5900.000000, 86.369, -156.0605
6000.000000, 86.342, -153.6290
6080.000000, 86.351, -151.6896
6150.000000, 86.381, -150.0020
6220.000000, 86.432, -148.3344
6300.000000, 86.517, -146.4645
6400.000000, 86.664, -144.1940
6500.000000, 86.857, -142.0101
6600.000000, 87.098, -139.9395
6700.000000, 87.392, -138.0161
6800.000000, 87.738, -136.2827
6900.000000, 88.140, -134.7858
7000.000000, 88.602, -133.5759
7100.000000, 89.127, -132.7238
7200.000000, 89.719, -132.3350
7300.000000, 90.378, -132.5549
7400.000000, 91.100, -133.5561
7500.000000, 91.870, -135.5472
7620.000000, 92.816, -139.5881
7750.000000, 93.764, -146.3752
7880.000000, 94.450, -155.7025
8000.000000, 94.683, -165.9089
8120.000000, 94.445, -176.4183
8250.000000, 93.705, 173.3669
8380.000000, 92.626, 165.3877
8500.000000, 91.495, 160.2027
8620.000000, 90.352, 156.8489
8750.000000, 89.177, 154.7924
8850.000000, 88.338, 154.0333
9000.000000, 87.196, 153.8389
9120.000000, 86.377, 154.2486
9250.000000, 85.577, 155.0630
9380.000000, 84.856, 156.1296
9500.000000, 84.250, 157.2507
9620.000000, 83.692, 158.4528
9750.000000, 83.131, 159.8291
9880.000000, 82.607, 161.2941
10000.000000, 82.149, 162.7471
10150.000000, 81.611, 164.7718
10300.000000, 81.133, 167.1187
10440.000000, 80.769, 169.5549
10600.000000, 80.473, 172.3395
10750.000000, 80.308, 174.6191
10900.000000, 80.215, 176.3783
11060.000000, 80.149, 177.6549
11200.000000, 80.095, 178.3556
11380.000000, 80.014, 178.8429
11500.000000, 79.947, 178.9824
11720.000000, 79.802, 178.9614
11800.000000, 79.745, 178.8960
12060.000000, 79.547, 178.6244
12200.000000, 79.440, 178.4691
12410.000000, 79.292, 178.2034
12500.000000, 79.238, 178.0999
12650.000000, 79.163, 177.9954
12800.000000, 79.128, 177.9754
13150.000000, 79.315, 177.0598
13200.000000, 79.358, 176.6729
13400.000000, 79.494, 174.6282
13600.000000, 79.607, 172.3546
13800.000000, 79.768, 169.7386
14000.000000, 79.967, 166.3378
14300.000000, 80.183, 159.5393
14500.000000, 80.176, 154.5613
14750.000000, 80.148, 149.2078
