* Measurement data measured by REW V5.31.3
* Source: EXCL: Headset (USB-C to 3.5mm Headphone Jack Adapter), MICROPHONE (Master Volume), 0, volume: 0.700
* Format: 256k Log Swept Sine, 1 sweep at -12.0 dBFS with no timing reference
* Dated: Nov 9, 2024 10:33:09 AM
* REW Settings:
*  C-weighting compensation: Off
*  Target level: 75.0 dB
* Note: ; 
* Measurement: L
* Smoothing: 1/24 octave
* Frequency Step: 1/48 octave
* Start Frequency: 1.000 Hz
*
* Freq(Hz), SPL(dB), Phase(degrees)
1.000000, 77.558, 43.8842
1.015000, 77.773, 42.6677
1.030000, 77.985, 41.4664
1.044000, 78.181, 40.3568
1.060000, 78.401, 39.0995
1.075000, 78.606, 37.9289
1.090000, 78.807, 36.7637
1.106000, 79.018, 35.5262
1.120000, 79.201, 34.4500
1.138000, 79.435, 33.0788
1.150000, 79.590, 32.1737
1.172000, 79.874, 30.5349
1.180000, 79.976, 29.9461
1.206000, 80.307, 28.0598
1.220000, 80.483, 27.0620
1.241000, 80.746, 25.5894
1.250000, 80.858, 24.9672
1.265000, 81.043, 23.9421
1.280000, 81.228, 22.9315
1.315000, 81.652, 20.6292
1.320000, 81.712, 20.3065
1.340000, 81.951, 19.0303
1.360000, 82.187, 17.7769
1.380000, 82.420, 16.5451
1.400000, 82.650, 15.3333
1.430000, 82.990, 13.5502
1.450000, 83.213, 12.3823
1.475000, 83.487, 10.9437
1.500000, 83.757, 9.5293
1.525000, 84.022, 8.1399
1.550000, 84.282, 6.7755
1.575000, 84.539, 5.4353
1.600000, 84.791, 4.1179
1.625000, 85.039, 2.8219
1.650000, 85.283, 1.5451
1.675000, 85.523, 0.2856
1.700000, 85.760, -0.9591
1.725000, 85.992, -2.1915
1.750000, 86.221, -3.4141
1.775000, 86.447, -4.6295
1.800000, 86.669, -5.8405
1.825000, 86.888, -7.0501
1.850000, 87.103, -8.2615
1.875000, 87.315, -9.4756
1.900000, 87.522, -10.6894
1.925000, 87.725, -11.8994
1.950000, 87.925, -13.1025
1.975000, 88.121, -14.2962
2.000000, 88.313, -15.4786
2.030000, 88.539, -16.8804
2.060000, 88.761, -18.2622
2.090000, 88.978, -19.6231
2.120000, 89.191, -20.9628
2.140000, 89.330, -21.8445
2.180000, 89.604, -23.5826
2.200000, 89.738, -24.4423
2.240000, 90.001, -26.1591
2.270000, 90.192, -27.4483
2.300000, 90.378, -28.7350
2.330000, 90.560, -30.0150
2.360000, 90.737, -31.2843
2.400000, 90.968, -32.9547
2.430000, 91.136, -34.1877
2.470000, 91.354, -35.8017
2.500000, 91.514, -36.9879
2.540000, 91.722, -38.5369
2.580000, 91.924, -40.0576
2.620000, 92.119, -41.5725
2.650000, 92.261, -42.7085
2.690000, 92.443, -44.2178
2.720000, 92.576, -45.3414
2.760000, 92.748, -46.8224
2.800000, 92.915, -48.2779
2.850000, 93.116, -50.0526
2.900000, 93.309, -51.7705
2.950000, 93.495, -53.4388
3.000000, 93.673, -55.0889
3.040000, 93.809, -56.4020
3.070000, 93.907, -57.3797
3.110000, 94.034, -58.6691
3.150000, 94.157, -59.9370
3.200000, 94.304, -61.4833
3.250000, 94.447, -62.9779
3.300000, 94.584, -64.4184
3.350000, 94.716, -65.8215
3.400000, 94.841, -67.2028
3.450000, 94.960, -68.5611
3.500000, 95.073, -69.8909
3.550000, 95.183, -71.1863
3.600000, 95.289, -72.4412
3.650000, 95.393, -73.6515
3.700000, 95.493, -74.8216
3.750000, 95.590, -75.9618
3.820000, 95.718, -77.5141
3.870000, 95.806, -78.5905
3.950000, 95.943, -80.2519
4.000000, 96.026, -81.2494
4.060000, 96.125, -82.4041
4.120000, 96.222, -83.5173
4.180000, 96.316, -84.5947
4.250000, 96.423, -85.8112
4.310000, 96.513, -86.8225
4.370000, 96.603, -87.8069
4.440000, 96.707, -88.9215
4.500000, 96.795, -89.8474
4.550000, 96.868, -90.6003
4.620000, 96.969, -91.6299
4.680000, 97.055, -92.4937
4.750000, 97.154, -93.4839
4.820000, 97.251, -94.4560
4.870000, 97.321, -95.1386
4.940000, 97.417, -96.0786
5.000000, 97.498, -96.8710
5.080000, 97.604, -97.9113
5.150000, 97.694, -98.8089
5.220000, 97.782, -99.6965
5.300000, 97.880, -100.6979
5.380000, 97.975, -101.6824
5.450000, 98.056, -102.5280
5.520000, 98.133, -103.3594
5.600000, 98.219, -104.2961
5.700000, 98.320, -105.4456
5.800000, 98.417, -106.5631
5.900000, 98.509, -107.6434
6.000000, 98.595, -108.6920
6.080000, 98.661, -109.5088
6.150000, 98.716, -110.2053
6.220000, 98.770, -110.8834
6.300000, 98.830, -111.6364
6.400000, 98.901, -112.5479
6.500000, 98.970, -113.4287
6.600000, 99.037, -114.2798
6.700000, 99.103, -115.1017
6.800000, 99.166, -115.8969
6.900000, 99.228, -116.6693
7.000000, 99.289, -117.4215
7.100000, 99.348, -118.1541
7.200000, 99.406, -118.8682
7.300000, 99.462, -119.5657
7.400000, 99.517, -120.2479
7.500000, 99.570, -120.9152
7.620000, 99.632, -121.6966
7.750000, 99.697, -122.5193
7.880000, 99.761, -123.3183
8.000000, 99.818, -124.0390
8.120000, 99.876, -124.7454
8.250000, 99.939, -125.4957
8.380000, 100.002, -126.2428
8.500000, 100.061, -126.9372
8.620000, 100.121, -127.6375
8.750000, 100.186, -128.4164
8.850000, 100.236, -129.0380
9.000000, 100.309, -130.0067
9.120000, 100.364, -130.8164
9.250000, 100.417, -131.7354
9.380000, 100.464, -132.6938
9.500000, 100.498, -133.6007
9.620000, 100.523, -134.5264
9.750000, 100.538, -135.5437
9.880000, 100.541, -136.5478
10.000000, 100.532, -137.4522
10.150000, 100.507, -138.5421
10.300000, 100.469, -139.5485
10.440000, 100.423, -140.4004
10.600000, 100.367, -141.2659
10.750000, 100.315, -141.9602
10.900000, 100.269, -142.5572
11.060000, 100.232, -143.1196
11.200000, 100.212, -143.5636
11.380000, 100.203, -144.1357
11.500000, 100.209, -144.5419
11.720000, 100.231, -145.3791
11.800000, 100.241, -145.7271
12.060000, 100.267, -146.9996
12.200000, 100.267, -147.7555
12.410000, 100.245, -148.9192
12.500000, 100.224, -149.3985
12.650000, 100.177, -150.1505
12.800000, 100.117, -150.7968
13.150000, 99.954, -151.6933
13.200000, 99.933, -151.7424
13.400000, 99.868, -151.7421
13.600000, 99.849, -151.5064
13.800000, 99.891, -151.1458
14.000000, 99.995, -150.8393
14.300000, 100.246, -150.7685
14.500000, 100.447, -151.1184
14.750000, 100.697, -152.0080
15.000000, 100.912, -153.3046
15.250000, 101.072, -154.8259
15.500000, 101.174, -156.3762
15.750000, 101.228, -157.8011
16.000000, 101.253, -158.9945
16.250000, 101.270, -159.9402
16.500000, 101.296, -160.6823
16.750000, 101.340, -161.3101
17.000000, 101.400, -161.9159
17.250000, 101.467, -162.5565
17.500000, 101.531, -163.2480
17.750000, 101.583, -163.9635
18.000000, 101.622, -164.6609
18.250000, 101.651, -165.3022
18.500000, 101.676, -165.8715
18.750000, 101.702, -166.3820
19.000000, 101.734, -166.8645
19.250000, 101.771, -167.3585
19.500000, 101.808, -167.8886
19.750000, 101.841, -168.4599
20.000000, 101.864, -169.0562
20.299999, 101.879, -169.7643
20.600000, 101.883, -170.4216
20.900000, 101.884, -171.0087
21.200001, 101.889, -171.5419
21.400000, 101.897, -171.8876
21.799999, 101.920, -172.6068
22.000000, 101.933, -172.9918
22.400000, 101.952, -173.7986
22.700001, 101.958, -174.3998
23.000000, 101.961, -174.9681
23.299999, 101.965, -175.4981
23.600000, 101.973, -176.0072
24.000000, 101.988, -176.6965
24.299999, 101.998, -177.2338
24.700001, 102.003, -177.9448
25.000000, 102.000, -178.4370
25.400000, 102.000, -179.0210
25.799999, 102.012, -179.5899
26.200001, 102.034, 179.7394
26.500000, 102.042, 179.1424
26.900000, 102.026, 178.3013
27.200001, 101.993, 177.7398
27.600000, 101.944, 177.1859
28.000000, 101.929, 176.7683
28.500000, 101.971, 175.9844
29.000000, 101.999, 174.5361
29.500000, 101.895, 172.8255
30.000000, 101.663, 171.8640
30.400000, 101.497, 172.0554
30.700001, 101.457, 172.5877
31.100000, 101.546, 173.2101
31.500000, 101.738, 173.1270
32.000000, 101.951, 171.8950
32.500000, 102.023, 170.1802
33.000000, 101.990, 168.8723
33.500000, 101.965, 168.1634
34.000000, 101.998, 167.6243
34.500000, 102.048, 166.8981
35.000000, 102.064, 166.0693
35.500000, 102.048, 165.3798
36.000000, 102.032, 164.8810
36.500000, 102.031, 164.4349
37.000000, 102.034, 163.9260
37.500000, 102.029, 163.3505
38.200001, 102.006, 162.5085
38.700001, 101.985, 161.9067
39.500000, 101.956, 160.9349
40.000000, 101.944, 160.2873
40.599998, 101.932, 159.4432
41.200001, 101.915, 158.5740
41.799999, 101.896, 157.7476
42.500000, 101.879, 156.8520
43.099998, 101.867, 156.1355
43.700001, 101.857, 155.4770
44.400002, 101.852, 154.7578
45.000000, 101.850, 154.1458
45.500000, 101.846, 153.6364
46.200001, 101.839, 152.9124
46.799999, 101.831, 152.2392
47.500000, 101.804, 151.4018
48.200001, 101.760, 150.6238
48.700001, 101.730, 150.1365
49.400002, 101.701, 149.4868
50.000000, 101.685, 148.8943
50.799999, 101.666, 148.0442
51.500000, 101.645, 147.2911
52.200001, 101.622, 146.5658
53.000000, 101.594, 145.7849
53.799999, 101.569, 145.0378
54.500000, 101.548, 144.3848
55.200001, 101.525, 143.7202
56.000000, 101.495, 142.9507
57.000000, 101.451, 141.9897
58.000000, 101.406, 141.0527
59.000000, 101.364, 140.1268
60.000000, 101.323, 139.1977
60.799999, 101.289, 138.4730
61.500000, 101.261, 137.8519
62.200001, 101.232, 137.2373
63.000000, 101.196, 136.5497
64.000000, 101.152, 135.7169
65.000000, 101.108, 134.8935
66.000000, 101.064, 134.0645
67.000000, 101.018, 133.2320
68.000000, 100.969, 132.4312
69.000000, 100.927, 131.6534
70.000000, 100.886, 130.8276
71.000000, 100.837, 130.0011
72.000000, 100.786, 129.2247
73.000000, 100.739, 128.4595
74.000000, 100.691, 127.7022
75.000000, 100.645, 126.9561
76.199997, 100.592, 126.0628
77.500000, 100.532, 125.0875
78.800003, 100.473, 124.1085
80.000000, 100.410, 123.2034
81.199997, 100.354, 122.4105
82.500000, 100.310, 121.4673
83.800003, 100.254, 120.5401
85.000000, 100.208, 119.7008
86.199997, 100.144, 118.8434
87.500000, 100.067, 118.0898
88.500000, 100.016, 117.5376
90.000000, 99.941, 116.6212
91.199997, 99.875, 115.8636
92.500000, 99.803, 115.0425
93.800003, 99.733, 114.2244
95.000000, 99.672, 113.4791
96.199997, 99.611, 112.7542
97.500000, 99.548, 111.9783
98.800003, 99.481, 111.2130
100.000000, 99.417, 110.5356
101.500000, 99.339, 109.7037
103.000000, 99.261, 108.8821
104.400002, 99.188, 108.1298
106.000000, 99.107, 107.2810
107.500000, 99.032, 106.4938
109.000000, 98.961, 105.7079
110.599998, 98.884, 104.8591
112.000000, 98.817, 104.1641
113.800003, 98.734, 103.2952
115.000000, 98.673, 102.7415
117.199997, 98.562, 101.8056
118.000000, 98.522, 101.4742
120.599998, 98.402, 100.3001
122.000000, 98.328, 99.6389
124.099998, 98.213, 98.7377
125.000000, 98.164, 98.3534
126.500000, 98.082, 97.7105
128.000000, 98.001, 97.0918
131.500000, 97.857, 95.8084
132.000000, 97.842, 95.6161
134.000000, 97.773, 94.7932
136.000000, 97.675, 93.9509
138.000000, 97.557, 93.3743
140.000000, 97.472, 92.8720
143.000000, 97.333, 91.7740
145.000000, 97.233, 90.9498
147.500000, 97.102, 89.9614
150.000000, 97.016, 89.5006
152.500000, 96.931, 88.8207
155.000000, 96.809, 88.1751
157.500000, 96.695, 87.4587
160.000000, 96.596, 86.7337
162.500000, 96.498, 86.0257
165.000000, 96.389, 85.3583
167.500000, 96.289, 84.7966
170.000000, 96.201, 84.2553
172.500000, 96.108, 83.7243
175.000000, 96.011, 83.1982
177.500000, 95.915, 82.6758
180.000000, 95.822, 82.1777
182.500000, 95.729, 81.7088
185.000000, 95.638, 81.2637
187.500000, 95.548, 80.8490
190.000000, 95.461, 80.4657
192.500000, 95.378, 80.1260
195.000000, 95.304, 79.7579
197.500000, 95.230, 79.3549
200.000000, 95.156, 78.9673
203.000000, 95.070, 78.5710
206.000000, 94.986, 78.1968
209.000000, 94.903, 77.8340
212.000000, 94.821, 77.4647
214.000000, 94.766, 77.2356
218.000000, 94.663, 76.8307
220.000000, 94.611, 76.6521
224.000000, 94.512, 76.2996
227.000000, 94.440, 76.0261
230.000000, 94.371, 75.7887
233.000000, 94.304, 75.5793
236.000000, 94.238, 75.3747
240.000000, 94.154, 75.1018
243.000000, 94.096, 74.9076
247.000000, 94.023, 74.6738
250.000000, 93.970, 74.5219
254.000000, 93.900, 74.3284
258.000000, 93.833, 74.1505
262.000000, 93.770, 73.9988
265.000000, 93.723, 73.8988
269.000000, 93.664, 73.7769
272.000000, 93.621, 73.6924
276.000000, 93.568, 73.5876
280.000000, 93.518, 73.4900
285.000000, 93.461, 73.3833
290.000000, 93.407, 73.3004
295.000000, 93.357, 73.2390
300.000000, 93.311, 73.1960
304.000000, 93.277, 73.1726
307.000000, 93.252, 73.1556
311.000000, 93.220, 73.1377
315.000000, 93.191, 73.1277
320.000000, 93.158, 73.1267
325.000000, 93.129, 73.1246
330.000000, 93.103, 73.1239
335.000000, 93.079, 73.1442
340.000000, 93.058, 73.1783
345.000000, 93.039, 73.2031
350.000000, 93.022, 73.2268
355.000000, 93.008, 73.2682
360.000000, 92.995, 73.3138
365.000000, 92.982, 73.3609
370.000000, 92.971, 73.4118
375.000000, 92.963, 73.4554
382.000000, 92.952, 73.5240
387.000000, 92.944, 73.5905
395.000000, 92.937, 73.6916
400.000000, 92.935, 73.7523
406.000000, 92.933, 73.8302
412.000000, 92.931, 73.9105
418.000000, 92.931, 73.9893
425.000000, 92.931, 74.0801
431.000000, 92.931, 74.1654
437.000000, 92.932, 74.2552
444.000000, 92.934, 74.3740
450.000000, 92.935, 74.4850
455.000000, 92.937, 74.5752
462.000000, 92.938, 74.6969
468.000000, 92.939, 74.8065
475.000000, 92.941, 74.9399
482.000000, 92.945, 75.0801
487.000000, 92.948, 75.1794
494.000000, 92.951, 75.3185
500.000000, 92.953, 75.4439
508.000000, 92.955, 75.6229
515.000000, 92.957, 75.7813
522.000000, 92.959, 75.9530
530.000000, 92.958, 76.1565
538.000000, 92.957, 76.3648
545.000000, 92.957, 76.5516
552.000000, 92.958, 76.7461
560.000000, 92.957, 76.9749
570.000000, 92.956, 77.2777
580.000000, 92.953, 77.6063
590.000000, 92.949, 77.9538
600.000000, 92.943, 78.3211
608.000000, 92.937, 78.6221
615.000000, 92.932, 78.8935
622.000000, 92.929, 79.1750
630.000000, 92.925, 79.5055
640.000000, 92.918, 79.9338
650.000000, 92.910, 80.3777
660.000000, 92.903, 80.8425
670.000000, 92.896, 81.3336
680.000000, 92.888, 81.8488
690.000000, 92.879, 82.3769
700.000000, 92.871, 82.9220
710.000000, 92.864, 83.4824
720.000000, 92.857, 84.0667
730.000000, 92.852, 84.6668
740.000000, 92.847, 85.2808
750.000000, 92.843, 85.9211
762.000000, 92.840, 86.7112
775.000000, 92.839, 87.5859
788.000000, 92.838, 88.4872
800.000000, 92.840, 89.3520
812.000000, 92.845, 90.2411
825.000000, 92.854, 91.2169
838.000000, 92.868, 92.2087
850.000000, 92.885, 93.1398
862.000000, 92.905, 94.0892
875.000000, 92.929, 95.1287
885.000000, 92.950, 95.9347
900.000000, 92.985, 97.1532
912.000000, 93.017, 98.1402
925.000000, 93.056, 99.2224
938.000000, 93.101, 100.2975
950.000000, 93.147, 101.2792
962.000000, 93.199, 102.2512
975.000000, 93.259, 103.2957
988.000000, 93.324, 104.3287
1000.000000, 93.387, 105.2663
1015.000000, 93.469, 106.4069
1030.000000, 93.553, 107.5132
1044.000000, 93.632, 108.5198
1060.000000, 93.724, 109.6393
1075.000000, 93.813, 110.6495
1090.000000, 93.903, 111.6266
1106.000000, 94.000, 112.6432
1120.000000, 94.084, 113.5063
1138.000000, 94.192, 114.5735
1150.000000, 94.263, 115.2596
1172.000000, 94.389, 116.4811
1180.000000, 94.433, 116.9164
1206.000000, 94.570, 118.2974
1220.000000, 94.641, 119.0201
1241.000000, 94.743, 120.0904
1250.000000, 94.785, 120.5460
1265.000000, 94.854, 121.3039
1280.000000, 94.922, 122.0583
1315.000000, 95.072, 123.8003
1320.000000, 95.092, 124.0498
1340.000000, 95.172, 125.0536
1360.000000, 95.247, 126.0646
1380.000000, 95.321, 127.0828
1400.000000, 95.393, 128.1090
1430.000000, 95.501, 129.6721
1450.000000, 95.573, 130.7233
1475.000000, 95.665, 132.0367
1500.000000, 95.760, 133.3466
1525.000000, 95.856, 134.6656
1550.000000, 95.953, 135.9912
1575.000000, 96.051, 137.3056
1600.000000, 96.153, 138.6135
1625.000000, 96.257, 139.9145
1650.000000, 96.366, 141.2014
1675.000000, 96.479, 142.4608
1700.000000, 96.597, 143.6841
1725.000000, 96.719, 144.8733
1750.000000, 96.843, 146.0280
1775.000000, 96.971, 147.1385
1800.000000, 97.100, 148.1934
1825.000000, 97.232, 149.1929
1850.000000, 97.364, 150.1346
1875.000000, 97.495, 151.0156
1900.000000, 97.627, 151.8295
1925.000000, 97.759, 152.5687
1950.000000, 97.889, 153.2338
1975.000000, 98.016, 153.8262
2000.000000, 98.139, 154.3433
2030.000000, 98.278, 154.8580
2060.000000, 98.407, 155.2580
2090.000000, 98.523, 155.5547
2120.000000, 98.621, 155.7539
2140.000000, 98.677, 155.8359
2180.000000, 98.764, 155.8881
2200.000000, 98.795, 155.8669
2240.000000, 98.826, 155.7585
2270.000000, 98.823, 155.6436
2300.000000, 98.796, 155.5195
2330.000000, 98.745, 155.4034
2360.000000, 98.671, 155.3170
2400.000000, 98.538, 155.2878
2430.000000, 98.414, 155.3528
2470.000000, 98.225, 155.5685
2500.000000, 98.068, 155.8387
2540.000000, 97.843, 156.3626
2580.000000, 97.606, 157.0816
2620.000000, 97.363, 157.9807
2650.000000, 97.181, 158.7588
2690.000000, 96.939, 159.9201
2720.000000, 96.759, 160.8774
2760.000000, 96.521, 162.2572
2800.000000, 96.290, 163.7377
2850.000000, 96.012, 165.7008
2900.000000, 95.748, 167.7540
2950.000000, 95.496, 169.8572
3000.000000, 95.255, 171.9671
3040.000000, 95.065, 173.6526
3070.000000, 94.921, 174.9303
3110.000000, 94.727, 176.6801
3150.000000, 94.531, 178.5135
3200.000000, 94.298, -179.0369
3250.000000, 94.090, -176.4100
3300.000000, 93.924, -173.6630
3350.000000, 93.810, -170.8988
3400.000000, 93.752, -168.2322
3450.000000, 93.750, -165.7626
3500.000000, 93.800, -163.5760
3550.000000, 93.895, -161.7526
3600.000000, 94.031, -160.3706
3650.000000, 94.202, -159.5139
3700.000000, 94.398, -159.2638
3750.000000, 94.605, -159.7031
3820.000000, 94.876, -161.6058
3870.000000, 95.025, -163.9216
3950.000000, 95.108, -169.1581
4000.000000, 95.019, -173.1727
4060.000000, 94.743, -178.3642
4120.000000, 94.284, 176.4611
4180.000000, 93.674, 171.7009
4250.000000, 92.840, 166.9941
4310.000000, 92.085, 163.7651
4370.000000, 91.344, 161.2267
4440.000000, 90.544, 159.0036
4500.000000, 89.944, 157.6160
4550.000000, 89.516, 156.7635
4620.000000, 89.041, 155.9550
4680.000000, 88.757, 155.5686
4750.000000, 88.576, 155.4182
4820.000000, 88.553, 155.5389
4870.000000, 88.631, 155.7605
4940.000000, 88.864, 156.2142
5000.000000, 89.175, 156.6862
5080.000000, 89.735, 157.3006
5150.000000, 90.346, 157.6605
5220.000000, 91.045, 157.6524
5300.000000, 91.912, 156.9147
5380.000000, 92.782, 155.1202
5450.000000, 93.470, 152.5754
5520.000000, 94.015, 149.2291
5600.000000, 94.387, 144.8431
5700.000000, 94.423, 139.5971
5800.000000, 94.038, 136.0602
5900.000000, 93.404, 135.1465
6000.000000, 92.698, 136.8049
6080.000000, 92.152, 139.7148
6150.000000, 91.722, 143.2082
6220.000000, 91.350, 147.3578
6300.000000, 90.995, 152.6819
6400.000000, 90.645, 160.0489
6500.000000, 90.402, 168.0858
6600.000000, 90.271, 176.6193
6700.000000, 90.256, -174.5250
6800.000000, 90.356, -165.5166
6900.000000, 90.568, -156.4984
7000.000000, 90.889, -147.6050
7100.000000, 91.316, -138.9680
7200.000000, 91.842, -130.7228
7300.000000, 92.464, -123.0286
7400.000000, 93.176, -116.0648
7500.000000, 93.967, -110.0631
7620.000000, 94.981, -104.5634
7750.000000, 96.051, -101.3216
7880.000000, 96.876, -101.1718
8000.000000, 97.205, -103.0444
8120.000000, 97.010, -105.2167
8250.000000, 96.290, -105.9588
8380.000000, 95.261, -103.9667
8500.000000, 94.227, -99.7090
8620.000000, 93.231, -93.5552
8750.000000, 92.264, -85.3263
8850.000000, 91.625, -78.2471
9000.000000, 90.845, -66.9440
9120.000000, 90.371, -57.6475
9250.000000, 89.990, -47.5966
9380.000000, 89.728, -37.7576
9500.000000, 89.576, -28.9988
9620.000000, 89.496, -20.6405
9750.000000, 89.470, -12.1029
9880.000000, 89.486, -4.1712
10000.000000, 89.517, 2.5782
10150.000000, 89.549, 10.2591
10300.000000, 89.536, 17.1994
10440.000000, 89.452, 23.1980
10600.000000, 89.243, 29.8274
10750.000000, 88.934, 36.2085
10900.000000, 88.531, 43.1094
11060.000000, 88.030, 51.3644
11200.000000, 87.572, 59.5482
11380.000000, 87.029, 71.4880
11500.000000, 86.733, 80.2458
11720.000000, 86.404, 97.6791
11800.000000, 86.370, 104.3613
12060.000000, 86.634, 126.4872
12200.000000, 87.006, 138.0807
12410.000000, 87.795, 154.3461
12500.000000, 88.195, 160.8340
12650.000000, 88.917, 171.0357
12800.000000, 89.703, -179.4246
13150.000000, 91.888, -159.5067
13200.000000, 92.261, -157.0121
13400.000000, 93.961, -148.5676
13600.000000, 95.968, -144.2460
13800.000000, 97.987, -146.5378
14000.000000, 99.369, -156.2296
14300.000000, 98.965, -176.4040
14500.000000, 97.219, 174.9185
14750.000000, 94.584, 173.1834
15000.000000, 92.402, 178.2217
15250.000000, 90.976, -174.1861
15500.000000, 90.268, -166.4135
15750.000000, 90.212, -159.6578
16000.000000, 90.771, -154.8231
16250.000000, 91.899, -153.0519
16500.000000, 93.446, -155.8834
16750.000000, 95.059, -164.7052
17000.000000, 96.219, -179.4282
