* Measurement data measured by REW V5.30.9
* Source: Headset (JA3 HIFI AUDIO(CX31993)), MICROPHONE (Master Volume), L, volume: 0.250
* Format: 512k Log Swept Sine, 1 sweep at -13.0 dBFS with no timing reference
* Dated: Feb 24, 2024 2:42:08 PM
* REW Settings:
*  C-weighting compensation: Off
*  Target level: 75.0 dB
* Note: ; 
* Measurement: 7th Acoustics Proxima L
* Smoothing: 1/12 octave
* Frequency Step: 1/48 octave
* Start Frequency: 1.000 Hz
*
* Freq(Hz) SPL(dB) Phase(degrees)
1.000000 62.405 31.9414
1.015000 62.397 31.0636
1.030000 62.384 30.1921
1.044000 62.368 29.3842
1.060000 62.345 28.4666
1.075000 62.319 27.6091
1.090000 62.288 26.7483
1.106000 62.249 25.8138
1.120000 62.209 24.9688
1.138000 62.148 23.8311
1.150000 62.102 23.0369
1.172000 62.006 21.5048
1.180000 61.967 20.9233
1.206000 61.830 18.9463
1.220000 61.750 17.8278
1.241000 61.621 16.0823
1.250000 61.563 15.3102
1.265000 61.463 13.9924
1.280000 61.359 12.6375
1.315000 61.105 9.3431
1.320000 61.068 8.8585
1.340000 60.916 6.8884
1.360000 60.762 4.8728
1.380000 60.606 2.8182
1.400000 60.450 0.7310
1.430000 60.215 -2.4518
1.450000 60.056 -4.6138
1.475000 59.848 -7.4002
1.500000 59.618 -10.3526
1.525000 59.362 -13.5386
1.550000 59.081 -17.0006
1.575000 58.783 -20.7652
1.600000 58.476 -24.8520
1.625000 58.170 -29.2742
1.650000 57.874 -34.0374
1.675000 57.597 -39.1361
1.700000 57.348 -44.5512
1.725000 57.137 -50.2480
1.750000 56.975 -56.1773
1.775000 56.869 -62.2800
1.800000 56.831 -68.4977
1.825000 56.867 -74.7873
1.850000 56.980 -81.1224
1.875000 57.169 -87.4653
1.900000 57.427 -93.7398
1.925000 57.745 -99.8441
1.950000 58.115 -105.6803
1.975000 58.525 -111.1751
2.000000 58.965 -116.2847
2.030000 59.520 -121.8867
2.060000 60.089 -126.9252
2.090000 60.655 -131.4426
2.120000 61.204 -135.4970
2.140000 61.555 -137.9750
2.180000 62.212 -142.4871
2.200000 62.521 -144.5654
2.240000 63.113 -148.4646
2.270000 63.546 -151.2089
2.300000 63.972 -153.8144
2.330000 64.392 -156.2831
2.360000 64.805 -158.6147
2.400000 65.342 -161.5118
2.430000 65.730 -163.5290
2.470000 66.227 -166.0200
2.500000 66.581 -167.7493
2.540000 67.026 -169.8941
2.580000 67.438 -171.8989
2.620000 67.819 -173.8152
2.650000 68.085 -175.2110
2.690000 68.418 -177.0174
2.720000 68.652 -178.3247
2.760000 68.946 -179.9919
2.800000 69.222 178.4414
2.850000 69.548 176.6422
2.900000 69.856 175.0261
2.950000 70.144 173.5709
3.000000 70.410 172.2318
3.040000 70.606 171.2249
3.070000 70.744 170.5058
3.110000 70.919 169.5995
3.150000 71.084 168.7604
3.200000 71.283 167.8187
3.250000 71.475 167.0083
3.300000 71.662 166.3326
3.350000 71.843 165.7812
3.400000 72.015 165.3366
3.450000 72.181 164.9845
3.500000 72.344 164.7148
3.550000 72.509 164.5208
3.600000 72.680 164.3992
3.650000 72.859 164.3506
3.700000 73.046 164.3781
3.750000 73.240 164.4783
3.820000 73.523 164.7083
3.870000 73.732 164.9015
3.950000 74.084 165.1930
4.000000 74.315 165.3407
4.060000 74.606 165.4822
4.120000 74.911 165.5942
4.180000 75.226 165.6688
4.250000 75.604 165.6734
4.310000 75.931 165.5748
4.370000 76.259 165.3655
4.440000 76.641 164.9886
4.500000 76.969 164.5695
4.550000 77.242 164.1595
4.620000 77.619 163.4922
4.680000 77.935 162.8289
4.750000 78.292 161.9452
4.820000 78.636 160.9498
4.870000 78.874 160.1798
4.940000 79.196 159.0348
5.000000 79.460 158.0026
5.080000 79.796 156.5643
5.150000 80.072 155.2502
5.220000 80.331 153.8857
5.300000 80.609 152.2789
5.380000 80.867 150.6473
5.450000 81.077 149.2158
5.520000 81.273 147.7845
5.600000 81.480 146.1463
5.700000 81.713 144.1066
5.800000 81.923 142.1087
5.900000 82.112 140.1747
6.000000 82.281 138.3018
6.080000 82.405 136.8491
6.150000 82.506 135.6180
6.220000 82.602 134.4294
6.300000 82.706 133.1230
6.400000 82.829 131.5615
6.500000 82.948 130.0716
6.600000 83.065 128.6495
6.700000 83.182 127.2910
6.800000 83.300 125.9843
6.900000 83.421 124.7127
7.000000 83.544 123.4641
7.100000 83.670 122.2316
7.200000 83.799 121.0057
7.300000 83.928 119.7750
7.400000 84.057 118.5323
7.500000 84.184 117.2773
7.620000 84.333 115.7578
7.750000 84.485 114.0974
7.880000 84.626 112.4321
8.000000 84.745 110.9114
8.120000 84.851 109.4247
8.250000 84.952 107.8699
8.380000 85.040 106.4008
8.500000 85.111 105.1435
8.620000 85.175 103.9930
8.750000 85.240 102.8806
8.850000 85.290 102.1269
9.000000 85.371 101.1597
9.120000 85.445 100.5149
9.250000 85.540 99.9286
9.380000 85.652 99.4322
9.500000 85.773 99.0203
9.620000 85.911 98.6230
9.750000 86.076 98.1775
9.880000 86.253 97.6808
10.000000 86.423 97.1535
10.150000 86.638 96.3819
10.300000 86.849 95.4720
10.440000 87.038 94.4994
10.600000 87.238 93.2614
10.750000 87.406 92.0036
10.900000 87.550 90.6854
11.060000 87.677 89.2551
11.200000 87.764 88.0154
11.380000 87.846 86.4865
11.500000 87.883 85.5310
11.720000 87.922 83.9537
11.800000 87.929 83.4440
12.060000 87.942 82.0309
12.200000 87.947 81.4160
12.410000 87.965 80.6497
12.500000 87.978 80.3650
12.650000 88.009 79.9290
12.800000 88.049 79.5194
13.150000 88.169 78.5570
13.200000 88.187 78.4123
13.400000 88.256 77.8109
13.600000 88.319 77.1846
13.800000 88.372 76.5575
14.000000 88.416 75.9596
14.300000 88.473 75.1655
14.500000 88.515 74.7115
14.750000 88.580 74.1951
15.000000 88.668 73.6621
15.250000 88.777 73.0204
15.500000 88.897 72.1965
15.750000 89.013 71.1636
16.000000 89.110 69.9522
16.250000 89.178 68.6412
16.500000 89.212 67.3369
16.750000 89.218 66.1464
17.000000 89.208 65.1480
17.250000 89.200 64.3695
17.500000 89.212 63.7775
17.750000 89.254 63.2869
18.000000 89.329 62.7900
18.250000 89.427 62.1942
18.500000 89.532 61.4530
18.750000 89.629 60.5766
19.000000 89.706 59.6234
19.250000 89.757 58.6799
19.500000 89.785 57.8302
19.750000 89.800 57.1314
20.000000 89.814 56.5984
20.299999 89.846 56.1297
20.600000 89.901 55.7385
20.900000 89.973 55.3098
21.200001 90.045 54.7871
21.400000 90.084 54.3962
21.799999 90.133 53.6165
22.000000 90.145 53.2786
22.400000 90.164 52.7611
22.700001 90.191 52.4597
23.000000 90.234 52.1232
23.299999 90.286 51.6597
23.600000 90.330 51.0417
24.000000 90.351 50.0848
24.299999 90.338 49.4034
24.700001 90.310 48.6760
25.000000 90.309 48.2260
25.400000 90.347 47.5283
25.799999 90.400 46.4966
26.200001 90.410 45.1812
26.500000 90.366 44.2343
26.900000 90.261 43.4077
27.200001 90.192 43.2582
27.600000 90.190 43.5307
28.000000 90.324 43.7958
28.500000 90.598 43.3106
29.000000 90.823 41.8823
29.500000 90.912 40.2721
30.000000 90.916 39.1671
30.400000 90.921 38.7071
30.700001 90.940 38.4986
31.100000 90.977 38.2764
31.500000 91.013 38.0879
32.000000 91.052 37.9753
32.500000 91.110 37.9779
33.000000 91.198 37.8595
33.500000 91.281 37.4186
34.000000 91.317 36.7318
34.500000 91.296 36.0595
35.000000 91.244 35.5950
35.500000 91.197 35.3400
36.000000 91.175 35.1689
36.500000 91.177 34.9526
37.000000 91.194 34.6256
37.500000 91.214 34.1903
38.200001 91.239 33.4890
38.700001 91.254 32.9888
39.500000 91.280 32.2396
40.000000 91.299 31.8120
40.599998 91.324 31.3566
41.200001 91.355 30.9539
41.799999 91.393 30.5627
42.500000 91.434 30.0988
43.099998 91.465 29.7213
43.700001 91.493 29.3757
44.400002 91.526 28.9881
45.000000 91.553 28.6522
45.500000 91.573 28.3734
46.200001 91.597 27.9989
46.799999 91.617 27.6952
47.500000 91.640 27.3471
48.200001 91.661 26.9952
48.700001 91.673 26.7509
49.400002 91.687 26.4355
50.000000 91.699 26.1831
50.799999 91.714 25.8416
51.500000 91.723 25.5408
52.200001 91.730 25.2552
53.000000 91.739 24.9406
53.799999 91.750 24.6131
54.500000 91.761 24.2989
55.200001 91.768 23.9706
56.000000 91.770 23.6423
57.000000 91.784 23.3370
58.000000 91.814 23.0105
59.000000 91.837 22.6105
60.000000 91.837 22.2587
60.799999 91.827 22.0894
61.500000 91.820 22.0019
62.200001 91.816 21.9146
63.000000 91.809 21.7953
64.000000 91.802 21.6144
65.000000 91.795 21.3608
66.000000 91.796 21.0924
67.000000 91.824 20.7625
68.000000 91.873 20.2617
69.000000 91.918 19.5911
70.000000 91.925 18.9260
71.000000 91.898 18.6492
72.000000 91.890 18.8553
73.000000 91.933 19.2891
74.000000 92.029 19.6366
75.000000 92.151 19.5486
76.199997 92.253 18.7014
77.500000 92.238 17.3270
78.800003 92.115 16.2338
80.000000 92.011 15.8138
81.199997 91.995 15.7157
82.500000 92.086 15.5542
83.800003 92.231 15.1978
85.000000 92.361 14.8336
86.199997 92.455 14.6865
87.500000 92.525 14.9299
88.500000 92.561 15.3296
90.000000 92.579 15.8929
91.199997 92.524 16.2139
92.500000 92.416 16.5432
93.800003 92.290 16.6793
95.000000 92.180 16.6542
96.199997 92.103 16.4348
97.500000 92.053 15.9883
98.800003 92.031 15.5059
100.000000 92.035 15.1796
101.500000 92.069 14.9633
103.000000 92.112 14.8282
104.400002 92.137 14.7955
106.000000 92.175 14.6315
107.500000 92.182 13.9811
109.000000 92.122 13.2050
110.599998 92.018 12.7773
112.000000 91.929 12.8549
113.800003 91.821 13.2963
115.000000 91.721 13.5139
117.199997 91.405 13.7078
118.000000 91.259 13.8484
120.599998 90.953 16.0630
122.000000 91.186 17.9136
124.099998 91.905 16.9280
125.000000 92.157 14.9912
126.500000 92.419 11.0709
128.000000 92.547 7.4318
131.500000 92.742 4.4952
132.000000 92.785 4.7593
134.000000 92.914 6.2025
136.000000 92.772 7.5496
138.000000 92.438 9.2277
140.000000 92.233 10.6918
143.000000 92.287 11.3926
145.000000 92.340 11.6161
147.500000 92.300 11.7965
150.000000 92.230 11.5785
152.500000 92.221 11.3694
155.000000 92.224 11.5364
157.500000 92.199 11.7260
160.000000 92.193 11.6400
162.500000 92.232 11.5831
165.000000 92.269 11.6827
167.500000 92.261 11.7673
170.000000 92.251 11.7426
172.500000 92.252 11.6680
175.000000 92.259 11.6744
177.500000 92.254 11.4863
180.000000 92.230 11.1713
182.500000 92.211 11.0054
185.000000 92.195 10.9509
187.500000 92.169 10.8843
190.000000 92.143 10.8099
192.500000 92.124 10.8909
195.000000 92.106 11.2344
197.500000 92.103 11.7153
200.000000 92.136 12.2504
203.000000 92.211 12.9825
206.000000 92.243 13.5557
209.000000 92.179 13.7928
212.000000 92.015 13.9698
214.000000 91.866 13.9230
218.000000 91.695 12.3653
220.000000 91.800 11.1671
224.000000 92.243 10.0702
227.000000 92.456 10.5660
230.000000 92.499 11.2130
233.000000 92.462 11.5827
236.000000 92.417 11.7482
240.000000 92.382 11.7496
243.000000 92.371 11.6759
247.000000 92.359 11.6104
250.000000 92.348 11.5973
254.000000 92.334 11.6181
258.000000 92.326 11.6500
262.000000 92.325 11.6727
265.000000 92.326 11.6792
269.000000 92.328 11.6699
272.000000 92.327 11.6511
276.000000 92.320 11.6435
280.000000 92.311 11.6686
285.000000 92.303 11.7407
290.000000 92.299 11.8418
295.000000 92.298 11.9448
300.000000 92.298 12.0095
304.000000 92.297 12.0438
307.000000 92.295 12.0719
311.000000 92.292 12.1094
315.000000 92.288 12.1407
320.000000 92.284 12.1887
325.000000 92.284 12.2957
330.000000 92.289 12.4376
335.000000 92.296 12.5836
340.000000 92.302 12.7334
345.000000 92.304 12.8598
350.000000 92.302 12.9489
355.000000 92.298 13.0291
360.000000 92.295 13.1143
365.000000 92.292 13.2176
370.000000 92.288 13.3451
375.000000 92.285 13.4848
382.000000 92.279 13.6813
387.000000 92.276 13.8198
395.000000 92.273 14.0652
400.000000 92.272 14.2395
406.000000 92.271 14.4355
412.000000 92.269 14.6111
418.000000 92.266 14.7938
425.000000 92.268 15.0214
431.000000 92.269 15.2132
437.000000 92.270 15.4062
444.000000 92.270 15.6358
450.000000 92.272 15.8361
455.000000 92.274 16.0091
462.000000 92.276 16.2511
468.000000 92.278 16.4615
475.000000 92.283 16.7125
482.000000 92.290 16.9518
487.000000 92.296 17.1099
494.000000 92.306 17.3109
500.000000 92.313 17.4756
508.000000 92.312 17.7350
515.000000 92.305 18.0260
522.000000 92.299 18.3873
530.000000 92.303 18.8114
538.000000 92.311 19.1400
545.000000 92.316 19.3576
552.000000 92.322 19.5742
560.000000 92.328 19.8702
570.000000 92.335 20.2827
580.000000 92.344 20.6848
590.000000 92.355 21.0837
600.000000 92.366 21.5158
608.000000 92.376 21.8799
615.000000 92.383 22.1915
622.000000 92.389 22.4933
630.000000 92.397 22.8400
640.000000 92.406 23.2914
650.000000 92.416 23.7483
660.000000 92.429 24.2114
670.000000 92.444 24.6998
680.000000 92.461 25.2173
690.000000 92.480 25.7394
700.000000 92.504 26.2585
710.000000 92.535 26.7926
720.000000 92.570 27.3212
730.000000 92.606 27.8297
740.000000 92.640 28.3536
750.000000 92.676 28.9084
762.000000 92.722 29.5886
775.000000 92.769 30.2936
788.000000 92.819 30.9688
800.000000 92.869 31.5857
812.000000 92.919 32.1915
825.000000 92.977 32.8543
838.000000 93.039 33.5324
850.000000 93.097 34.1566
862.000000 93.158 34.7704
875.000000 93.227 35.4210
885.000000 93.284 35.9102
900.000000 93.374 36.6278
912.000000 93.450 37.1874
925.000000 93.537 37.7749
938.000000 93.628 38.3396
950.000000 93.714 38.8400
962.000000 93.804 39.3211
975.000000 93.903 39.8141
988.000000 94.004 40.2706
1000.000000 94.098 40.6589
1015.000000 94.217 41.0995
1030.000000 94.336 41.4892
1044.000000 94.446 41.8122
1060.000000 94.571 42.1394
1075.000000 94.687 42.4043
1090.000000 94.801 42.6201
1106.000000 94.920 42.7973
1120.000000 95.023 42.9185
1138.000000 95.150 43.0382
1150.000000 95.231 43.0983
1172.000000 95.373 43.1714
1180.000000 95.424 43.1886
1206.000000 95.578 43.2243
1220.000000 95.654 43.2382
1241.000000 95.762 43.2657
1250.000000 95.809 43.2870
1265.000000 95.887 43.3429
1280.000000 95.966 43.4276
1315.000000 96.165 43.7487
1320.000000 96.196 43.8074
1340.000000 96.332 44.0499
1360.000000 96.487 44.2439
1380.000000 96.656 44.3013
1400.000000 96.823 44.1763
1430.000000 97.042 43.7307
1450.000000 97.164 43.3703
1475.000000 97.296 42.9444
1500.000000 97.412 42.5776
1525.000000 97.519 42.2681
1550.000000 97.621 42.0075
1575.000000 97.721 41.7848
1600.000000 97.822 41.5904
1625.000000 97.926 41.4203
1650.000000 98.031 41.2673
1675.000000 98.136 41.1225
1700.000000 98.242 40.9845
1725.000000 98.350 40.8498
1750.000000 98.458 40.7121
1775.000000 98.569 40.5669
1800.000000 98.682 40.4065
1825.000000 98.797 40.2231
1850.000000 98.913 40.0110
1875.000000 99.029 39.7715
1900.000000 99.144 39.5080
1925.000000 99.257 39.2284
1950.000000 99.368 38.9338
1975.000000 99.477 38.6210
2000.000000 99.585 38.2951
2030.000000 99.711 37.8869
2060.000000 99.834 37.4652
2090.000000 99.954 37.0398
2120.000000 100.071 36.6134
2140.000000 100.150 36.3264
2180.000000 100.309 35.7260
2200.000000 100.390 35.4038
2240.000000 100.550 34.7001
2270.000000 100.666 34.1134
2300.000000 100.775 33.4789
2330.000000 100.873 32.8172
2360.000000 100.961 32.1630
2400.000000 101.069 31.3618
2430.000000 101.152 30.8307
2470.000000 101.284 30.1657
2500.000000 101.403 29.6148
2540.000000 101.582 28.6582
2580.000000 101.754 27.3516
2620.000000 101.888 25.7428
2650.000000 101.952 24.4341
2690.000000 101.988 22.7007
2720.000000 101.985 21.4855
2760.000000 101.954 20.0354
2800.000000 101.906 18.7906
2850.000000 101.842 17.4816
2900.000000 101.786 16.3320
2950.000000 101.738 15.2102
3000.000000 101.682 14.0563
3040.000000 101.621 13.1418
3070.000000 101.564 12.4945
3110.000000 101.478 11.7134
3150.000000 101.383 11.0426
3200.000000 101.259 10.3593
3250.000000 101.136 9.8312
3300.000000 101.020 9.4336
3350.000000 100.913 9.1404
3400.000000 100.816 8.9199
3450.000000 100.729 8.7414
3500.000000 100.647 8.5904
3550.000000 100.570 8.4720
3600.000000 100.495 8.3990
3650.000000 100.424 8.3787
3700.000000 100.360 8.4086
3750.000000 100.303 8.4791
3820.000000 100.238 8.6206
3870.000000 100.201 8.7354
3950.000000 100.157 8.9132
4000.000000 100.138 9.0056
4060.000000 100.122 9.0791
4120.000000 100.110 9.0988
4180.000000 100.103 9.0599
4250.000000 100.095 8.9457
4310.000000 100.086 8.7964
4370.000000 100.076 8.6030
4440.000000 100.062 8.3320
4500.000000 100.047 8.0709
4550.000000 100.033 7.8326
4620.000000 100.009 7.4613
4680.000000 99.982 7.1036
4750.000000 99.942 6.6339
4820.000000 99.893 6.1035
4870.000000 99.850 5.6922
4940.000000 99.775 5.0881
5000.000000 99.695 4.5643
5080.000000 99.559 3.8945
5150.000000 99.416 3.3663
5220.000000 99.254 2.9236
5300.000000 99.050 2.5574
5380.000000 98.830 2.3723
5450.000000 98.628 2.3791
5520.000000 98.421 2.5531
5600.000000 98.185 2.9598
5700.000000 97.898 3.7708
5800.000000 97.627 4.8948
5900.000000 97.380 6.3078
6000.000000 97.164 7.9848
6080.000000 97.017 9.5029
6150.000000 96.911 10.9548
6220.000000 96.829 12.5182
6300.000000 96.771 14.4296
6400.000000 96.761 16.9581
6500.000000 96.825 19.5602
6600.000000 96.959 22.1615
6700.000000 97.162 24.7194
6800.000000 97.435 27.2031
6900.000000 97.785 29.5599
7000.000000 98.221 31.7031
7100.000000 98.747 33.5316
7200.000000 99.371 34.9124
7300.000000 100.095 35.6464
7400.000000 100.904 35.4911
7500.000000 101.769 34.2130
7620.000000 102.814 30.9214
7750.000000 103.836 25.0070
7880.000000 104.580 16.8538
8000.000000 104.889 8.0198
8120.000000 104.776 -1.0740
8250.000000 104.211 -10.0386
8380.000000 103.311 -17.1722
8500.000000 102.322 -21.7906
8620.000000 101.304 -24.5894
8750.000000 100.273 -25.9133
8850.000000 99.573 -26.0206
9000.000000 98.711 -25.2366
9120.000000 98.197 -24.2009
9250.000000 97.815 -23.0850
9380.000000 97.603 -22.3537
9500.000000 97.530 -22.3290
9620.000000 97.539 -23.1730
9750.000000 97.583 -25.2566
9880.000000 97.592 -28.6213
10000.000000 97.500 -32.7561
10150.000000 97.162 -38.8771
10300.000000 96.510 -45.3024
10440.000000 95.610 -50.7842
10600.000000 94.291 -55.6458
10750.000000 92.869 -58.3980
10900.000000 91.366 -59.3054
11060.000000 89.769 -58.4131
11200.000000 88.433 -56.3170
11380.000000 86.845 -52.2296
11500.000000 85.882 -48.8466
11720.000000 84.319 -41.6841
11800.000000 83.815 -38.8535
12060.000000 82.399 -29.1033
12200.000000 81.771 -23.6172
12410.000000 81.004 -15.2245
12500.000000 80.737 -11.5988
12650.000000 80.374 -5.5509
12800.000000 80.110 0.4714
13150.000000 79.849 14.2015
13200.000000 79.851 16.1024
13400.000000 79.957 23.4824
13600.000000 80.219 30.3953
13800.000000 80.642 36.6826
14000.000000 81.228 42.1538
14300.000000 82.406 48.2878
14500.000000 83.367 50.5325
14750.000000 84.700 50.6522
15000.000000 86.060 47.2928
15250.000000 87.281 40.2167
15500.000000 88.178 29.5718
15750.000000 88.562 15.9409
16000.000000 88.258 0.3843
16250.000000 87.155 -15.5704
16500.000000 85.250 -30.1875
16750.000000 82.647 -42.0167
17000.000000 79.490 -50.1603
17250.000000 75.915 -54.0408
17500.000000 72.019 -52.6979
17750.000000 67.907 -43.1206
18000.000000 63.855 -16.3645
18250.000000 60.629 31.2372
18500.000000 59.212 65.2437
18750.000000 59.339 82.8550
19000.000000 60.003 93.1500
19250.000000 60.625 99.1851
19500.000000 60.954 102.3705
19750.000000 60.873 103.8394
20000.000000 60.331 104.5992
20300.000000 59.066 105.6889
20600.000000 57.166 107.8050
20900.000000 54.698 111.4352
21200.000000 51.776 116.7213
21400.000000 49.669 121.0078
21800.000000 45.493 130.6627
22000.000000 43.713 135.7615
22400.000000 41.498 144.1217
22700.000000 41.139 143.7825
23000.000000 41.744 96.8250
23300.000000 43.152 9.8589
23600.000000 44.927 -3.3467
24000.000000 46.462 -10.4250
