* Measurement data measured by REW V5.30.9
* Source: Headset (JA3 HIFI AUDIO(CX31993)), MICROPHONE (Master Volume), L, volume: 0.230
* Format: 2M Log Swept Sine, 1 sweep at -12.0 dBFS with no timing reference
* Dated: Feb 21, 2024 4:49:38 PM
* REW Settings:
*  C-weighting compensation: Off
*  Target level: 75.0 dB
* Note: ; 
* Measurement: Anonymous R
* Smoothing: 1/24 octave
* Frequency Step: 1/48 octave
* Start Frequency: 1.000 Hz
*
* Freq(Hz) SPL(dB) Phase(degrees)
1.000000 78.890 20.7159
1.015000 79.117 19.0758
1.030000 79.341 17.4975
1.044000 79.547 16.0859
1.060000 79.779 14.5520
1.075000 79.993 13.1973
1.090000 80.202 11.9299
1.106000 80.421 10.6815
1.120000 80.609 9.6800
1.138000 80.847 8.5090
1.150000 81.003 7.7958
1.172000 81.285 6.6155
1.180000 81.386 6.2236
1.206000 81.708 5.0710
1.220000 81.879 4.5179
1.241000 82.130 3.7615
1.250000 82.237 3.4602
1.265000 82.412 2.9832
1.280000 82.585 2.5316
1.315000 82.981 1.5380
1.320000 83.037 1.3993
1.340000 83.258 0.8418
1.360000 83.476 0.2686
1.380000 83.691 -0.3368
1.400000 83.903 -0.9906
1.430000 84.217 -2.0976
1.450000 84.424 -2.9435
1.475000 84.680 -4.1425
1.500000 84.931 -5.4407
1.525000 85.176 -6.8105
1.550000 85.416 -8.2394
1.575000 85.652 -9.7150
1.600000 85.882 -11.2248
1.625000 86.108 -12.7564
1.650000 86.329 -14.2973
1.675000 86.546 -15.8350
1.700000 86.759 -17.3572
1.725000 86.968 -18.8514
1.750000 87.174 -20.3051
1.775000 87.376 -21.7059
1.800000 87.574 -23.0412
1.825000 87.770 -24.2988
1.850000 87.961 -25.4760
1.875000 88.149 -26.5935
1.900000 88.332 -27.6587
1.925000 88.511 -28.6779
1.950000 88.686 -29.6574
1.975000 88.857 -30.6036
2.000000 89.024 -31.5229
2.030000 89.221 -32.5994
2.060000 89.412 -33.6573
2.090000 89.599 -34.7076
2.120000 89.782 -35.7612
2.140000 89.901 -36.4710
2.180000 90.136 -37.9227
2.200000 90.250 -38.6710
2.240000 90.474 -40.1885
2.270000 90.636 -41.3328
2.300000 90.793 -42.4794
2.330000 90.945 -43.6256
2.360000 91.093 -44.7688
2.400000 91.285 -46.2839
2.430000 91.424 -47.4098
2.470000 91.604 -48.8922
2.500000 91.735 -49.9865
2.540000 91.905 -51.4170
2.580000 92.071 -52.8118
2.620000 92.229 -54.1873
2.650000 92.344 -55.2076
2.690000 92.490 -56.5503
2.720000 92.596 -57.5423
2.760000 92.732 -58.8424
2.800000 92.864 -60.1137
2.850000 93.022 -61.6575
2.900000 93.174 -63.1451
2.950000 93.321 -64.5693
3.000000 93.459 -65.9217
3.040000 93.565 -66.9576
3.070000 93.640 -67.7117
3.110000 93.738 -68.6915
3.150000 93.832 -69.6475
3.200000 93.946 -70.8181
3.250000 94.056 -71.9725
3.300000 94.165 -73.1226
3.350000 94.269 -74.2714
3.400000 94.368 -75.4097
3.450000 94.462 -76.5288
3.500000 94.554 -77.6202
3.550000 94.643 -78.6751
3.600000 94.731 -79.6848
3.650000 94.820 -80.6407
3.700000 94.908 -81.5312
3.750000 94.994 -82.3530
3.820000 95.112 -83.4165
3.870000 95.195 -84.1347
3.950000 95.328 -85.2547
4.000000 95.412 -85.9604
4.060000 95.514 -86.8312
4.120000 95.617 -87.7014
4.180000 95.720 -88.5642
4.250000 95.841 -89.5585
4.310000 95.945 -90.3979
4.370000 96.049 -91.2233
4.440000 96.171 -92.1614
4.500000 96.276 -92.9366
4.550000 96.365 -93.5699
4.620000 96.488 -94.4507
4.680000 96.592 -95.2127
4.750000 96.711 -96.1262
4.820000 96.828 -97.0739
4.870000 96.910 -97.7645
4.940000 97.024 -98.7444
5.000000 97.120 -99.5913
5.080000 97.243 -100.7222
5.150000 97.344 -101.7064
5.220000 97.442 -102.6937
5.300000 97.549 -103.8260
5.380000 97.650 -104.9563
5.450000 97.733 -105.9387
5.520000 97.811 -106.9116
5.600000 97.894 -108.0220
5.700000 97.988 -109.4007
5.800000 98.073 -110.7522
5.900000 98.151 -112.0618
6.000000 98.218 -113.3406
6.080000 98.266 -114.3383
6.150000 98.305 -115.1883
6.220000 98.342 -116.0127
6.300000 98.380 -116.9220
6.400000 98.422 -118.0147
6.500000 98.460 -119.0628
6.600000 98.494 -120.0707
6.700000 98.526 -121.0375
6.800000 98.554 -121.9624
6.900000 98.581 -122.8481
7.000000 98.605 -123.6963
7.100000 98.628 -124.5035
7.200000 98.650 -125.2735
7.300000 98.670 -126.0122
7.400000 98.689 -126.7230
7.500000 98.706 -127.4030
7.620000 98.726 -128.1773
7.750000 98.747 -128.9635
7.880000 98.766 -129.6939
8.000000 98.783 -130.3228
8.120000 98.803 -130.9106
8.250000 98.824 -131.4967
8.380000 98.848 -132.0426
8.500000 98.874 -132.5177
8.620000 98.903 -132.9585
8.750000 98.937 -133.4174
8.850000 98.967 -133.7679
9.000000 99.016 -134.2763
9.120000 99.058 -134.6852
9.250000 99.105 -135.1438
9.380000 99.156 -135.6117
9.500000 99.201 -136.0554
9.620000 99.244 -136.5149
9.750000 99.287 -137.0278
9.880000 99.324 -137.5471
10.000000 99.349 -138.0321
10.150000 99.371 -138.6446
10.300000 99.384 -139.2428
10.440000 99.387 -139.7899
10.600000 99.385 -140.3947
10.750000 99.379 -140.9328
10.900000 99.370 -141.4469
11.060000 99.361 -141.9698
11.200000 99.353 -142.4042
11.380000 99.342 -142.9447
11.500000 99.336 -143.2952
11.720000 99.323 -143.9238
11.800000 99.318 -144.1514
12.060000 99.301 -144.8834
12.200000 99.293 -145.2749
12.410000 99.282 -145.8561
12.500000 99.279 -146.0999
12.650000 99.275 -146.5009
12.800000 99.273 -146.8909
13.150000 99.273 -147.7480
13.200000 99.273 -147.8647
13.400000 99.273 -148.3150
13.600000 99.274 -148.7469
13.800000 99.276 -149.1618
14.000000 99.279 -149.5685
14.300000 99.286 -150.1675
14.500000 99.292 -150.5652
14.750000 99.300 -151.0606
15.000000 99.308 -151.5537
15.250000 99.315 -152.0406
15.500000 99.322 -152.5171
15.750000 99.329 -152.9804
16.000000 99.337 -153.4270
16.250000 99.347 -153.8567
16.500000 99.360 -154.2707
16.750000 99.375 -154.6719
17.000000 99.391 -155.0666
17.250000 99.408 -155.4580
17.500000 99.424 -155.8503
17.750000 99.438 -156.2418
18.000000 99.450 -156.6271
18.250000 99.458 -156.9996
18.500000 99.463 -157.3456
18.750000 99.467 -157.6597
19.000000 99.470 -157.9369
19.250000 99.474 -158.1810
19.500000 99.482 -158.4039
19.750000 99.494 -158.6160
20.000000 99.509 -158.8365
20.299999 99.528 -159.1236
20.600000 99.546 -159.4376
20.900000 99.560 -159.7687
21.200001 99.568 -160.0949
21.400000 99.571 -160.2970
21.799999 99.576 -160.6587
22.000000 99.580 -160.8226
22.400000 99.594 -161.1452
22.700001 99.610 -161.4148
23.000000 99.625 -161.7293
23.299999 99.635 -162.0810
23.600000 99.637 -162.4437
24.000000 99.628 -162.8890
24.299999 99.616 -163.1579
24.700001 99.603 -163.4204
25.000000 99.601 -163.5711
25.400000 99.610 -163.7652
25.799999 99.628 -164.0018
26.200001 99.645 -164.2891
26.500000 99.654 -164.5194
26.900000 99.660 -164.8172
27.200001 99.661 -165.0192
27.600000 99.660 -165.2539
28.000000 99.658 -165.4511
28.500000 99.657 -165.6516
29.000000 99.659 -165.8169
29.500000 99.667 -165.9761
30.000000 99.679 -166.1561
30.400000 99.690 -166.3211
30.700001 99.699 -166.4597
31.100000 99.714 -166.6773
31.500000 99.727 -166.9491
32.000000 99.735 -167.3661
32.500000 99.725 -167.8021
33.000000 99.702 -168.1457
33.500000 99.681 -168.3546
34.000000 99.676 -168.4953
34.500000 99.685 -168.6623
35.000000 99.695 -168.8688
35.500000 99.700 -169.0531
36.000000 99.709 -169.1770
36.500000 99.726 -169.2824
37.000000 99.749 -169.4421
37.500000 99.764 -169.6650
38.200001 99.762 -169.9564
38.700001 99.754 -170.0861
39.500000 99.753 -170.2833
40.000000 99.751 -170.4817
40.599998 99.734 -170.7445
41.200001 99.712 -170.9272
41.799999 99.703 -171.0426
42.500000 99.716 -171.2339
43.099998 99.734 -171.5076
43.700001 99.743 -171.8112
44.400002 99.743 -172.0378
45.000000 99.753 -172.0750
45.500000 99.775 -172.0980
46.200001 99.789 -172.1885
46.799999 99.761 -172.0114
47.500000 99.770 -171.1299
48.200001 99.934 -170.3010
48.700001 100.093 -170.4500
49.400002 100.195 -171.6543
50.000000 100.125 -172.6659
50.799999 99.954 -173.0832
51.500000 99.859 -173.0311
52.200001 99.806 -173.1027
53.000000 99.762 -173.3489
53.799999 99.734 -173.7065
54.500000 99.722 -174.0782
55.200001 99.720 -174.4983
56.000000 99.711 -174.9762
57.000000 99.696 -175.2025
58.000000 99.729 -175.2103
59.000000 99.753 -175.2422
60.000000 99.774 -175.0591
60.799999 99.798 -174.9889
61.500000 99.806 -174.9987
62.200001 99.808 -175.0027
63.000000 99.818 -175.0939
64.000000 99.824 -175.4456
65.000000 99.806 -175.8831
66.000000 99.781 -176.1937
67.000000 99.772 -176.2860
68.000000 99.802 -176.2395
69.000000 99.862 -176.3017
70.000000 99.900 -176.5617
71.000000 99.893 -176.7729
72.000000 99.872 -176.8235
73.000000 99.862 -176.8711
74.000000 99.863 -177.0503
75.000000 99.867 -177.3829
76.199997 99.859 -177.8840
77.500000 99.828 -178.2006
78.800003 99.822 -178.1328
80.000000 99.835 -178.0536
81.199997 99.844 -178.0244
82.500000 99.828 -178.0500
83.800003 99.829 -177.9737
85.000000 99.853 -177.8829
86.199997 99.916 -177.8527
87.500000 99.966 -177.9822
88.500000 99.986 -178.2208
90.000000 99.917 -178.6058
91.199997 99.891 -178.9248
92.500000 99.876 -179.7050
93.800003 99.934 -179.9617
95.000000 100.232 -179.7141
96.199997 100.657 179.4886
97.500000 100.883 177.9094
98.800003 100.878 177.1100
100.000000 100.667 177.0295
101.500000 100.243 178.6922
103.000000 100.020 -179.6624
104.400002 99.928 -179.3872
106.000000 99.910 -179.8078
107.500000 99.951 179.7001
109.000000 99.988 179.5352
110.599998 100.012 179.6611
112.000000 100.012 179.6767
113.800003 100.000 179.3519
115.000000 99.995 178.9886
117.199997 99.987 178.5955
118.000000 99.989 178.6424
120.599998 100.014 179.0598
122.000000 100.024 179.1295
124.099998 100.036 178.8438
125.000000 100.040 178.6425
126.500000 100.050 178.3525
128.000000 100.065 178.1695
131.500000 100.051 177.9987
132.000000 100.042 177.9640
134.000000 100.002 177.6730
136.000000 99.980 177.2031
138.000000 100.001 176.7507
140.000000 100.056 176.6770
143.000000 100.131 177.1151
145.000000 100.138 177.5303
147.500000 100.127 177.6588
150.000000 100.127 177.2878
152.500000 100.150 176.6246
155.000000 100.198 176.1495
157.500000 100.260 176.2102
160.000000 100.258 176.2854
162.500000 100.229 176.4675
165.000000 100.251 175.6752
167.500000 100.204 175.2830
170.000000 100.256 175.8017
172.500000 100.367 175.3915
175.000000 100.294 174.2733
177.500000 100.197 174.2672
180.000000 100.236 174.5342
182.500000 100.252 174.4674
185.000000 100.208 174.5969
187.500000 100.194 174.7610
190.000000 100.216 174.5416
192.500000 100.253 174.0245
195.000000 100.297 173.5315
197.500000 100.358 173.2798
200.000000 100.419 173.2380
203.000000 100.431 173.1816
206.000000 100.393 172.9320
209.000000 100.386 172.4783
212.000000 100.407 172.2291
214.000000 100.414 172.1439
218.000000 100.395 171.9137
220.000000 100.397 171.8642
224.000000 100.416 171.7471
227.000000 100.447 171.6221
230.000000 100.520 171.4749
233.000000 100.584 171.3034
236.000000 100.604 170.9863
240.000000 100.597 170.4624
243.000000 100.591 170.1435
247.000000 100.608 169.8773
250.000000 100.632 169.8605
254.000000 100.644 169.7545
258.000000 100.681 169.2548
262.000000 100.740 168.7708
265.000000 100.761 168.4876
269.000000 100.781 168.0987
272.000000 100.796 167.8012
276.000000 100.815 167.3941
280.000000 100.840 167.0064
285.000000 100.866 166.4909
290.000000 100.893 166.0123
295.000000 100.918 165.5328
300.000000 100.947 165.0396
304.000000 100.966 164.7288
307.000000 100.977 164.4790
311.000000 100.991 164.0872
315.000000 101.006 163.6636
320.000000 101.025 163.1443
325.000000 101.065 162.6286
330.000000 101.111 162.1106
335.000000 101.117 161.5150
340.000000 101.114 160.8895
345.000000 101.122 160.3486
350.000000 101.135 159.8220
355.000000 101.152 159.3156
360.000000 101.167 158.8408
365.000000 101.173 158.3701
370.000000 101.173 157.9844
375.000000 101.181 157.7443
382.000000 101.264 157.6100
387.000000 101.400 157.3087
395.000000 101.641 155.6971
400.000000 101.725 154.2075
406.000000 101.758 152.3711
412.000000 101.748 150.5811
418.000000 101.693 148.8133
425.000000 101.549 146.9672
431.000000 101.379 145.8812
437.000000 101.225 145.3218
444.000000 101.109 144.9651
450.000000 101.061 144.6115
455.000000 101.043 144.2194
462.000000 101.028 143.5186
468.000000 101.015 142.7942
475.000000 100.992 141.8750
482.000000 100.956 140.9175
487.000000 100.929 140.2043
494.000000 100.891 139.1796
500.000000 100.851 138.3357
508.000000 100.787 137.2407
515.000000 100.721 136.2689
522.000000 100.654 135.2799
530.000000 100.572 134.1172
538.000000 100.471 132.9975
545.000000 100.382 132.0738
552.000000 100.305 131.1843
560.000000 100.213 130.1669
570.000000 100.061 128.8033
580.000000 99.901 127.3722
590.000000 99.758 126.0709
600.000000 99.603 124.9479
608.000000 99.460 123.9983
615.000000 99.297 123.2494
622.000000 99.149 122.9005
630.000000 99.037 122.2578
640.000000 98.876 120.7831
650.000000 98.727 119.2676
660.000000 98.534 118.7061
670.000000 98.263 118.3862
680.000000 98.027 117.7336
690.000000 97.832 116.9460
700.000000 97.642 116.2628
710.000000 97.436 115.7308
720.000000 97.228 115.2574
730.000000 97.030 114.7996
740.000000 96.830 114.4152
750.000000 96.632 114.1066
762.000000 96.398 113.7493
775.000000 96.144 113.4168
788.000000 95.894 113.1588
800.000000 95.666 112.9400
812.000000 95.452 112.6806
825.000000 95.234 112.5264
838.000000 95.007 112.6671
850.000000 94.815 112.7777
862.000000 94.631 112.8342
875.000000 94.405 113.1682
885.000000 94.202 113.2468
900.000000 93.948 113.1695
912.000000 93.778 113.3911
925.000000 93.600 113.6775
938.000000 93.423 113.9136
950.000000 93.274 114.1486
962.000000 93.129 114.4032
975.000000 92.968 114.5839
988.000000 92.808 114.6310
1000.000000 92.673 114.6443
1015.000000 92.531 114.9938
1030.000000 92.370 115.5740
1044.000000 92.191 115.7296
1060.000000 92.019 115.7300
1075.000000 91.868 115.8304
1090.000000 91.708 115.9843
1106.000000 91.537 116.1182
1120.000000 91.392 116.1319
1138.000000 91.218 116.1520
1150.000000 91.101 116.1805
1172.000000 90.877 116.1475
1180.000000 90.795 116.1313
1206.000000 90.529 116.1012
1220.000000 90.380 116.0912
1241.000000 90.141 116.0638
1250.000000 90.038 116.0776
1265.000000 89.874 116.1143
1280.000000 89.714 116.1122
1315.000000 89.320 116.1519
1320.000000 89.262 116.1724
1340.000000 89.032 116.2487
1360.000000 88.798 116.3871
1380.000000 88.558 116.5926
1400.000000 88.311 116.8468
1430.000000 87.941 117.3167
1450.000000 87.701 117.7225
1475.000000 87.390 118.1949
1500.000000 87.070 118.8229
1525.000000 86.758 119.5752
1550.000000 86.445 120.3315
1575.000000 86.131 121.1915
1600.000000 85.814 122.1721
1625.000000 85.490 123.2768
1650.000000 85.170 124.4606
1675.000000 84.852 125.7830
1700.000000 84.536 127.2205
1725.000000 84.220 128.7883
1750.000000 83.902 130.4865
1775.000000 83.591 132.3341
1800.000000 83.290 134.4196
1825.000000 82.989 136.6434
1850.000000 82.688 139.0306
1875.000000 82.410 141.7472
1900.000000 82.152 144.7117
1925.000000 81.910 147.9842
1950.000000 81.690 151.6019
1975.000000 81.504 155.4866
2000.000000 81.383 159.5269
2030.000000 81.346 164.5983
2060.000000 81.415 169.9763
2090.000000 81.609 175.5750
2120.000000 81.956 -178.8784
2140.000000 82.273 -175.3787
2180.000000 83.079 -169.1942
2200.000000 83.556 -166.5825
2240.000000 84.624 -162.6060
2270.000000 85.498 -160.9333
2300.000000 86.376 -160.3990
2330.000000 87.222 -160.8748
2360.000000 87.994 -162.4558
2400.000000 88.793 -166.1281
2430.000000 89.159 -169.5577
2470.000000 89.348 -173.7382
2500.000000 89.352 -175.5770
2540.000000 89.526 -176.2727
2580.000000 89.955 -177.8389
2620.000000 90.257 178.9213
2650.000000 90.330 176.2343
2690.000000 90.282 173.0956
2720.000000 90.177 171.1072
2760.000000 89.995 169.0018
2800.000000 89.798 167.5569
2850.000000 89.563 166.3186
2900.000000 89.295 165.5336
2950.000000 89.068 165.2708
3000.000000 88.890 165.4055
3040.000000 88.760 165.6168
3070.000000 88.673 165.8500
3110.000000 88.578 166.2675
3150.000000 88.507 166.7610
3200.000000 88.449 167.4650
3250.000000 88.421 168.2790
3300.000000 88.429 169.1153
3350.000000 88.481 169.9176
3400.000000 88.569 170.5752
3450.000000 88.685 171.0080
3500.000000 88.817 171.2219
3550.000000 88.952 171.2673
3600.000000 89.095 171.1707
3650.000000 89.249 170.8860
3700.000000 89.404 170.4066
3750.000000 89.558 169.7187
3820.000000 89.757 168.3679
3870.000000 89.884 167.1413
3950.000000 90.042 164.6761
4000.000000 90.093 162.8022
4060.000000 90.089 160.2857
4120.000000 89.999 157.6540
4180.000000 89.816 155.0217
4250.000000 89.486 152.1830
4310.000000 89.114 150.1609
4370.000000 88.677 148.6487
4440.000000 88.111 147.6664
4500.000000 87.606 147.5820
4550.000000 87.192 148.0429
4620.000000 86.653 149.4678
4680.000000 86.263 151.3246
4750.000000 85.931 154.0242
4820.000000 85.749 156.9886
4870.000000 85.713 159.1043
4940.000000 85.783 161.8723
5000.000000 85.947 163.8393
5080.000000 86.295 165.6101
5150.000000 86.682 166.1288
5220.000000 87.095 165.4312
5300.000000 87.520 162.9861
5380.000000 87.784 158.8521
5450.000000 87.788 154.2195
5520.000000 87.528 149.2843
5600.000000 86.899 144.2924
5700.000000 85.704 140.6159
5800.000000 84.277 141.0812
5900.000000 82.973 146.1817
6000.000000 82.361 154.3522
6080.000000 82.545 159.8959
6150.000000 82.913 162.2352
6220.000000 83.191 162.4276
6300.000000 83.272 161.4803
6400.000000 83.094 160.5135
6500.000000 82.763 160.5811
6600.000000 82.381 161.8374
6700.000000 82.083 164.3185
6800.000000 81.961 166.9000
6900.000000 81.902 169.1990
7000.000000 81.881 171.6064
7100.000000 81.937 174.1414
7200.000000 82.092 176.6341
7300.000000 82.353 178.9175
7400.000000 82.728 -179.1302
7500.000000 83.227 -177.7249
7620.000000 84.001 -177.1670
7750.000000 85.035 -178.8255
7880.000000 86.119 175.7535
8000.000000 86.849 166.3354
8120.000000 86.938 153.3152
8250.000000 86.071 138.8067
8380.000000 84.340 128.2294
8500.000000 82.339 123.3587
8620.000000 80.279 122.4828
8750.000000 78.200 124.6725
8850.000000 76.765 127.8638
9000.000000 74.894 134.3297
9120.000000 73.639 140.5906
9250.000000 72.513 148.1155
9380.000000 71.625 156.1031
9500.000000 71.022 163.6250
9620.000000 70.621 170.9759
9750.000000 70.375 178.4034
9880.000000 70.270 -174.9494
10000.000000 70.260 -169.5243
10150.000000 70.308 -163.5586
10300.000000 70.366 -158.3546
10440.000000 70.413 -153.9646
10600.000000 70.470 -149.1718
10750.000000 70.551 -144.8390
10900.000000 70.669 -140.7829
11060.000000 70.834 -136.8972
11200.000000 70.983 -133.9603
11380.000000 71.117 -130.8494
11500.000000 71.148 -129.0029
11720.000000 71.084 -125.2001
11800.000000 71.036 -123.4635
12060.000000 70.988 -116.1281
12200.000000 71.161 -111.4100
12410.000000 71.755 -104.5436
12500.000000 72.111 -101.9031
12650.000000 72.826 -97.9087
12800.000000 73.720 -94.3636
13150.000000 76.827 -89.6358
13200.000000 77.403 -89.8117
13400.000000 79.845 -94.9158
13600.000000 81.809 -110.0680
13800.000000 82.314 -133.7130
14000.000000 81.077 -155.0057
14300.000000 77.499 -168.7191
14500.000000 75.242 -169.5164
14750.000000 73.151 -167.0747
15000.000000 71.767 -163.9349
15250.000000 70.854 -161.8789
15500.000000 70.152 -162.2112
15750.000000 69.337 -165.4802
16000.000000 68.118 -170.8058
16250.000000 66.338 -177.7848
16500.000000 63.916 169.4193
16750.000000 60.414 121.2365
17000.000000 55.328 -87.4186
17250.000000 51.634 -117.3556
17500.000000 53.918 19.8440
17750.000000 56.405 -26.9702
18000.000000 58.131 -31.6238
18250.000000 59.568 -31.5037
18500.000000 60.986 -32.7635
18750.000000 62.219 -37.5503
19000.000000 62.844 -45.6710
19250.000000 62.550 -54.3824
19500.000000 61.360 -67.0519
19750.000000 59.570 -123.6841
20000.000000 57.544 39.4674
20300.000000 55.083 10.4062
20600.000000 52.516 -126.8752
20900.000000 49.692 -45.1050
21200.000000 46.569 -149.2231
21400.000000 44.249 117.7188
21800.000000 39.461 145.0234
22000.000000 37.522 -65.6758
22400.000000 35.236 77.4805
22700.000000 34.701 -142.1289
23000.000000 34.557 158.1719
23300.000000 34.589 -84.8438
23600.000000 34.556 -6.8828
24000.000000 34.496 136.7266
24300.000000 34.480 65.7969
24700.000000 34.656 4.6562
25000.000000 34.834 74.0469
25400.000000 34.948 36.2344
25800.000000 35.078 -166.8906
26200.000000 35.154 -3.1562
26500.000000 35.228 -82.2344
26900.000000 35.366 101.3438
27200.000000 35.416 -154.7188
27600.000000 35.327 -68.5000
28000.000000 35.239 166.0312
28500.000000 35.330 79.1875
29000.000000 35.613 148.6562
29500.000000 35.686 -178.5000
30000.000000 35.595 121.5938
