* Measurement data measured by REW V5.30.9
* Source: Headset (JA3 HIFI AUDIO(CX31993)), MICROPHONE (Master Volume), L, volume: 0.250
* Format: 512k Log Swept Sine, 1 sweep at -13.0 dBFS with no timing reference
* Dated: Feb 24, 2024 12:52:15 PM
* REW Settings:
*  C-weighting compensation: Off
*  Target level: 75.0 dB
* Note: ; 
* Measurement: FitEar CIEM R
* Smoothing: 1/24 octave
* Frequency Step: 1/48 octave
* Start Frequency: 1.000 Hz
*
* Freq(Hz) SPL(dB) Phase(degrees)
1.000000 61.921 53.9816
1.015000 62.103 53.8702
1.030000 62.284 53.7318
1.044000 62.449 53.5780
1.060000 62.636 53.3727
1.075000 62.808 53.1513
1.090000 62.977 52.9020
1.106000 63.154 52.6085
1.120000 63.306 52.3345
1.138000 63.500 51.9641
1.150000 63.628 51.7073
1.172000 63.859 51.2177
1.180000 63.942 51.0342
1.206000 64.209 50.4196
1.220000 64.350 50.0783
1.241000 64.559 49.5540
1.250000 64.648 49.3252
1.265000 64.794 48.9387
1.280000 64.939 48.5463
1.315000 65.270 47.6099
1.320000 65.316 47.4739
1.340000 65.501 46.9248
1.360000 65.682 46.3679
1.380000 65.861 45.8036
1.400000 66.037 45.2321
1.430000 66.296 44.3615
1.450000 66.465 43.7721
1.475000 66.672 43.0238
1.500000 66.874 42.2600
1.525000 67.071 41.4817
1.550000 67.263 40.6917
1.575000 67.450 39.8929
1.600000 67.633 39.0873
1.625000 67.811 38.2770
1.650000 67.985 37.4636
1.675000 68.156 36.6482
1.700000 68.322 35.8319
1.725000 68.485 35.0154
1.750000 68.645 34.1992
1.775000 68.801 33.3835
1.800000 68.955 32.5682
1.825000 69.106 31.7517
1.850000 69.253 30.9274
1.875000 69.396 30.0883
1.900000 69.536 29.2351
1.925000 69.671 28.3715
1.950000 69.803 27.5015
1.975000 69.931 26.6287
2.000000 70.056 25.7566
2.030000 70.202 24.7154
2.060000 70.344 23.6845
2.090000 70.482 22.6686
2.120000 70.617 21.6716
2.140000 70.706 21.0192
2.180000 70.880 19.7464
2.200000 70.965 19.1240
2.240000 71.130 17.8873
2.270000 71.248 16.9582
2.300000 71.363 16.0294
2.330000 71.473 15.1042
2.360000 71.581 14.1863
2.400000 71.720 12.9799
2.430000 71.822 12.0926
2.470000 71.955 10.9395
2.500000 72.054 10.1012
2.540000 72.184 9.0243
2.580000 72.313 7.9928
2.620000 72.438 6.9930
2.650000 72.529 6.2584
2.690000 72.646 5.2982
2.720000 72.733 4.5926
2.760000 72.847 3.6718
2.800000 72.961 2.7752
2.850000 73.103 1.6910
2.900000 73.248 0.6514
2.950000 73.397 -0.3376
3.000000 73.545 -1.2723
3.040000 73.665 -1.9861
3.070000 73.754 -2.5056
3.110000 73.874 -3.1819
3.150000 73.996 -3.8443
3.200000 74.151 -4.6600
3.250000 74.310 -5.4691
3.300000 74.474 -6.2720
3.350000 74.643 -7.0523
3.400000 74.817 -7.8018
3.450000 74.995 -8.5317
3.500000 75.175 -9.2571
3.550000 75.359 -9.9922
3.600000 75.544 -10.7495
3.650000 75.731 -11.5369
3.700000 75.920 -12.3462
3.750000 76.113 -13.1613
3.820000 76.387 -14.3102
3.870000 76.585 -15.1447
3.950000 76.899 -16.5231
4.000000 77.092 -17.4214
4.060000 77.321 -18.5401
4.120000 77.549 -19.6930
4.180000 77.775 -20.8696
4.250000 78.035 -22.2641
4.310000 78.251 -23.4745
4.370000 78.462 -24.6992
4.440000 78.698 -26.1554
4.500000 78.894 -27.4322
4.550000 79.052 -28.5091
4.620000 79.267 -30.0193
4.680000 79.444 -31.3029
4.750000 79.642 -32.7788
4.820000 79.829 -34.2448
4.870000 79.957 -35.2956
4.940000 80.127 -36.7627
5.000000 80.266 -38.0015
5.080000 80.444 -39.6032
5.150000 80.591 -40.9506
5.220000 80.730 -42.2647
5.300000 80.879 -43.7335
5.380000 81.021 -45.1528
5.450000 81.142 -46.3396
5.520000 81.259 -47.4684
5.600000 81.389 -48.6971
5.700000 81.545 -50.1562
5.800000 81.699 -51.5348
5.900000 81.855 -52.8288
6.000000 82.012 -54.0365
6.080000 82.139 -54.9558
6.150000 82.252 -55.7392
6.220000 82.367 -56.5096
6.300000 82.502 -57.3710
6.400000 82.675 -58.4165
6.500000 82.850 -59.4503
6.600000 83.027 -60.4976
6.700000 83.205 -61.5598
6.800000 83.385 -62.6308
6.900000 83.562 -63.7176
7.000000 83.734 -64.8295
7.100000 83.901 -65.9672
7.200000 84.064 -67.1188
7.300000 84.218 -68.2735
7.400000 84.364 -69.4330
7.500000 84.501 -70.5990
7.620000 84.655 -71.9826
7.750000 84.808 -73.4382
7.880000 84.946 -74.8561
8.000000 85.063 -76.1148
8.120000 85.172 -77.3067
8.250000 85.281 -78.5291
8.380000 85.384 -79.6801
8.500000 85.478 -80.6735
8.620000 85.569 -81.6056
8.750000 85.669 -82.5619
8.850000 85.747 -83.2652
9.000000 85.867 -84.2719
9.120000 85.966 -85.0548
9.250000 86.075 -85.8945
9.380000 86.187 -86.7278
9.500000 86.290 -87.5020
9.620000 86.393 -88.2886
9.750000 86.502 -89.1526
9.880000 86.603 -90.0281
10.000000 86.686 -90.8475
10.150000 86.777 -91.8810
10.300000 86.855 -92.9110
10.440000 86.918 -93.8658
10.600000 86.979 -94.9352
10.750000 87.030 -95.9051
10.900000 87.075 -96.8406
11.060000 87.118 -97.7907
11.200000 87.152 -98.5813
11.380000 87.194 -99.5449
11.500000 87.223 -100.1553
11.720000 87.275 -101.2215
11.800000 87.295 -101.5958
12.060000 87.363 -102.7760
12.200000 87.401 -103.3988
12.410000 87.464 -104.3227
12.500000 87.494 -104.7168
12.650000 87.549 -105.3713
12.800000 87.606 -106.0206
13.150000 87.737 -107.5027
13.200000 87.756 -107.7089
13.400000 87.828 -108.5173
13.600000 87.902 -109.2997
13.800000 87.976 -110.0595
14.000000 88.055 -110.8094
14.300000 88.179 -111.9462
14.500000 88.264 -112.7354
14.750000 88.369 -113.7746
15.000000 88.466 -114.8727
15.250000 88.549 -116.0091
15.500000 88.615 -117.1421
15.750000 88.663 -118.2253
16.000000 88.698 -119.2134
16.250000 88.728 -120.0811
16.500000 88.761 -120.8284
16.750000 88.802 -121.4798
17.000000 88.855 -122.0796
17.250000 88.917 -122.6718
17.500000 88.986 -123.2916
17.750000 89.055 -123.9526
18.000000 89.120 -124.6474
18.250000 89.176 -125.3556
18.500000 89.223 -126.0507
18.750000 89.263 -126.7131
19.000000 89.298 -127.3327
19.250000 89.332 -127.9116
19.500000 89.365 -128.4603
19.750000 89.399 -128.9911
20.000000 89.433 -129.5146
20.299999 89.471 -130.1400
20.600000 89.505 -130.7617
20.900000 89.533 -131.3731
21.200001 89.555 -131.9645
21.400000 89.567 -132.3419
21.799999 89.584 -133.0394
22.000000 89.591 -133.3531
22.400000 89.610 -133.9091
22.700001 89.633 -134.2865
23.000000 89.667 -134.6732
23.299999 89.711 -135.1176
23.600000 89.758 -135.6549
24.000000 89.811 -136.5139
24.299999 89.834 -137.2129
24.700001 89.842 -138.1028
25.000000 89.840 -138.6827
25.400000 89.846 -139.3447
25.799999 89.874 -139.9849
26.200001 89.914 -140.7256
26.500000 89.939 -141.3611
26.900000 89.951 -142.2330
27.200001 89.943 -142.8197
27.600000 89.925 -143.4204
28.000000 89.920 -143.8124
28.500000 89.952 -144.1505
29.000000 90.020 -144.4993
29.500000 90.107 -144.9399
30.000000 90.200 -145.5007
30.400000 90.269 -146.0527
30.700001 90.308 -146.5111
31.100000 90.338 -147.1088
31.500000 90.344 -147.5835
32.000000 90.348 -147.9194
32.500000 90.381 -148.1096
33.000000 90.440 -148.4269
33.500000 90.481 -148.9445
34.000000 90.483 -149.4595
34.500000 90.470 -149.7755
35.000000 90.480 -149.9625
35.500000 90.518 -150.2600
36.000000 90.550 -150.7721
36.500000 90.553 -151.3628
37.000000 90.534 -151.8449
37.500000 90.521 -152.1785
38.200001 90.537 -152.6069
38.700001 90.557 -152.9993
39.500000 90.573 -153.6544
40.000000 90.578 -153.9622
40.599998 90.601 -154.2360
41.200001 90.646 -154.5455
41.799999 90.691 -154.9875
42.500000 90.717 -155.5666
43.099998 90.722 -155.9627
43.700001 90.729 -156.2648
44.400002 90.745 -156.6270
45.000000 90.751 -156.9611
45.500000 90.753 -157.2102
46.200001 90.763 -157.5220
46.799999 90.780 -157.8420
47.500000 90.794 -158.3046
48.200001 90.794 -158.7530
48.700001 90.793 -159.0247
49.400002 90.798 -159.3663
50.000000 90.806 -159.6497
50.799999 90.821 -160.0165
51.500000 90.836 -160.3474
52.200001 90.846 -160.6807
53.000000 90.853 -161.0017
53.799999 90.866 -161.3067
54.500000 90.873 -161.6134
55.200001 90.869 -161.8741
56.000000 90.871 -162.0757
57.000000 90.893 -162.4023
58.000000 90.902 -162.8360
59.000000 90.902 -163.2069
60.000000 90.907 -163.5279
60.799999 90.917 -163.7831
61.500000 90.926 -164.0198
62.200001 90.934 -164.2598
63.000000 90.942 -164.5281
64.000000 90.948 -164.8302
65.000000 90.956 -165.0681
66.000000 90.968 -165.3130
67.000000 90.975 -165.5440
68.000000 90.984 -165.7444
69.000000 90.993 -165.9951
70.000000 90.993 -166.2620
71.000000 90.990 -166.5129
72.000000 90.990 -166.7586
73.000000 90.995 -167.0240
74.000000 90.999 -167.2983
75.000000 91.006 -167.5321
76.199997 91.025 -167.7782
77.500000 91.045 -168.1151
78.800003 91.042 -168.3717
80.000000 91.043 -168.5543
81.199997 91.035 -168.7633
82.500000 91.029 -168.9398
83.800003 91.036 -169.1364
85.000000 91.055 -169.3604
86.199997 91.074 -169.6499
87.500000 91.079 -169.8995
88.500000 91.083 -169.9231
90.000000 91.130 -170.0812
91.199997 91.128 -170.5006
92.500000 91.092 -170.7357
93.800003 91.074 -170.9063
95.000000 91.061 -171.1372
96.199997 91.046 -171.3507
97.500000 91.038 -171.5221
98.800003 91.039 -171.6797
100.000000 91.043 -171.8159
101.500000 91.051 -171.9895
103.000000 91.057 -172.1832
104.400002 91.059 -172.3676
106.000000 91.058 -172.5682
107.500000 91.059 -172.7350
109.000000 91.061 -172.9255
110.599998 91.061 -173.2063
112.000000 91.049 -173.4858
113.800003 91.014 -173.8580
115.000000 90.976 -174.0193
117.199997 90.914 -174.0238
118.000000 90.906 -173.9513
120.599998 90.952 -173.8889
122.000000 90.991 -174.0991
124.099998 91.028 -174.4326
125.000000 91.041 -174.5479
126.500000 91.054 -174.7011
128.000000 91.061 -174.7916
131.500000 91.060 -174.9610
132.000000 91.058 -174.9961
134.000000 91.050 -175.1405
136.000000 91.047 -175.2905
138.000000 91.056 -175.4765
140.000000 91.059 -175.7045
143.000000 91.055 -175.9083
145.000000 91.058 -176.0375
147.500000 91.056 -176.2478
150.000000 91.050 -176.3791
152.500000 91.049 -176.5241
155.000000 91.047 -176.6936
157.500000 91.049 -176.8358
160.000000 91.046 -177.0084
162.500000 91.033 -177.1743
165.000000 91.019 -177.3366
167.500000 91.011 -177.4361
170.000000 91.001 -177.4682
172.500000 90.989 -177.5060
175.000000 90.972 -177.6610
177.500000 90.950 -177.7341
180.000000 90.935 -177.6705
182.500000 90.924 -177.6827
185.000000 90.905 -177.9097
187.500000 90.880 -178.1750
190.000000 90.862 -178.3424
192.500000 90.848 -178.4359
195.000000 90.837 -178.4962
197.500000 90.830 -178.5637
200.000000 90.823 -178.6544
203.000000 90.809 -178.7937
206.000000 90.804 -178.9120
209.000000 90.806 -179.0064
212.000000 90.802 -179.0771
214.000000 90.797 -179.1386
218.000000 90.793 -179.2607
220.000000 90.788 -179.2946
224.000000 90.769 -179.3720
227.000000 90.757 -179.4567
230.000000 90.752 -179.5095
233.000000 90.748 -179.5698
236.000000 90.742 -179.6375
240.000000 90.733 -179.7096
243.000000 90.724 -179.7673
247.000000 90.712 -179.8429
250.000000 90.702 -179.8820
254.000000 90.691 -179.9461
258.000000 90.679 179.9753
262.000000 90.666 179.9297
265.000000 90.655 179.8855
269.000000 90.636 179.8318
272.000000 90.623 179.8099
276.000000 90.610 179.7688
280.000000 90.597 179.7131
285.000000 90.574 179.6939
290.000000 90.554 179.6604
295.000000 90.543 179.6293
300.000000 90.534 179.5906
304.000000 90.512 179.5857
307.000000 90.495 179.5895
311.000000 90.477 179.5738
315.000000 90.462 179.5710
320.000000 90.449 179.5479
325.000000 90.442 179.4762
330.000000 90.419 179.5321
335.000000 90.389 179.5947
340.000000 90.368 179.6222
345.000000 90.352 179.6473
350.000000 90.335 179.6695
355.000000 90.318 179.7006
360.000000 90.299 179.7365
365.000000 90.281 179.7756
370.000000 90.265 179.8187
375.000000 90.248 179.8559
382.000000 90.225 179.9130
387.000000 90.210 179.9682
395.000000 90.185 -179.9493
400.000000 90.168 -179.9015
406.000000 90.150 -179.8228
412.000000 90.129 -179.7382
418.000000 90.108 -179.6387
425.000000 90.086 -179.5216
431.000000 90.069 -179.4239
437.000000 90.051 -179.3110
444.000000 90.029 -179.1810
450.000000 90.010 -179.0722
455.000000 89.995 -178.9789
462.000000 89.974 -178.8435
468.000000 89.957 -178.7159
475.000000 89.937 -178.5599
482.000000 89.919 -178.3929
487.000000 89.908 -178.2670
494.000000 89.892 -178.0810
500.000000 89.878 -177.9294
508.000000 89.860 -177.7321
515.000000 89.845 -177.5523
522.000000 89.829 -177.3690
530.000000 89.811 -177.1366
538.000000 89.793 -176.8870
545.000000 89.779 -176.6836
552.000000 89.765 -176.4779
560.000000 89.750 -176.2238
570.000000 89.734 -175.8845
580.000000 89.720 -175.5435
590.000000 89.705 -175.1865
600.000000 89.695 -174.8096
608.000000 89.686 -174.4984
615.000000 89.678 -174.2343
622.000000 89.673 -173.9761
630.000000 89.670 -173.6639
640.000000 89.667 -173.2633
650.000000 89.664 -172.8707
660.000000 89.663 -172.4588
670.000000 89.663 -172.0302
680.000000 89.665 -171.5946
690.000000 89.670 -171.1488
700.000000 89.675 -170.6989
710.000000 89.681 -170.2474
720.000000 89.689 -169.7878
730.000000 89.701 -169.3113
740.000000 89.717 -168.8420
750.000000 89.735 -168.3701
762.000000 89.760 -167.7688
775.000000 89.789 -167.1091
788.000000 89.821 -166.4541
800.000000 89.855 -165.8488
812.000000 89.889 -165.2359
825.000000 89.928 -164.5863
838.000000 89.972 -163.9417
850.000000 90.016 -163.3471
862.000000 90.064 -162.7546
875.000000 90.122 -162.1223
885.000000 90.169 -161.6369
900.000000 90.243 -160.9181
912.000000 90.308 -160.3623
925.000000 90.385 -159.7853
938.000000 90.467 -159.2259
950.000000 90.545 -158.7143
962.000000 90.626 -158.2241
975.000000 90.718 -157.7378
988.000000 90.814 -157.2786
1000.000000 90.902 -156.8677
1015.000000 91.013 -156.3963
1030.000000 91.124 -155.9677
1044.000000 91.229 -155.6066
1060.000000 91.349 -155.2352
1075.000000 91.463 -154.9264
1090.000000 91.579 -154.6582
1106.000000 91.703 -154.4132
1120.000000 91.809 -154.2244
1138.000000 91.943 -154.0238
1150.000000 92.033 -153.9219
1172.000000 92.195 -153.7767
1180.000000 92.254 -153.7335
1206.000000 92.442 -153.6342
1220.000000 92.543 -153.6042
1241.000000 92.692 -153.5934
1250.000000 92.757 -153.5975
1265.000000 92.868 -153.6180
1280.000000 92.981 -153.6609
1315.000000 93.238 -153.7973
1320.000000 93.274 -153.8212
1340.000000 93.418 -153.9325
1360.000000 93.560 -154.0636
1380.000000 93.700 -154.2147
1400.000000 93.834 -154.3938
1430.000000 94.027 -154.6954
1450.000000 94.147 -154.9065
1475.000000 94.290 -155.1462
1500.000000 94.427 -155.3081
1525.000000 94.568 -155.3667
1550.000000 94.729 -155.3788
1575.000000 94.909 -155.4647
1600.000000 95.102 -155.6914
1625.000000 95.292 -156.0577
1650.000000 95.474 -156.5213
1675.000000 95.646 -157.0469
1700.000000 95.808 -157.6097
1725.000000 95.960 -158.1959
1750.000000 96.104 -158.7959
1775.000000 96.241 -159.4098
1800.000000 96.371 -160.0400
1825.000000 96.496 -160.6687
1850.000000 96.615 -161.3020
1875.000000 96.728 -161.9429
1900.000000 96.837 -162.5851
1925.000000 96.942 -163.2313
1950.000000 97.042 -163.8744
1975.000000 97.139 -164.5202
2000.000000 97.235 -165.1814
2030.000000 97.347 -166.0043
2060.000000 97.454 -166.8595
2090.000000 97.553 -167.7478
2120.000000 97.642 -168.6740
2140.000000 97.695 -169.3082
2180.000000 97.782 -170.6093
2200.000000 97.815 -171.2701
2240.000000 97.859 -172.5807
2270.000000 97.871 -173.5424
2300.000000 97.866 -174.4599
2330.000000 97.843 -175.3177
2360.000000 97.805 -176.0950
2400.000000 97.734 -176.9774
2430.000000 97.669 -177.5182
2470.000000 97.571 -178.0762
2500.000000 97.493 -178.3714
2540.000000 97.389 -178.6001
2580.000000 97.285 -178.6511
2620.000000 97.183 -178.5285
2650.000000 97.110 -178.3327
2690.000000 97.019 -177.9474
2720.000000 96.957 -177.5735
2760.000000 96.883 -176.9752
2800.000000 96.821 -176.2704
2850.000000 96.758 -175.2643
2900.000000 96.716 -174.1349
2950.000000 96.695 -172.8930
3000.000000 96.699 -171.5646
3040.000000 96.719 -170.4444
3070.000000 96.746 -169.5801
3110.000000 96.795 -168.4079
3150.000000 96.862 -167.2134
3200.000000 96.970 -165.7134
3250.000000 97.106 -164.2376
3300.000000 97.273 -162.8023
3350.000000 97.470 -161.4383
3400.000000 97.699 -160.1866
3450.000000 97.955 -159.0887
3500.000000 98.237 -158.1953
3550.000000 98.538 -157.5551
3600.000000 98.853 -157.2191
3650.000000 99.170 -157.2196
3700.000000 99.474 -157.5794
3750.000000 99.749 -158.2847
3820.000000 100.054 -159.7182
3870.000000 100.203 -160.9172
3950.000000 100.319 -162.7875
4000.000000 100.315 -163.7243
4060.000000 100.254 -164.4872
4120.000000 100.162 -164.8084
4180.000000 100.067 -164.7155
4250.000000 99.983 -164.2170
4310.000000 99.942 -163.5448
4370.000000 99.931 -162.7322
4440.000000 99.951 -161.6909
4500.000000 99.996 -160.7707
4550.000000 100.051 -160.0095
4620.000000 100.151 -158.9789
4680.000000 100.258 -158.1402
4750.000000 100.407 -157.2367
4820.000000 100.579 -156.4350
4870.000000 100.710 -155.9256
4940.000000 100.901 -155.3228
5000.000000 101.075 -154.9164
5080.000000 101.317 -154.5517
5150.000000 101.540 -154.4167
5220.000000 101.771 -154.4843
5300.000000 102.043 -154.8409
5380.000000 102.314 -155.5067
5450.000000 102.547 -156.3423
5520.000000 102.773 -157.4068
5600.000000 103.025 -158.9092
5700.000000 103.331 -161.2929
5800.000000 103.616 -164.4314
5900.000000 103.839 -168.5000
6000.000000 103.952 -173.5557
6080.000000 103.916 -178.2955
6150.000000 103.755 177.1686
6220.000000 103.445 172.4854
6300.000000 102.900 167.3719
6400.000000 101.994 161.9847
6500.000000 100.938 157.6385
6600.000000 99.662 154.2421
6700.000000 98.153 153.2618
6800.000000 96.665 155.2979
6900.000000 95.413 159.5605
7000.000000 94.495 164.9581
7100.000000 93.938 170.2730
7200.000000 93.671 174.2391
7300.000000 93.511 176.0350
7400.000000 93.239 175.7981
7500.000000 92.700 174.5502
7620.000000 91.671 173.4671
7750.000000 90.236 174.3025
7880.000000 88.691 177.6420
8000.000000 87.302 -177.4155
8120.000000 85.990 -171.2147
8250.000000 84.695 -163.5602
8380.000000 83.541 -155.2182
8500.000000 82.597 -147.1056
8620.000000 81.756 -138.7458
8750.000000 80.956 -129.4684
8850.000000 80.413 -122.2189
9000.000000 79.711 -111.2770
9120.000000 79.251 -102.3960
9250.000000 78.852 -92.7691
9380.000000 78.551 -83.2255
9500.000000 78.360 -74.5396
9620.000000 78.257 -66.0759
9750.000000 78.247 -57.3720
9880.000000 78.326 -49.5720
10000.000000 78.408 -43.7303
10150.000000 78.255 -38.2591
10300.000000 77.578 -31.2779
10440.000000 76.923 -18.8739
10600.000000 77.035 -1.2501
10750.000000 77.838 12.5175
10900.000000 78.892 23.2027
11060.000000 80.143 32.1943
11200.000000 81.313 38.1563
11380.000000 82.859 42.7791
11500.000000 83.828 43.6959
11720.000000 85.169 41.2685
11800.000000 85.444 39.5372
12060.000000 85.496 34.2941
12200.000000 85.150 33.3419
12410.000000 84.562 35.2827
12500.000000 84.394 37.1045
12650.000000 84.323 40.7326
12800.000000 84.560 44.1082
13150.000000 85.937 42.9559
13200.000000 86.098 41.1734
13400.000000 86.141 30.6446
13600.000000 84.846 19.2860
13800.000000 82.434 13.3317
14000.000000 79.640 15.0417
14300.000000 76.015 28.0124
14500.000000 74.242 39.8709
14750.000000 72.699 55.5394
15000.000000 71.808 70.5614
15250.000000 71.484 83.5852
15500.000000 71.688 92.6574
15750.000000 72.074 93.8543
16000.000000 71.656 86.3414
16250.000000 69.524 76.6591
16500.000000 65.812 74.1083
16750.000000 61.439 82.3503
17000.000000 57.394 98.2493
17250.000000 54.009 116.0184
17500.000000 51.065 135.6966
17750.000000 48.614 159.0594
18000.000000 46.877 -174.6028
18250.000000 46.062 -149.0263
18500.000000 45.933 -130.1391
18750.000000 46.085 -121.9413
19000.000000 45.596 -122.6878
19250.000000 44.097 -127.2820
19500.000000 42.173 -123.0331
19750.000000 40.889 -91.3107
20000.000000 40.321 -53.8728
20300.000000 40.244 23.0314
20600.000000 40.432 37.2336
20900.000000 40.284 42.2443
21200.000000 39.993 66.0864
21400.000000 39.868 88.8022
21800.000000 40.054 139.2396
22000.000000 40.225 157.9326
22400.000000 40.172 137.0244
22700.000000 40.095 142.7742
23000.000000 40.820 -166.6381
23300.000000 44.417 -90.3130
23600.000000 50.325 -109.7339
24000.000000 55.462 -143.2694
