* Measurement data measured by REW V5.20.13
* Source: Flat @ 0 Filtered
* Format: 
* Dated: Aug 6, 2023 12:00:11 PM
* REW Settings:
*  C-weighting compensation: Off
*  Target level: 75.0 dB
* Note: Measurement imported from /Users/griff/Desktop/REW/Targets/Flat @ 0.txt Format: Comma/Tab/Space delimited data 481 values loaded, 20 Hz to 20,040 Hz log spaced  LSQ      Fc   160.0 Hz  Gain   1.00 dB Q  0.650 LSQ      Fc   25.00 Hz  Gain   1.30 dB Q  0.707 PK       Fc    1000 Hz  Gain   0.70 dB  Q  2.000 HSQ      Fc    1200 Hz  Gain  -0.20 dB Q   2.60 PK       Fc   555.0 Hz  Gain  -0.10 dB  Q  1.414 HSQ      Fc    6000 Hz  Gain   3.80 dB Q  0.600 PK       Fc   11425 Hz  Gain   7.00 dB  Q  2.700 PK       Fc    2555 Hz  Gain  -0.80 dB  Q  2.000 PK       Fc    2270 Hz  Gain   0.30 dB  Q  5.000 PK       Fc    4333 Hz  Gain   0.60 dB  Q  4.000 PK       Fc    5100 Hz  Gain  -0.60 dB  Q  4.000 PK       Fc    9150 Hz  Gain  -1.40 dB  Q  3.000 LPQ      Fc   18800 Hz  Q  0.750
* Measurement: EQ Flat @ 0
* Smoothing: 1/24 octave
* Frequency Step: 1/48 octave
* Start Frequency: 20.000 Hz
*
* Freq(Hz)	SPL(dB)
20.000000	1.914
20.299999	1.902
20.600000	1.886
20.900000	1.870
21.200001	1.853
21.400000	1.842
21.799999	1.820
22.000000	1.809
22.400000	1.786
22.700001	1.770
23.000000	1.753
23.299999	1.737
23.600000	1.720
24.000000	1.698
24.299999	1.682
24.700001	1.661
25.000000	1.645
25.400000	1.624
25.799999	1.604
26.200001	1.584
26.500000	1.569
26.900000	1.550
27.200001	1.536
27.600000	1.517
28.000000	1.499
28.500000	1.477
29.000000	1.456
29.500000	1.436
30.000000	1.416
30.400000	1.401
30.700001	1.390
31.100000	1.375
31.500000	1.361
32.000000	1.345
32.500000	1.329
33.000000	1.313
33.500000	1.299
34.000000	1.285
34.500000	1.271
35.000000	1.258
35.500000	1.246
36.000000	1.234
36.500000	1.223
37.000000	1.213
37.500000	1.202
38.200001	1.189
38.700001	1.180
39.500000	1.166
40.000000	1.158
40.599998	1.149
41.200001	1.140
41.799999	1.132
42.500000	1.122
43.099998	1.115
43.700001	1.108
44.400002	1.100
45.000000	1.094
45.500000	1.089
46.200001	1.082
46.799999	1.076
47.500000	1.070
48.200001	1.065
48.700001	1.061
49.400002	1.055
50.000000	1.051
50.799999	1.045
51.500000	1.041
52.200001	1.036
53.000000	1.031
53.799999	1.027
54.500000	1.023
55.200001	1.019
56.000000	1.015
57.000000	1.010
58.000000	1.005
59.000000	1.001
60.000000	0.996
60.799999	0.993
61.500000	0.990
62.200001	0.987
63.000000	0.984
64.000000	0.980
65.000000	0.976
66.000000	0.972
67.000000	0.968
68.000000	0.964
69.000000	0.960
70.000000	0.957
71.000000	0.953
72.000000	0.949
73.000000	0.946
74.000000	0.942
75.000000	0.938
76.199997	0.934
77.500000	0.929
78.800003	0.924
80.000000	0.919
81.199997	0.915
82.500000	0.910
83.800003	0.904
85.000000	0.900
86.199997	0.895
87.500000	0.889
88.500000	0.885
90.000000	0.879
91.199997	0.874
92.500000	0.868
93.800003	0.862
95.000000	0.857
96.199997	0.851
97.500000	0.845
98.800003	0.839
100.000000	0.833
101.500000	0.826
103.000000	0.819
104.400002	0.812
106.000000	0.804
107.500000	0.796
109.000000	0.788
110.599998	0.780
112.000000	0.773
113.800003	0.763
115.000000	0.756
117.199997	0.744
118.000000	0.740
120.599998	0.726
122.000000	0.718
124.099998	0.706
125.000000	0.701
126.500000	0.692
128.000000	0.684
131.500000	0.664
132.000000	0.661
134.000000	0.649
136.000000	0.638
138.000000	0.626
140.000000	0.615
143.000000	0.598
145.000000	0.586
147.500000	0.572
150.000000	0.559
152.500000	0.545
155.000000	0.531
157.500000	0.518
160.000000	0.504
162.500000	0.491
165.000000	0.479
167.500000	0.466
170.000000	0.454
172.500000	0.442
175.000000	0.430
177.500000	0.418
180.000000	0.407
182.500000	0.396
185.000000	0.385
187.500000	0.375
190.000000	0.365
192.500000	0.355
195.000000	0.345
197.500000	0.336
200.000000	0.326
203.000000	0.316
206.000000	0.306
209.000000	0.296
212.000000	0.286
214.000000	0.280
218.000000	0.268
220.000000	0.262
224.000000	0.251
227.000000	0.243
230.000000	0.236
233.000000	0.229
236.000000	0.222
240.000000	0.213
243.000000	0.206
247.000000	0.198
250.000000	0.192
254.000000	0.185
258.000000	0.178
262.000000	0.171
265.000000	0.166
269.000000	0.160
272.000000	0.156
276.000000	0.150
280.000000	0.145
285.000000	0.138
290.000000	0.133
295.000000	0.127
300.000000	0.122
304.000000	0.118
307.000000	0.115
311.000000	0.111
315.000000	0.108
320.000000	0.104
325.000000	0.100
330.000000	0.096
335.000000	0.093
340.000000	0.089
345.000000	0.086
350.000000	0.083
355.000000	0.080
360.000000	0.078
365.000000	0.075
370.000000	0.072
375.000000	0.070
382.000000	0.067
387.000000	0.065
395.000000	0.062
400.000000	0.060
406.000000	0.058
412.000000	0.056
418.000000	0.054
425.000000	0.052
431.000000	0.050
437.000000	0.049
444.000000	0.047
450.000000	0.046
455.000000	0.046
462.000000	0.045
468.000000	0.044
475.000000	0.044
482.000000	0.044
487.000000	0.044
494.000000	0.045
500.000000	0.046
508.000000	0.048
515.000000	0.049
522.000000	0.052
530.000000	0.055
538.000000	0.059
545.000000	0.063
552.000000	0.067
560.000000	0.072
570.000000	0.080
580.000000	0.089
590.000000	0.098
600.000000	0.109
608.000000	0.118
615.000000	0.126
622.000000	0.135
630.000000	0.145
640.000000	0.158
650.000000	0.173
660.000000	0.187
670.000000	0.203
680.000000	0.219
690.000000	0.236
700.000000	0.254
710.000000	0.272
720.000000	0.291
730.000000	0.311
740.000000	0.331
750.000000	0.353
762.000000	0.379
775.000000	0.408
788.000000	0.439
800.000000	0.469
812.000000	0.499
825.000000	0.532
838.000000	0.566
850.000000	0.597
862.000000	0.629
875.000000	0.662
885.000000	0.687
900.000000	0.723
912.000000	0.750
925.000000	0.776
938.000000	0.799
950.000000	0.817
962.000000	0.832
975.000000	0.843
988.000000	0.850
1000.000000	0.851
1015.000000	0.847
1030.000000	0.835
1044.000000	0.819
1060.000000	0.793
1075.000000	0.762
1090.000000	0.726
1106.000000	0.681
1120.000000	0.638
1138.000000	0.578
1150.000000	0.535
1172.000000	0.454
1180.000000	0.424
1206.000000	0.327
1220.000000	0.276
1241.000000	0.204
1250.000000	0.175
1265.000000	0.129
1280.000000	0.087
1315.000000	0.004
1320.000000	-0.007
1340.000000	-0.044
1360.000000	-0.076
1380.000000	-0.103
1400.000000	-0.125
1430.000000	-0.153
1450.000000	-0.168
1475.000000	-0.183
1500.000000	-0.196
1525.000000	-0.207
1550.000000	-0.216
1575.000000	-0.225
1600.000000	-0.232
1625.000000	-0.239
1650.000000	-0.245
1675.000000	-0.251
1700.000000	-0.257
1725.000000	-0.262
1750.000000	-0.268
1775.000000	-0.273
1800.000000	-0.278
1825.000000	-0.283
1850.000000	-0.288
1875.000000	-0.293
1900.000000	-0.297
1925.000000	-0.301
1950.000000	-0.305
1975.000000	-0.307
2000.000000	-0.309
2030.000000	-0.309
2060.000000	-0.307
2090.000000	-0.303
2120.000000	-0.297
2140.000000	-0.293
2180.000000	-0.287
2200.000000	-0.286
2240.000000	-0.292
2270.000000	-0.306
2300.000000	-0.329
2330.000000	-0.359
2360.000000	-0.393
2400.000000	-0.439
2430.000000	-0.470
2470.000000	-0.504
2500.000000	-0.523
2540.000000	-0.538
2580.000000	-0.543
2620.000000	-0.538
2650.000000	-0.528
2690.000000	-0.509
2720.000000	-0.489
2760.000000	-0.459
2800.000000	-0.425
2850.000000	-0.377
2900.000000	-0.326
2950.000000	-0.273
3000.000000	-0.219
3040.000000	-0.176
3070.000000	-0.143
3110.000000	-0.101
3150.000000	-0.058
3200.000000	-0.006
3250.000000	0.046
3300.000000	0.097
3350.000000	0.148
3400.000000	0.198
3450.000000	0.248
3500.000000	0.299
3550.000000	0.350
3600.000000	0.402
3650.000000	0.454
3700.000000	0.509
3750.000000	0.565
3820.000000	0.647
3870.000000	0.707
3950.000000	0.808
4000.000000	0.873
4060.000000	0.949
4120.000000	1.021
4180.000000	1.086
4250.000000	1.145
4310.000000	1.178
4370.000000	1.192
4440.000000	1.187
4500.000000	1.166
4550.000000	1.140
4620.000000	1.095
4680.000000	1.053
4750.000000	1.004
4820.000000	0.959
4870.000000	0.931
4940.000000	0.904
5000.000000	0.892
5080.000000	0.898
5150.000000	0.924
5220.000000	0.968
5300.000000	1.035
5380.000000	1.115
5450.000000	1.189
5520.000000	1.265
5600.000000	1.351
5700.000000	1.454
5800.000000	1.550
5900.000000	1.640
6000.000000	1.724
6080.000000	1.788
6150.000000	1.841
6220.000000	1.893
6300.000000	1.950
6400.000000	2.018
6500.000000	2.083
6600.000000	2.145
6700.000000	2.205
6800.000000	2.263
6900.000000	2.319
7000.000000	2.372
7100.000000	2.423
7200.000000	2.472
7300.000000	2.518
7400.000000	2.562
7500.000000	2.603
7620.000000	2.649
7750.000000	2.694
7880.000000	2.734
8000.000000	2.766
8120.000000	2.795
8250.000000	2.823
8380.000000	2.852
8500.000000	2.882
8620.000000	2.922
8750.000000	2.982
8850.000000	3.048
9000.000000	3.186
9120.000000	3.337
9250.000000	3.548
9380.000000	3.805
9500.000000	4.082
9620.000000	4.392
9750.000000	4.760
9880.000000	5.157
10000.000000	5.546
10150.000000	6.059
10300.000000	6.598
10440.000000	7.120
10600.000000	7.729
10750.000000	8.293
10900.000000	8.825
11060.000000	9.315
11200.000000	9.642
11380.000000	9.876
11500.000000	9.900
11720.000000	9.682
11800.000000	9.532
12060.000000	8.881
12200.000000	8.476
12410.000000	7.865
12500.000000	7.613
12650.000000	7.215
12800.000000	6.849
13150.000000	6.125
13200.000000	6.036
13400.000000	5.712
13600.000000	5.433
13800.000000	5.193
14000.000000	4.986
14300.000000	4.723
14500.000000	4.574
14750.000000	4.410
15000.000000	4.265
15250.000000	4.132
15500.000000	4.009
15750.000000	3.890
16000.000000	3.772
16250.000000	3.650
16500.000000	3.522
16750.000000	3.384
17000.000000	3.230
17250.000000	3.056
17500.000000	2.859
17750.000000	2.630
18000.000000	2.366
18250.000000	2.057
18500.000000	1.698
18750.000000	1.281
19000.000000	0.797
19250.000000	0.238
19500.000000	-0.400
19750.000000	-1.102
20000.000000	-1.699
