* Measurement data measured by REW V5.30.2
* Source: Headset (JA3 HIFI AUDIO(CX31993)), MICROPHONE (Master Volume), L, volume: 0.250
* Format: 512k Log Swept Sine, 1 sweep at -12.0 dBFS with no timing reference
* Dated: Feb 15, 2024 5:36:40 PM
* REW Settings:
*  C-weighting compensation: Off
*  Target level: 75.0 dB
* Note: ; 
* Measurement: Intime Miyabi MK2 L
* Smoothing: 1/24 octave
* Frequency Step: 1/48 octave
* Start Frequency: 1.000 Hz
*
* Freq(Hz) SPL(dB) Phase(degrees)
1.000000 63.834 20.7088
1.015000 63.883 20.1325
1.030000 63.932 19.5881
1.044000 63.976 19.1104
1.060000 64.026 18.6026
1.075000 64.073 18.1651
1.090000 64.119 17.7653
1.106000 64.168 17.3722
1.120000 64.206 17.0403
1.138000 64.248 16.6186
1.150000 64.272 16.3402
1.172000 64.307 15.8374
1.180000 64.317 15.6576
1.206000 64.344 15.0884
1.220000 64.355 14.7935
1.241000 64.368 14.3703
1.250000 64.373 14.1971
1.265000 64.380 13.9207
1.280000 64.387 13.6616
1.315000 64.403 13.1367
1.320000 64.406 13.0720
1.340000 64.420 12.8424
1.360000 64.438 12.6636
1.380000 64.462 12.5412
1.400000 64.493 12.4802
1.430000 64.556 12.5146
1.450000 64.611 12.6277
1.475000 64.693 12.8784
1.500000 64.782 13.2546
1.525000 64.876 13.7466
1.550000 64.975 14.3378
1.575000 65.080 15.0103
1.600000 65.192 15.7463
1.625000 65.311 16.5269
1.650000 65.439 17.3330
1.675000 65.576 18.1451
1.700000 65.724 18.9438
1.725000 65.883 19.7102
1.750000 66.054 20.4261
1.775000 66.239 21.0751
1.800000 66.438 21.6440
1.825000 66.653 22.1325
1.850000 66.886 22.5827
1.875000 67.140 23.0489
1.900000 67.413 23.5319
1.925000 67.702 24.0105
1.950000 68.007 24.4631
1.975000 68.323 24.8711
2.000000 68.648 25.2188
2.030000 69.048 25.5382
2.060000 69.452 25.7345
2.090000 69.857 25.7941
2.120000 70.258 25.7070
2.140000 70.522 25.5642
2.180000 71.034 25.0748
2.200000 71.282 24.7405
2.240000 71.775 23.9805
2.270000 72.145 23.3729
2.300000 72.517 22.7373
2.330000 72.888 22.0704
2.360000 73.257 21.3682
2.400000 73.745 20.3702
2.430000 74.104 19.5705
2.470000 74.573 18.4285
2.500000 74.916 17.5101
2.540000 75.358 16.1965
2.580000 75.782 14.7831
2.620000 76.191 13.2971
2.650000 76.489 12.1535
2.690000 76.876 10.6068
2.720000 77.158 9.4381
2.760000 77.524 7.8760
2.800000 77.878 6.3146
2.850000 78.304 4.3660
2.900000 78.714 2.4162
2.950000 79.105 0.4420
3.000000 79.478 -1.5897
3.040000 79.762 -3.2452
3.070000 79.968 -4.4915
3.110000 80.232 -6.1451
3.150000 80.486 -7.7763
3.200000 80.791 -9.7666
3.250000 81.082 -11.6900
3.300000 81.359 -13.5523
3.350000 81.622 -15.4020
3.400000 81.869 -17.2662
3.450000 82.101 -19.1241
3.500000 82.319 -20.9474
3.550000 82.527 -22.7096
3.600000 82.725 -24.3883
3.650000 82.914 -25.9719
3.700000 83.093 -27.4829
3.750000 83.260 -28.9599
3.820000 83.475 -30.9751
3.870000 83.619 -32.3578
3.950000 83.838 -34.4259
4.000000 83.971 -35.6048
4.060000 84.127 -36.8978
4.120000 84.276 -38.0855
4.180000 84.416 -39.1883
4.250000 84.577 -40.3767
4.310000 84.716 -41.3132
4.370000 84.861 -42.1714
4.440000 85.037 -43.0599
4.500000 85.192 -43.7206
4.550000 85.324 -44.2155
4.620000 85.514 -44.8568
4.680000 85.683 -45.3871
4.750000 85.890 -46.0074
4.820000 86.109 -46.6139
4.870000 86.272 -47.0240
4.940000 86.509 -47.5840
5.000000 86.716 -48.0783
5.080000 86.995 -48.8004
5.150000 87.239 -49.5098
5.220000 87.486 -50.2719
5.300000 87.772 -51.1882
5.380000 88.055 -52.1567
5.450000 88.293 -53.0564
5.520000 88.522 -54.0155
5.600000 88.773 -55.1859
5.700000 89.071 -56.7190
5.800000 89.347 -58.2709
5.900000 89.594 -59.8236
6.000000 89.813 -61.4133
6.080000 89.970 -62.6823
6.150000 90.095 -63.7522
6.220000 90.208 -64.7641
6.300000 90.322 -65.8624
6.400000 90.442 -67.1724
6.500000 90.545 -68.3709
6.600000 90.638 -69.4003
6.700000 90.719 -70.2546
6.800000 90.792 -70.9606
6.900000 90.869 -71.5253
7.000000 90.957 -71.9375
7.100000 91.056 -72.1920
7.200000 91.168 -72.3415
7.300000 91.301 -72.4535
7.400000 91.459 -72.5422
7.500000 91.641 -72.6076
7.620000 91.883 -72.7558
7.750000 92.170 -73.1114
7.880000 92.482 -73.6527
8.000000 92.778 -74.3539
8.120000 93.069 -75.2965
8.250000 93.378 -76.5596
8.380000 93.667 -78.0279
8.500000 93.907 -79.5623
8.620000 94.121 -81.2526
8.750000 94.319 -83.1759
8.850000 94.443 -84.6959
9.000000 94.586 -87.0458
9.120000 94.662 -88.8995
9.250000 94.707 -90.8279
9.380000 94.714 -92.6764
9.500000 94.693 -94.2409
9.620000 94.649 -95.6246
9.750000 94.578 -96.9243
9.880000 94.492 -97.9775
10.000000 94.404 -98.6972
10.150000 94.291 -99.2797
10.300000 94.205 -99.5556
10.440000 94.157 -99.5547
10.600000 94.152 -99.3986
10.750000 94.210 -99.2267
10.900000 94.321 -99.1221
11.060000 94.483 -99.2592
11.200000 94.654 -99.6245
11.380000 94.883 -100.4772
11.500000 95.030 -101.2972
11.720000 95.263 -103.1978
11.800000 95.328 -103.9925
12.060000 95.457 -106.7816
12.200000 95.468 -108.2778
12.410000 95.415 -110.3614
12.500000 95.372 -111.1254
12.650000 95.278 -112.1907
12.800000 95.170 -112.9416
13.150000 94.936 -113.2664
13.200000 94.916 -113.1648
13.400000 94.885 -112.4645
13.600000 94.954 -111.5491
13.800000 95.131 -110.7048
14.000000 95.386 -110.2224
14.300000 95.843 -110.4539
14.500000 96.139 -111.2642
14.750000 96.453 -112.8271
15.000000 96.680 -114.7631
15.250000 96.815 -116.7906
15.500000 96.875 -118.7004
15.750000 96.883 -120.3687
16.000000 96.865 -121.7535
16.250000 96.842 -122.9037
16.500000 96.824 -123.8954
16.750000 96.808 -124.8080
17.000000 96.787 -125.6756
17.250000 96.755 -126.4859
17.500000 96.713 -127.1958
17.750000 96.666 -127.7603
18.000000 96.628 -128.1709
18.250000 96.613 -128.4644
18.500000 96.629 -128.7272
18.750000 96.675 -129.0605
19.000000 96.743 -129.5485
19.250000 96.818 -130.2327
19.500000 96.886 -131.0965
19.750000 96.934 -132.0844
20.000000 96.959 -133.1143
20.299999 96.961 -134.2896
20.600000 96.945 -135.2959
20.900000 96.929 -136.0828
21.200001 96.931 -136.6720
21.400000 96.950 -136.9955
21.799999 97.034 -137.6255
22.000000 97.095 -137.9973
22.400000 97.230 -138.9508
22.700001 97.321 -139.8411
23.000000 97.387 -140.8027
23.299999 97.421 -141.7240
23.600000 97.432 -142.4991
24.000000 97.433 -143.2148
24.299999 97.447 -143.5500
24.700001 97.497 -143.9035
25.000000 97.549 -144.2158
25.400000 97.612 -144.7452
25.799999 97.651 -145.2973
26.200001 97.675 -145.7275
26.500000 97.703 -145.9719
26.900000 97.771 -146.3559
27.200001 97.837 -146.8302
27.600000 97.907 -147.7981
28.000000 97.912 -148.9942
28.500000 97.814 -150.2559
29.000000 97.682 -150.7377
29.500000 97.648 -150.6085
30.000000 97.744 -150.6463
30.400000 97.856 -151.1531
30.700001 97.925 -151.7739
31.100000 97.977 -152.7107
31.500000 97.994 -153.5507
32.000000 98.014 -154.3641
32.500000 98.056 -155.1148
33.000000 98.094 -155.9982
33.500000 98.085 -156.8897
34.000000 98.035 -157.4889
34.500000 97.995 -157.6910
35.000000 98.004 -157.7378
35.500000 98.050 -157.9535
36.000000 98.090 -158.4200
36.500000 98.102 -158.9821
37.000000 98.101 -159.5082
37.500000 98.104 -160.0318
38.200001 98.103 -160.8830
38.700001 98.083 -161.4645
39.500000 98.065 -162.0917
40.000000 98.096 -162.4697
40.599998 98.148 -163.1904
41.200001 98.161 -164.0950
41.799999 98.128 -164.8244
42.500000 98.088 -165.2727
43.099998 98.082 -165.5212
43.700001 98.088 -165.8197
44.400002 98.091 -166.2375
45.000000 98.089 -166.6448
45.500000 98.084 -167.0338
46.200001 98.065 -167.6125
46.799999 98.047 -168.0746
47.500000 98.048 -168.6333
48.200001 98.066 -169.3902
48.700001 98.068 -170.0408
49.400002 98.042 -170.8846
50.000000 98.013 -171.3882
50.799999 98.004 -171.8068
51.500000 98.022 -172.0895
52.200001 98.056 -172.3715
53.000000 98.102 -172.8461
53.799999 98.108 -173.5045
54.500000 98.067 -173.9694
55.200001 98.022 -174.2217
56.000000 97.995 -174.5095
57.000000 97.961 -175.0929
58.000000 97.913 -175.7110
59.000000 97.873 -176.2239
60.000000 97.874 -176.6019
60.799999 97.905 -177.0395
61.500000 97.917 -177.5254
62.200001 97.913 -177.9240
63.000000 97.910 -178.2690
64.000000 97.895 -178.7146
65.000000 97.858 -178.9984
66.000000 97.840 -179.2431
67.000000 97.817 -179.6497
68.000000 97.787 179.9622
69.000000 97.772 179.4949
70.000000 97.744 178.9440
71.000000 97.714 178.5408
72.000000 97.702 178.1495
73.000000 97.680 177.7126
74.000000 97.649 177.3759
75.000000 97.625 177.0445
76.199997 97.588 176.5503
77.500000 97.520 175.9618
78.800003 97.452 175.6508
80.000000 97.432 175.3261
81.199997 97.418 174.9754
82.500000 97.422 174.5712
83.800003 97.409 174.1999
85.000000 97.422 174.1300
86.199997 97.491 173.5352
87.500000 97.396 172.1617
88.500000 97.231 171.9935
90.000000 97.129 172.3327
91.199997 97.106 172.3081
92.500000 97.105 172.0424
93.800003 97.097 171.6393
95.000000 97.077 171.2687
96.199997 97.047 171.0527
97.500000 97.026 170.9104
98.800003 96.999 170.6523
100.000000 96.954 170.4288
101.500000 96.907 170.2194
103.000000 96.875 169.8336
104.400002 96.828 169.4281
106.000000 96.777 169.2781
107.500000 96.769 169.1691
109.000000 96.740 168.7400
110.599998 96.641 168.3594
112.000000 96.554 168.3257
113.800003 96.501 168.2836
115.000000 96.479 168.1433
117.199997 96.456 167.8072
118.000000 96.432 167.6551
120.599998 96.338 167.0968
122.000000 96.276 166.9164
124.099998 96.222 166.2776
125.000000 96.195 166.1951
126.500000 96.199 166.1536
128.000000 96.211 166.0359
131.500000 96.100 165.8351
132.000000 96.087 165.8902
134.000000 96.070 165.7619
136.000000 96.064 165.0906
138.000000 95.988 164.5372
140.000000 95.913 164.4434
143.000000 95.819 164.3910
145.000000 95.810 164.4042
147.500000 95.747 164.0776
150.000000 95.718 164.3500
152.500000 95.616 163.7599
155.000000 95.534 163.9999
157.500000 95.515 163.5690
160.000000 95.436 163.4010
162.500000 95.344 163.3232
165.000000 95.271 163.3835
167.500000 95.211 163.3314
170.000000 95.154 163.4089
172.500000 95.108 163.2588
175.000000 95.036 162.9312
177.500000 94.920 162.7766
180.000000 94.860 163.2410
182.500000 94.856 163.0660
185.000000 94.733 162.6811
187.500000 94.599 163.0618
190.000000 94.556 163.4214
192.500000 94.552 163.6481
195.000000 94.549 163.9957
197.500000 94.518 164.3805
200.000000 94.434 164.7044
203.000000 94.324 164.6708
206.000000 94.278 164.1408
209.000000 94.307 163.6763
212.000000 94.308 163.5398
214.000000 94.272 163.6149
218.000000 94.192 163.6266
220.000000 94.147 163.4550
224.000000 94.051 163.3911
227.000000 94.001 163.5873
230.000000 93.966 163.7668
233.000000 93.910 163.7949
236.000000 93.853 163.9271
240.000000 93.822 164.0036
243.000000 93.807 164.0000
247.000000 93.771 163.7371
250.000000 93.743 163.4299
254.000000 93.714 163.2956
258.000000 93.704 163.4689
262.000000 93.673 164.2816
265.000000 93.551 165.0235
269.000000 93.371 164.9722
272.000000 93.348 164.7920
276.000000 93.312 164.6709
280.000000 93.169 165.1649
285.000000 93.261 166.5909
290.000000 93.401 165.1428
295.000000 93.200 163.2456
300.000000 92.841 163.1520
304.000000 92.604 164.9273
307.000000 92.548 166.6833
311.000000 92.620 168.2673
315.000000 92.703 168.4380
320.000000 92.663 168.0347
325.000000 92.460 168.5435
330.000000 92.291 168.5034
335.000000 92.016 167.5993
340.000000 91.916 167.3601
345.000000 91.983 166.9599
350.000000 92.348 166.7598
355.000000 92.587 169.4145
360.000000 92.441 170.7632
365.000000 92.316 170.5589
370.000000 92.265 170.3924
375.000000 92.228 170.6001
382.000000 92.183 170.8712
387.000000 92.151 171.2132
395.000000 92.094 171.7518
400.000000 92.052 171.9869
406.000000 91.975 172.2328
412.000000 91.913 172.6600
418.000000 91.924 173.1451
425.000000 91.924 173.8932
431.000000 91.871 174.2661
437.000000 91.839 174.5088
444.000000 91.812 175.0035
450.000000 91.782 175.4970
455.000000 91.753 175.7616
462.000000 91.729 176.0348
468.000000 91.713 176.3855
475.000000 91.694 176.8398
482.000000 91.672 177.3004
487.000000 91.658 177.6241
494.000000 91.640 178.1306
500.000000 91.625 178.5185
508.000000 91.610 179.0353
515.000000 91.610 179.5330
522.000000 91.607 -179.9793
530.000000 91.593 -179.4842
538.000000 91.573 -178.9661
545.000000 91.556 -178.4868
552.000000 91.538 -177.9738
560.000000 91.507 -177.4045
570.000000 91.474 -176.7854
580.000000 91.483 -176.1176
590.000000 91.473 -175.6768
600.000000 91.480 -175.0376
608.000000 91.487 -174.5449
615.000000 91.495 -173.8068
622.000000 91.534 -172.8985
630.000000 91.554 -172.1865
640.000000 91.531 -171.8954
650.000000 91.523 -171.5678
660.000000 91.535 -171.0078
670.000000 91.550 -170.3658
680.000000 91.567 -169.7384
690.000000 91.589 -169.1136
700.000000 91.618 -168.4511
710.000000 91.648 -167.8028
720.000000 91.681 -167.1445
730.000000 91.719 -166.5443
740.000000 91.756 -165.9887
750.000000 91.799 -165.4048
762.000000 91.854 -164.6563
775.000000 91.913 -163.8340
788.000000 91.984 -163.0721
800.000000 92.053 -162.3842
812.000000 92.122 -161.6923
825.000000 92.200 -161.0166
838.000000 92.290 -160.3638
850.000000 92.378 -159.7821
862.000000 92.473 -159.2397
875.000000 92.587 -158.7401
885.000000 92.683 -158.4249
900.000000 92.841 -158.0709
912.000000 92.978 -157.9502
925.000000 93.137 -158.1111
938.000000 93.294 -158.7130
950.000000 93.396 -159.8133
962.000000 93.388 -161.4115
975.000000 93.167 -163.1056
988.000000 92.736 -163.4090
1000.000000 92.343 -161.6172
1015.000000 92.162 -157.8715
1030.000000 92.297 -154.6829
1044.000000 92.532 -152.7783
1060.000000 92.810 -151.4937
1075.000000 93.047 -150.7817
1090.000000 93.258 -150.3225
1106.000000 93.463 -150.0148
1120.000000 93.627 -149.8634
1138.000000 93.820 -149.7855
1150.000000 93.938 -149.8003
1172.000000 94.125 -149.9147
1180.000000 94.185 -149.9545
1206.000000 94.362 -150.0142
1220.000000 94.455 -150.0195
1241.000000 94.601 -150.0517
1250.000000 94.667 -150.0824
1265.000000 94.779 -150.1432
1280.000000 94.890 -150.2215
1315.000000 95.139 -150.4698
1320.000000 95.174 -150.5160
1340.000000 95.307 -150.7421
1360.000000 95.431 -150.9866
1380.000000 95.552 -151.2272
1400.000000 95.671 -151.4886
1430.000000 95.842 -151.8981
1450.000000 95.954 -152.1921
1475.000000 96.087 -152.5714
1500.000000 96.217 -152.9659
1525.000000 96.336 -153.3889
1550.000000 96.450 -153.8015
1575.000000 96.563 -154.2422
1600.000000 96.672 -154.7003
1625.000000 96.778 -155.1682
1650.000000 96.881 -155.6373
1675.000000 96.982 -156.1298
1700.000000 97.077 -156.6426
1725.000000 97.167 -157.1585
1750.000000 97.251 -157.6788
1775.000000 97.330 -158.1920
1800.000000 97.404 -158.6959
1825.000000 97.475 -159.1909
1850.000000 97.543 -159.6666
1875.000000 97.609 -160.1144
1900.000000 97.677 -160.5454
1925.000000 97.750 -160.9846
1950.000000 97.826 -161.4529
1975.000000 97.901 -161.9690
2000.000000 97.972 -162.5451
2030.000000 98.047 -163.2855
2060.000000 98.112 -164.0444
2090.000000 98.167 -164.7970
2120.000000 98.210 -165.5160
2140.000000 98.234 -165.9786
2180.000000 98.272 -166.8476
2200.000000 98.287 -167.2519
2240.000000 98.314 -168.0212
2270.000000 98.333 -168.5345
2300.000000 98.353 -169.0070
2330.000000 98.377 -169.4431
2360.000000 98.405 -169.8687
2400.000000 98.446 -170.4589
2430.000000 98.478 -170.9413
2470.000000 98.514 -171.6134
2500.000000 98.534 -172.1194
2540.000000 98.557 -172.7657
2580.000000 98.580 -173.3644
2620.000000 98.605 -173.9199
2650.000000 98.625 -174.3206
2690.000000 98.649 -174.8511
2720.000000 98.667 -175.2534
2760.000000 98.690 -175.8065
2800.000000 98.711 -176.3575
2850.000000 98.729 -176.9972
2900.000000 98.743 -177.5678
2950.000000 98.765 -178.0318
3000.000000 98.805 -178.4421
3040.000000 98.854 -178.8030
3070.000000 98.900 -179.1293
3110.000000 98.968 -179.6656
3150.000000 99.034 179.6736
3200.000000 99.100 178.6859
3250.000000 99.146 177.5885
3300.000000 99.174 176.4480
3350.000000 99.181 175.2998
3400.000000 99.163 174.1837
3450.000000 99.135 173.0735
3500.000000 99.099 171.9912
3550.000000 99.050 170.9338
3600.000000 98.991 169.9074
3650.000000 98.924 168.9304
3700.000000 98.851 167.9892
3750.000000 98.769 167.0693
3820.000000 98.641 165.8369
3870.000000 98.541 165.0005
3950.000000 98.366 163.7707
4000.000000 98.247 163.0656
4060.000000 98.091 162.2803
4120.000000 97.926 161.5720
4180.000000 97.757 160.9471
4250.000000 97.558 160.3111
4310.000000 97.383 159.8438
4370.000000 97.204 159.4430
4440.000000 96.992 159.0596
4500.000000 96.808 158.8027
4550.000000 96.656 158.6375
4620.000000 96.441 158.4916
4680.000000 96.256 158.4442
4750.000000 96.043 158.4693
4820.000000 95.837 158.5693
4870.000000 95.692 158.6897
4940.000000 95.487 158.9264
5000.000000 95.310 159.1906
5080.000000 95.073 159.6222
5150.000000 94.869 160.0908
5220.000000 94.672 160.6485
5300.000000 94.454 161.3940
5380.000000 94.245 162.2581
5450.000000 94.072 163.0936
5520.000000 93.908 163.9953
5600.000000 93.732 165.1081
5700.000000 93.529 166.6094
5800.000000 93.344 168.2490
5900.000000 93.184 170.0633
6000.000000 93.054 172.0033
6080.000000 92.962 173.5819
6150.000000 92.874 175.0554
6220.000000 92.783 176.8592
6300.000000 92.745 179.7422
6400.000000 93.035 -176.1415
6500.000000 93.562 -174.6237
6600.000000 93.840 -174.9611
6700.000000 93.920 -174.6291
6800.000000 93.993 -173.3917
6900.000000 94.132 -171.6527
7000.000000 94.357 -169.6856
7100.000000 94.678 -167.6696
7200.000000 95.101 -165.7365
7300.000000 95.641 -164.0199
7400.000000 96.317 -162.7114
7500.000000 97.149 -162.1177
7620.000000 98.356 -163.0162
7750.000000 99.847 -167.1709
7880.000000 101.276 -175.8591
8000.000000 102.153 171.9728
8120.000000 102.243 157.4049
8250.000000 101.346 142.3585
8380.000000 99.695 131.1898
8500.000000 97.898 125.1209
8620.000000 96.130 122.4292
8750.000000 94.397 122.1870
8850.000000 93.213 123.2643
9000.000000 91.663 126.1989
9120.000000 90.592 129.3132
9250.000000 89.580 133.2004
9380.000000 88.704 137.4290
9500.000000 87.999 141.5679
9620.000000 87.381 145.8869
9750.000000 86.802 150.6969
9880.000000 86.317 155.5955
10000.000000 85.952 160.1658
10150.000000 85.603 165.9233
10300.000000 85.364 171.7150
10440.000000 85.236 177.0938
10600.000000 85.205 -176.8757
10750.000000 85.280 -171.4008
10900.000000 85.455 -166.1334
11060.000000 85.761 -160.8371
11200.000000 86.130 -156.5798
11380.000000 86.743 -151.8547
11500.000000 87.239 -149.3703
11720.000000 88.295 -146.7357
11800.000000 88.704 -146.5580
12060.000000 89.921 -149.4265
12200.000000 90.349 -153.0364
12410.000000 90.474 -159.8185
12500.000000 90.320 -162.6405
12650.000000 89.817 -166.4508
12800.000000 89.075 -168.5136
13150.000000 87.034 -164.1924
13200.000000 86.775 -162.4742
13400.000000 86.015 -153.0324
13600.000000 85.960 -140.4008
13800.000000 86.875 -127.1950
14000.000000 88.691 -117.1142
14300.000000 92.232 -112.7719
14500.000000 94.559 -117.2640
14750.000000 96.963 -129.8151
15000.000000 98.411 -148.3137
15250.000000 98.490 -169.4000
15500.000000 97.173 172.2405
15750.000000 95.021 160.5056
16000.000000 92.706 155.4127
16250.000000 90.575 155.0830
16500.000000 88.763 157.8165
16750.000000 87.330 162.8850
17000.000000 86.599 170.3268
17250.000000 86.786 173.8722
17500.000000 87.001 171.5958
17750.000000 87.007 165.9428
18000.000000 86.557 156.9137
18250.000000 85.267 146.9232
18500.000000 83.123 140.0093
18750.000000 80.524 138.6581
19000.000000 77.951 142.5703
19250.000000 75.701 149.8172
19500.000000 73.812 158.5481
19750.000000 72.120 167.7509
20000.000000 70.439 177.4980
20300.000000 68.364 -169.4789
20600.000000 66.207 -155.8205
20900.000000 63.848 -143.2778
21200.000000 61.132 -133.2392
21400.000000 59.012 -128.4120
21800.000000 53.718 -123.7583
22000.000000 50.524 -122.6641
22400.000000 44.093 -121.0739
22700.000000 41.266 -125.4516
23000.000000 41.428 -168.8300
23300.000000 45.888 144.7145
23600.000000 52.272 104.8259
24000.000000 57.506 73.6852
