* Measurement data measured by REW V5.30.9
* Source: Headset (JA3 HIFI AUDIO(CX31993)), MICROPHONE (Master Volume), L, volume: 0.250
* Format: 512k Log Swept Sine, 1 sweep at -13.0 dBFS with no timing reference
* Dated: Feb 24, 2024 1:46:21 PM
* REW Settings:
*  C-weighting compensation: Off
*  Target level: 75.0 dB
* Note: ; 
* Measurement: Plutus Beast R
* Smoothing: 1/12 octave
* Frequency Step: 1/48 octave
* Start Frequency: 1.000 Hz
*
* Freq(Hz) SPL(dB) Phase(degrees)
1.000000 72.798 24.1036
1.015000 73.070 23.5424
1.030000 73.338 22.9662
1.044000 73.587 22.4142
1.060000 73.869 21.7664
1.075000 74.131 21.1432
1.090000 74.391 20.5075
1.106000 74.666 19.8224
1.120000 74.903 19.2244
1.138000 75.205 18.4648
1.150000 75.403 17.9659
1.172000 75.761 17.0671
1.180000 75.889 16.7450
1.206000 76.301 15.7137
1.220000 76.519 15.1668
1.241000 76.842 14.3555
1.250000 76.978 14.0106
1.265000 77.204 13.4386
1.280000 77.427 12.8695
1.315000 77.937 11.5482
1.320000 78.009 11.3597
1.340000 78.294 10.6056
1.360000 78.576 9.8496
1.380000 78.854 9.0901
1.400000 79.128 8.3258
1.430000 79.534 7.1681
1.450000 79.800 6.3897
1.475000 80.128 5.4150
1.500000 80.450 4.4478
1.525000 80.766 3.4945
1.550000 81.075 2.5559
1.575000 81.378 1.6301
1.600000 81.674 0.7145
1.625000 81.965 -0.1938
1.650000 82.251 -1.0974
1.675000 82.531 -1.9993
1.700000 82.807 -2.9019
1.725000 83.078 -3.8079
1.750000 83.345 -4.7196
1.775000 83.607 -5.6391
1.800000 83.866 -6.5679
1.825000 84.120 -7.5061
1.850000 84.371 -8.4518
1.875000 84.616 -9.4015
1.900000 84.857 -10.3518
1.925000 85.093 -11.3001
1.950000 85.324 -12.2445
1.975000 85.551 -13.1839
2.000000 85.773 -14.1174
2.030000 86.034 -15.2293
2.060000 86.290 -16.3322
2.090000 86.541 -17.4263
2.120000 86.787 -18.5128
2.140000 86.948 -19.2337
2.180000 87.265 -20.6698
2.200000 87.420 -21.3866
2.240000 87.724 -22.8208
2.270000 87.945 -23.8965
2.300000 88.161 -24.9703
2.330000 88.372 -26.0396
2.360000 88.578 -27.1020
2.400000 88.846 -28.5045
2.430000 89.042 -29.5442
2.470000 89.297 -30.9126
2.500000 89.483 -31.9255
2.540000 89.727 -33.2605
2.580000 89.964 -34.5832
2.620000 90.194 -35.9002
2.650000 90.361 -36.8856
2.690000 90.578 -38.1940
2.720000 90.737 -39.1689
2.760000 90.942 -40.4562
2.800000 91.142 -41.7255
2.850000 91.384 -43.2824
2.900000 91.619 -44.8052
2.950000 91.845 -46.3007
3.000000 92.064 -47.7793
3.040000 92.232 -48.9530
3.070000 92.355 -49.8269
3.110000 92.514 -50.9811
3.150000 92.669 -52.1194
3.200000 92.857 -53.5156
3.250000 93.040 -54.8790
3.300000 93.216 -56.2115
3.350000 93.387 -57.5197
3.400000 93.551 -58.8093
3.450000 93.709 -60.0808
3.500000 93.862 -61.3315
3.550000 94.011 -62.5575
3.600000 94.155 -63.7564
3.650000 94.295 -64.9277
3.700000 94.430 -66.0747
3.750000 94.562 -67.2014
3.820000 94.739 -68.7477
3.870000 94.861 -69.8291
3.950000 95.050 -71.5150
4.000000 95.164 -72.5396
4.060000 95.297 -73.7412
4.120000 95.426 -74.9162
4.180000 95.550 -76.0668
4.250000 95.691 -77.3785
4.310000 95.808 -78.4755
4.370000 95.921 -79.5471
4.440000 96.050 -80.7671
4.500000 96.157 -81.7892
4.550000 96.243 -82.6253
4.620000 96.361 -83.7717
4.680000 96.460 -84.7313
4.750000 96.571 -85.8239
4.820000 96.679 -86.8891
4.870000 96.755 -87.6343
4.940000 96.857 -88.6564
5.000000 96.943 -89.5126
5.080000 97.055 -90.6253
5.150000 97.149 -91.5719
5.220000 97.242 -92.4947
5.300000 97.345 -93.5219
5.380000 97.445 -94.5209
5.450000 97.532 -95.3724
5.520000 97.617 -96.2031
5.600000 97.712 -97.1284
5.700000 97.830 -98.2524
5.800000 97.946 -99.3454
5.900000 98.061 -100.4109
6.000000 98.174 -101.4518
6.080000 98.265 -102.2706
6.150000 98.343 -102.9799
6.220000 98.422 -103.6847
6.300000 98.510 -104.4857
6.400000 98.620 -105.4824
6.500000 98.728 -106.4777
6.600000 98.834 -107.4762
6.700000 98.937 -108.4800
6.800000 99.037 -109.4891
6.900000 99.132 -110.5029
7.000000 99.222 -111.5217
7.100000 99.307 -112.5448
7.200000 99.386 -113.5682
7.300000 99.458 -114.5871
7.400000 99.524 -115.5986
7.500000 99.583 -116.5997
7.620000 99.644 -117.7785
7.750000 99.700 -119.0170
7.880000 99.745 -120.2083
8.000000 99.779 -121.2576
8.120000 99.805 -122.2508
8.250000 99.828 -123.2599
8.380000 99.846 -124.1975
8.500000 99.862 -124.9981
8.620000 99.876 -125.7390
8.750000 99.894 -126.4809
8.850000 99.910 -127.0133
9.000000 99.938 -127.7597
9.120000 99.966 -128.3239
9.250000 100.002 -128.9147
9.380000 100.043 -129.4955
9.500000 100.085 -130.0338
9.620000 100.130 -130.5829
9.750000 100.180 -131.1965
9.880000 100.227 -131.8356
10.000000 100.266 -132.4511
10.150000 100.308 -133.2548
10.300000 100.340 -134.0930
10.440000 100.362 -134.9004
10.600000 100.377 -135.8403
10.750000 100.381 -136.7245
10.900000 100.377 -137.5974
11.060000 100.363 -138.4983
11.200000 100.344 -139.2489
11.380000 100.312 -140.1462
11.500000 100.288 -140.6956
11.720000 100.244 -141.5952
11.800000 100.229 -141.8882
12.060000 100.190 -142.7324
12.200000 100.179 -143.1346
12.410000 100.181 -143.7041
12.500000 100.189 -143.9460
12.650000 100.213 -144.3597
12.800000 100.247 -144.7987
13.150000 100.344 -145.9721
13.200000 100.359 -146.1584
13.400000 100.413 -146.9455
13.600000 100.458 -147.7831
13.800000 100.492 -148.6430
14.000000 100.513 -149.4933
14.300000 100.526 -150.6903
14.500000 100.527 -151.4101
14.750000 100.525 -152.2156
15.000000 100.527 -152.9345
15.250000 100.535 -153.5999
15.500000 100.546 -154.2425
15.750000 100.558 -154.8748
16.000000 100.565 -155.4850
16.250000 100.567 -156.0424
16.500000 100.566 -156.5129
16.750000 100.568 -156.8779
17.000000 100.582 -157.1515
17.250000 100.614 -157.3841
17.500000 100.668 -157.6516
17.750000 100.738 -158.0316
18.000000 100.811 -158.5753
18.250000 100.873 -159.2892
18.500000 100.910 -160.1313
18.750000 100.914 -161.0207
19.000000 100.883 -161.8584
19.250000 100.824 -162.5499
19.500000 100.751 -163.0338
19.750000 100.683 -163.2994
20.000000 100.635 -163.3925
20.299999 100.618 -163.4099
20.600000 100.646 -163.5036
20.900000 100.700 -163.8175
21.200001 100.757 -164.3987
21.400000 100.786 -164.9132
21.799999 100.802 -166.1089
22.000000 100.790 -166.7225
22.400000 100.737 -167.8607
22.700001 100.687 -168.6031
23.000000 100.637 -169.2665
23.299999 100.590 -169.8807
23.600000 100.544 -170.4604
24.000000 100.481 -171.1558
24.299999 100.436 -171.5870
24.700001 100.394 -172.0372
25.000000 100.385 -172.3365
25.400000 100.402 -172.8217
25.799999 100.431 -173.5145
26.200001 100.438 -174.3789
26.500000 100.415 -175.0262
26.900000 100.355 -175.7049
27.200001 100.306 -176.0053
27.600000 100.265 -176.1707
28.000000 100.268 -176.2565
28.500000 100.312 -176.5480
29.000000 100.347 -177.0853
29.500000 100.353 -177.6401
30.000000 100.358 -178.0958
30.400000 100.379 -178.5015
30.700001 100.396 -178.9093
31.100000 100.399 -179.5931
31.500000 100.361 179.6909
32.000000 100.263 179.0600
32.500000 100.169 178.8840
33.000000 100.136 178.9345
33.500000 100.158 178.8237
34.000000 100.186 178.4289
34.500000 100.193 177.9163
35.000000 100.194 177.4280
35.500000 100.205 176.9028
36.000000 100.210 176.2411
36.500000 100.184 175.5282
37.000000 100.127 174.9852
37.500000 100.075 174.7132
38.200001 100.072 174.4546
38.700001 100.099 174.0359
39.500000 100.102 172.9510
40.000000 100.065 172.2461
40.599998 100.000 171.5154
41.200001 99.924 170.9031
41.799999 99.840 170.4220
42.500000 99.747 170.0806
43.099998 99.692 169.9287
43.700001 99.666 169.7784
44.400002 99.658 169.4717
45.000000 99.650 169.0791
45.500000 99.634 168.7091
46.200001 99.592 168.2494
46.799999 99.554 167.9834
47.500000 99.527 167.7772
48.200001 99.522 167.5187
48.700001 99.521 167.2405
49.400002 99.504 166.7706
50.000000 99.473 166.3945
50.799999 99.425 165.9980
51.500000 99.385 165.6949
52.200001 99.339 165.4232
53.000000 99.283 165.2159
53.799999 99.240 165.0732
54.500000 99.209 164.9066
55.200001 99.172 164.7077
56.000000 99.125 164.5190
57.000000 99.085 164.2698
58.000000 99.048 163.7642
59.000000 98.973 163.1621
60.000000 98.890 162.7156
60.799999 98.833 162.3845
61.500000 98.784 162.1008
62.200001 98.739 161.8526
63.000000 98.695 161.5800
64.000000 98.644 161.2173
65.000000 98.592 160.8566
66.000000 98.534 160.4763
67.000000 98.464 160.1524
68.000000 98.396 159.9271
69.000000 98.338 159.7256
70.000000 98.289 159.5022
71.000000 98.243 159.2314
72.000000 98.195 158.9437
73.000000 98.147 158.6688
74.000000 98.101 158.3806
75.000000 98.050 158.0983
76.199997 97.985 157.8304
77.500000 97.919 157.6230
78.800003 97.857 157.4260
80.000000 97.795 157.2256
81.199997 97.723 157.0250
82.500000 97.635 156.8475
83.800003 97.554 156.7049
85.000000 97.492 156.5180
86.199997 97.437 156.2735
87.500000 97.386 155.9778
88.500000 97.350 155.7210
90.000000 97.284 155.3521
91.199997 97.220 155.1830
92.500000 97.154 155.0884
93.800003 97.087 154.9607
95.000000 97.017 154.8463
96.199997 96.949 154.7528
97.500000 96.885 154.6436
98.800003 96.831 154.5231
100.000000 96.790 154.4196
101.500000 96.747 154.3379
103.000000 96.714 154.2805
104.400002 96.680 154.1857
106.000000 96.625 154.0569
107.500000 96.560 153.9450
109.000000 96.482 153.7646
110.599998 96.378 153.5062
112.000000 96.270 153.3474
113.800003 96.150 153.3466
115.000000 96.095 153.3799
117.199997 96.018 153.4215
118.000000 95.992 153.4631
120.599998 95.910 153.5941
122.000000 95.860 153.5725
124.099998 95.775 153.4637
125.000000 95.738 153.4188
126.500000 95.679 153.3594
128.000000 95.620 153.3197
131.500000 95.480 153.4072
132.000000 95.465 153.4554
134.000000 95.425 153.7149
136.000000 95.393 154.0601
138.000000 95.338 154.4771
140.000000 95.263 154.7494
143.000000 95.151 154.4998
145.000000 95.088 154.2008
147.500000 95.027 154.1313
150.000000 94.969 154.3325
152.500000 94.933 154.7046
155.000000 94.947 155.0942
157.500000 95.003 155.5995
160.000000 95.182 156.2190
162.500000 95.539 155.8245
165.000000 95.882 153.2300
167.500000 95.814 148.8912
170.000000 95.187 146.1940
172.500000 94.446 146.6622
175.000000 93.916 147.8862
177.500000 93.538 148.6319
180.000000 93.246 149.3755
182.500000 93.030 150.8572
185.000000 92.919 153.1963
187.500000 92.957 155.6173
190.000000 93.113 157.1169
192.500000 93.258 157.5595
195.000000 93.325 157.4028
197.500000 93.322 157.1233
200.000000 93.309 157.3416
203.000000 93.293 158.1184
206.000000 93.210 158.7496
209.000000 93.084 158.6967
212.000000 92.982 158.2766
214.000000 92.935 158.1219
218.000000 92.880 158.2185
220.000000 92.871 158.2699
224.000000 92.862 158.2993
227.000000 92.850 158.3400
230.000000 92.832 158.4539
233.000000 92.815 158.7860
236.000000 92.811 159.3638
240.000000 92.845 160.0444
243.000000 92.858 160.2962
247.000000 92.783 160.3598
250.000000 92.678 160.2227
254.000000 92.542 159.9521
258.000000 92.472 159.9338
262.000000 92.465 160.2772
265.000000 92.447 160.7521
269.000000 92.378 161.4086
272.000000 92.309 161.7390
276.000000 92.208 161.9686
280.000000 92.103 161.9996
285.000000 91.967 161.8484
290.000000 91.837 161.7271
295.000000 91.791 162.0310
300.000000 91.805 163.0590
304.000000 91.777 163.9074
307.000000 91.733 164.4143
311.000000 91.660 164.9618
315.000000 91.592 165.4431
320.000000 91.535 166.0309
325.000000 91.491 166.5674
330.000000 91.449 167.1243
335.000000 91.405 167.7524
340.000000 91.360 168.3099
345.000000 91.330 168.8700
350.000000 91.310 169.3641
355.000000 91.282 169.7349
360.000000 91.244 169.9320
365.000000 91.213 170.0528
370.000000 91.179 170.2428
375.000000 91.136 170.5106
382.000000 91.078 171.1274
387.000000 91.057 171.7062
395.000000 91.059 172.3389
400.000000 91.054 172.5948
406.000000 91.026 173.1335
412.000000 90.996 173.8355
418.000000 90.933 174.3407
425.000000 90.821 174.6666
431.000000 90.755 175.0502
437.000000 90.726 175.7497
444.000000 90.715 176.4896
450.000000 90.727 176.8205
455.000000 90.750 177.0529
462.000000 90.791 177.8152
468.000000 90.804 178.7740
475.000000 90.761 179.7769
482.000000 90.674 -179.4851
487.000000 90.610 -178.9840
494.000000 90.531 -178.3002
500.000000 90.472 -177.8181
508.000000 90.410 -177.2768
515.000000 90.382 -176.8436
522.000000 90.370 -176.3253
530.000000 90.339 -175.6546
538.000000 90.299 -174.8459
545.000000 90.285 -174.1205
552.000000 90.296 -173.5033
560.000000 90.321 -172.9113
570.000000 90.344 -172.2243
580.000000 90.328 -171.2459
590.000000 90.295 -169.9296
600.000000 90.288 -168.7160
608.000000 90.285 -167.8461
615.000000 90.275 -167.2088
622.000000 90.264 -166.6697
630.000000 90.268 -165.9893
640.000000 90.291 -164.7699
650.000000 90.315 -163.4419
660.000000 90.342 -162.2456
670.000000 90.371 -161.0562
680.000000 90.413 -159.6894
690.000000 90.486 -158.2607
700.000000 90.580 -157.0580
710.000000 90.676 -156.1740
720.000000 90.775 -155.4285
730.000000 90.883 -154.6742
740.000000 90.993 -153.9820
750.000000 91.095 -153.4041
762.000000 91.209 -152.7677
775.000000 91.325 -152.0394
788.000000 91.425 -151.3116
800.000000 91.509 -150.6480
812.000000 91.595 -149.9774
825.000000 91.689 -149.2334
838.000000 91.783 -148.4931
850.000000 91.865 -147.8742
862.000000 91.939 -147.2955
875.000000 92.020 -146.6289
885.000000 92.085 -146.0847
900.000000 92.188 -145.2796
912.000000 92.274 -144.6703
925.000000 92.376 -144.0240
938.000000 92.486 -143.3412
950.000000 92.586 -142.6854
962.000000 92.684 -142.0570
975.000000 92.794 -141.3902
988.000000 92.906 -140.7137
1000.000000 93.013 -140.1050
1015.000000 93.145 -139.4132
1030.000000 93.278 -138.7970
1044.000000 93.405 -138.2568
1060.000000 93.555 -137.6727
1075.000000 93.697 -137.1685
1090.000000 93.839 -136.7137
1106.000000 93.993 -136.2819
1120.000000 94.130 -135.9300
1138.000000 94.306 -135.4879
1150.000000 94.420 -135.2087
1172.000000 94.628 -134.7571
1180.000000 94.703 -134.6092
1206.000000 94.945 -134.1778
1220.000000 95.075 -133.9744
1241.000000 95.269 -133.6975
1250.000000 95.354 -133.5893
1265.000000 95.497 -133.4256
1280.000000 95.643 -133.2834
1315.000000 95.989 -133.0111
1320.000000 96.039 -132.9752
1340.000000 96.236 -132.8357
1360.000000 96.434 -132.7091
1380.000000 96.634 -132.6070
1400.000000 96.836 -132.5290
1430.000000 97.144 -132.4555
1450.000000 97.351 -132.4430
1475.000000 97.613 -132.4796
1500.000000 97.879 -132.5779
1525.000000 98.150 -132.7303
1550.000000 98.425 -132.9387
1575.000000 98.705 -133.2236
1600.000000 98.990 -133.5968
1625.000000 99.279 -134.0553
1650.000000 99.570 -134.6000
1675.000000 99.862 -135.2440
1700.000000 100.155 -135.9982
1725.000000 100.445 -136.8691
1750.000000 100.731 -137.8578
1775.000000 101.012 -138.9677
1800.000000 101.285 -140.1995
1825.000000 101.548 -141.5517
1850.000000 101.799 -143.0215
1875.000000 102.036 -144.6063
1900.000000 102.256 -146.2986
1925.000000 102.459 -148.0879
1950.000000 102.642 -149.9618
1975.000000 102.804 -151.9055
2000.000000 102.943 -153.9037
2030.000000 103.079 -156.3491
2060.000000 103.181 -158.8157
2090.000000 103.247 -161.2708
2120.000000 103.281 -163.6811
2140.000000 103.285 -165.2484
2180.000000 103.255 -168.2557
2200.000000 103.222 -169.6835
2240.000000 103.125 -172.3662
2270.000000 103.031 -174.2129
2300.000000 102.921 -175.9124
2330.000000 102.801 -177.4620
2360.000000 102.673 -178.8615
2400.000000 102.494 179.4956
2430.000000 102.359 178.4172
2470.000000 102.181 177.1668
2500.000000 102.051 176.3608
2540.000000 101.885 175.4476
2580.000000 101.729 174.6967
2620.000000 101.584 174.0853
2650.000000 101.483 173.7068
2690.000000 101.360 173.2950
2720.000000 101.278 173.0470
2760.000000 101.180 172.7852
2800.000000 101.097 172.5865
2850.000000 101.014 172.4034
2900.000000 100.954 172.2735
2950.000000 100.914 172.1816
3000.000000 100.898 172.1140
3040.000000 100.904 172.0581
3070.000000 100.922 171.9935
3110.000000 100.961 171.8453
3150.000000 101.015 171.5948
3200.000000 101.095 171.1092
3250.000000 101.182 170.4257
3300.000000 101.268 169.5538
3350.000000 101.349 168.5085
3400.000000 101.421 167.2956
3450.000000 101.481 165.9187
3500.000000 101.524 164.3834
3550.000000 101.544 162.6993
3600.000000 101.537 160.8847
3650.000000 101.495 158.9719
3700.000000 101.415 157.0021
3750.000000 101.293 155.0219
3820.000000 101.049 152.3434
3870.000000 100.823 150.5859
3950.000000 100.382 148.2110
4000.000000 100.067 147.0791
4060.000000 99.661 146.1454
4120.000000 99.244 145.7093
4180.000000 98.841 145.7751
4250.000000 98.414 146.4488
4310.000000 98.110 147.4604
4370.000000 97.886 148.7460
4440.000000 97.745 150.3437
4500.000000 97.735 151.5140
4550.000000 97.796 152.1372
4620.000000 97.949 152.1794
4680.000000 98.089 151.2992
4750.000000 98.184 149.2567
4820.000000 98.136 146.4469
4870.000000 97.992 144.2540
4940.000000 97.634 141.3348
5000.000000 97.205 139.2750
5080.000000 96.514 137.4687
5150.000000 95.856 136.8529
5220.000000 95.195 137.0796
5300.000000 94.476 138.2000
5380.000000 93.821 140.0240
5450.000000 93.308 142.0410
5520.000000 92.852 144.3423
5600.000000 92.399 147.2205
5700.000000 91.927 151.0627
5800.000000 91.550 155.0649
5900.000000 91.257 159.1441
6000.000000 91.039 163.2400
6080.000000 90.914 166.5046
6150.000000 90.837 169.3513
6220.000000 90.789 172.2002
6300.000000 90.773 175.4771
6400.000000 90.818 179.6167
6500.000000 90.942 -176.2140
6600.000000 91.149 -172.0687
6700.000000 91.442 -168.0264
6800.000000 91.825 -164.1707
6900.000000 92.300 -160.5799
7000.000000 92.871 -157.3401
7100.000000 93.543 -154.5684
7200.000000 94.318 -152.4191
7300.000000 95.196 -151.0884
7400.000000 96.166 -150.8272
7500.000000 97.199 -151.9321
7620.000000 98.439 -155.4470
7750.000000 99.619 -162.1758
7880.000000 100.412 -171.5752
8000.000000 100.638 178.3875
8120.000000 100.329 168.4039
8250.000000 99.473 159.1083
8380.000000 98.251 152.3428
8500.000000 96.977 148.5543
8620.000000 95.699 146.8867
8750.000000 94.412 146.9719
8850.000000 93.523 148.0223
9000.000000 92.374 150.6621
9120.000000 91.609 153.3579
9250.000000 90.921 156.5938
9380.000000 90.365 159.9741
9500.000000 89.956 163.1021
9620.000000 89.637 166.1441
9750.000000 89.385 169.2481
9880.000000 89.221 172.0522
10000.000000 89.142 174.2827
10150.000000 89.124 176.4557
10300.000000 89.166 177.8153
10440.000000 89.224 178.2823
10600.000000 89.269 177.8659
10750.000000 89.251 176.6029
10900.000000 89.135 174.5964
11060.000000 88.864 171.8437
11200.000000 88.471 169.1767
11380.000000 87.731 165.8972
11500.000000 87.094 164.1179
11720.000000 85.682 162.2939
11800.000000 85.108 162.2055
12060.000000 83.115 164.5183
12200.000000 82.032 167.5939
12410.000000 80.529 174.5326
12500.000000 79.966 178.2444
12650.000000 79.174 -174.8480
12800.000000 78.592 -167.4479
13150.000000 77.982 -150.9341
13200.000000 77.960 -148.8121
13400.000000 77.980 -141.0359
13600.000000 78.120 -134.4073
13800.000000 78.326 -128.8828
14000.000000 78.553 -124.3228
14300.000000 78.885 -118.8704
14500.000000 79.091 -115.9764
14750.000000 79.334 -113.1372
15000.000000 79.587 -111.1133
15250.000000 79.899 -110.3729
15500.000000 80.140 -112.1141
15750.000000 79.996 -115.8985
16000.000000 79.386 -119.8651
16250.000000 78.399 -123.0405
16500.000000 77.111 -125.0086
16750.000000 75.598 -125.3991
17000.000000 73.944 -123.9589
17250.000000 72.233 -120.6913
17500.000000 70.532 -115.6943
17750.000000 68.900 -108.8291
18000.000000 67.412 -99.7829
18250.000000 66.209 -88.6129
18500.000000 65.464 -76.5900
18750.000000 65.216 -66.0452
19000.000000 65.284 -58.5706
19250.000000 65.400 -54.1887
19500.000000 65.355 -52.0356
19750.000000 65.045 -51.1327
20000.000000 64.448 -50.9335
20300.000000 63.343 -51.7667
20600.000000 61.738 -54.2217
20900.000000 59.525 -58.3880
21200.000000 56.636 -63.6839
21400.000000 54.352 -67.1986
21800.000000 49.219 -72.0355
22000.000000 46.665 -71.8365
22400.000000 42.895 -50.0497
22700.000000 42.322 15.2839
23000.000000 43.796 29.0317
23300.000000 46.403 22.2047
23600.000000 48.994 19.7690
24000.000000 50.944 17.5021
