* Measurement data measured by REW V5.30.9
* Source: Headset (JA3 HIFI AUDIO(CX31993)), MICROPHONE (Master Volume), L, volume: 0.250
* Format: 512k Log Swept Sine, 1 sweep at -13.0 dBFS with no timing reference
* Dated: Feb 24, 2024 2:05:07 PM
* REW Settings:
*  C-weighting compensation: Off
*  Target level: 75.0 dB
* Note: ; 
* Measurement: Kiwi Ears Quintet L
* Smoothing: 1/12 octave
* Frequency Step: 1/48 octave
* Start Frequency: 1.000 Hz
*
* Freq(Hz) SPL(dB) Phase(degrees)
1.000000 66.550 74.1062
1.015000 66.914 73.7705
1.030000 67.269 73.3857
1.044000 67.591 72.9828
1.060000 67.948 72.4716
1.075000 68.270 71.9456
1.090000 68.580 71.3793
1.106000 68.899 70.7411
1.120000 69.169 70.1646
1.138000 69.506 69.4109
1.150000 69.726 68.9044
1.172000 70.118 67.9721
1.180000 70.257 67.6323
1.206000 70.700 66.5267
1.220000 70.931 65.9308
1.241000 71.271 65.0364
1.250000 71.414 64.6528
1.265000 71.648 64.0130
1.280000 71.879 63.3723
1.315000 72.402 61.8718
1.320000 72.475 61.6567
1.340000 72.765 60.7929
1.360000 73.050 59.9237
1.380000 73.330 59.0475
1.400000 73.608 58.1629
1.430000 74.018 56.8181
1.450000 74.288 55.9093
1.475000 74.620 54.7628
1.500000 74.945 53.6120
1.525000 75.262 52.4635
1.550000 75.570 51.3206
1.575000 75.870 50.1843
1.600000 76.162 49.0547
1.625000 76.447 47.9311
1.650000 76.726 46.8126
1.675000 76.998 45.6977
1.700000 77.265 44.5849
1.725000 77.527 43.4724
1.750000 77.784 42.3582
1.775000 78.038 41.2402
1.800000 78.288 40.1162
1.825000 78.534 38.9845
1.850000 78.776 37.8443
1.875000 79.013 36.6968
1.900000 79.245 35.5449
1.925000 79.471 34.3921
1.950000 79.693 33.2419
1.975000 79.909 32.0971
2.000000 80.121 30.9598
2.030000 80.371 29.6076
2.060000 80.614 28.2706
2.090000 80.853 26.9501
2.120000 81.087 25.6459
2.140000 81.240 24.7849
2.180000 81.542 23.0797
2.200000 81.690 22.2328
2.240000 81.979 20.5432
2.270000 82.190 19.2778
2.300000 82.396 18.0156
2.330000 82.597 16.7599
2.360000 82.793 15.5138
2.400000 83.048 13.8725
2.430000 83.235 12.6596
2.470000 83.478 11.0695
2.500000 83.657 9.8981
2.540000 83.890 8.3626
2.580000 84.118 6.8506
2.620000 84.340 5.3530
2.650000 84.502 4.2366
2.690000 84.712 2.7586
2.720000 84.866 1.6601
2.760000 85.066 0.2128
2.800000 85.261 -1.2106
2.850000 85.500 -2.9513
2.900000 85.732 -4.6470
2.950000 85.958 -6.3033
3.000000 86.177 -7.9307
3.040000 86.348 -9.2157
3.070000 86.473 -10.1694
3.110000 86.637 -11.4263
3.150000 86.798 -12.6642
3.200000 86.994 -14.1818
3.250000 87.186 -15.6643
3.300000 87.375 -17.1127
3.350000 87.559 -18.5317
3.400000 87.740 -19.9262
3.450000 87.916 -21.2980
3.500000 88.088 -22.6472
3.550000 88.258 -23.9729
3.600000 88.424 -25.2746
3.650000 88.588 -26.5528
3.700000 88.750 -27.8095
3.750000 88.909 -29.0469
3.820000 89.126 -30.7496
3.870000 89.279 -31.9456
3.950000 89.518 -33.8255
4.000000 89.665 -34.9804
4.060000 89.837 -36.3483
4.120000 90.007 -37.6984
4.180000 90.174 -39.0315
4.250000 90.364 -40.5648
4.310000 90.523 -41.8597
4.370000 90.678 -43.1377
4.440000 90.856 -44.6101
4.500000 91.004 -45.8582
4.550000 91.125 -46.8880
4.620000 91.290 -48.3111
4.680000 91.427 -49.5114
4.750000 91.583 -50.8881
4.820000 91.734 -52.2418
4.870000 91.839 -53.1959
4.940000 91.982 -54.5126
5.000000 92.101 -55.6206
5.080000 92.256 -57.0636
5.150000 92.386 -58.2930
5.220000 92.513 -59.4934
5.300000 92.653 -60.8314
5.380000 92.790 -62.1312
5.450000 92.907 -63.2344
5.520000 93.022 -64.3049
5.600000 93.152 -65.4900
5.700000 93.311 -66.9193
5.800000 93.470 -68.2959
5.900000 93.629 -69.6222
6.000000 93.788 -70.9023
6.080000 93.917 -71.9001
6.150000 94.031 -72.7597
6.220000 94.145 -73.6099
6.300000 94.277 -74.5722
6.400000 94.445 -75.7648
6.500000 94.613 -76.9559
6.600000 94.782 -78.1561
6.700000 94.950 -79.3696
6.800000 95.117 -80.5979
6.900000 95.282 -81.8439
7.000000 95.442 -83.1107
7.100000 95.597 -84.3978
7.200000 95.746 -85.6999
7.300000 95.888 -87.0122
7.400000 96.021 -88.3316
7.500000 96.146 -89.6537
7.620000 96.284 -91.2307
7.750000 96.419 -92.9125
7.880000 96.538 -94.5563
8.000000 96.636 -96.0258
8.120000 96.723 -97.4367
8.250000 96.806 -98.8927
8.380000 96.882 -100.2668
8.500000 96.945 -101.4573
8.620000 97.006 -102.5743
8.750000 97.070 -103.7063
8.850000 97.120 -104.5257
9.000000 97.198 -105.6811
9.120000 97.264 -106.5546
9.250000 97.339 -107.4634
9.380000 97.419 -108.3454
9.500000 97.496 -109.1479
9.620000 97.576 -109.9490
9.750000 97.662 -110.8226
9.880000 97.746 -111.7092
10.000000 97.819 -112.5431
10.150000 97.902 -113.6077
10.300000 97.977 -114.6961
10.440000 98.039 -115.7302
10.600000 98.101 -116.9267
10.750000 98.151 -118.0548
10.900000 98.194 -119.1812
11.060000 98.231 -120.3711
11.200000 98.256 -121.3953
11.380000 98.280 -122.6784
11.500000 98.290 -123.5075
11.720000 98.300 -124.9613
11.800000 98.302 -125.4662
12.060000 98.301 -127.0116
12.200000 98.301 -127.7813
12.410000 98.306 -128.8571
12.500000 98.312 -129.2918
12.650000 98.328 -129.9866
12.800000 98.353 -130.6529
13.150000 98.438 -132.1606
13.200000 98.453 -132.3774
13.400000 98.518 -133.2642
13.600000 98.588 -134.1971
13.800000 98.659 -135.1864
14.000000 98.725 -136.2299
14.300000 98.808 -137.8645
14.500000 98.850 -138.9659
14.750000 98.886 -140.3092
15.000000 98.907 -141.5751
15.250000 98.921 -142.7392
15.500000 98.933 -143.8022
15.750000 98.950 -144.7847
16.000000 98.973 -145.7160
16.250000 99.001 -146.6198
16.500000 99.029 -147.5046
16.750000 99.056 -148.3620
17.000000 99.080 -149.1754
17.250000 99.104 -149.9333
17.500000 99.134 -150.6429
17.750000 99.175 -151.3357
18.000000 99.226 -152.0616
18.250000 99.285 -152.8730
18.500000 99.343 -153.8047
18.750000 99.388 -154.8577
19.000000 99.409 -155.9953
19.250000 99.402 -157.1490
19.500000 99.365 -158.2365
19.750000 99.306 -159.1847
20.000000 99.238 -159.9502
20.299999 99.166 -160.6343
20.600000 99.125 -161.1543
20.900000 99.121 -161.6592
21.200001 99.144 -162.2832
21.400000 99.166 -162.7979
21.799999 99.196 -164.0287
22.000000 99.199 -164.6925
22.400000 99.183 -165.9696
22.700001 99.165 -166.8136
23.000000 99.158 -167.5682
23.299999 99.170 -168.2961
23.600000 99.197 -169.0668
24.000000 99.237 -170.2067
24.299999 99.258 -171.1019
24.700001 99.269 -172.2192
25.000000 99.277 -172.9395
25.400000 99.309 -173.7744
25.799999 99.374 -174.6309
26.200001 99.452 -175.6837
26.500000 99.496 -176.6176
26.900000 99.510 -177.9330
27.200001 99.484 -178.8448
27.600000 99.418 -179.8109
28.000000 99.346 179.5406
28.500000 99.283 179.0016
29.000000 99.246 178.4991
29.500000 99.207 177.9495
30.000000 99.160 177.4308
30.400000 99.129 177.0407
30.700001 99.115 176.7150
31.100000 99.103 176.1663
31.500000 99.086 175.4569
32.000000 99.036 174.4255
32.500000 98.956 173.4142
33.000000 98.868 172.5516
33.500000 98.803 171.8064
34.000000 98.772 171.0360
34.500000 98.764 170.1164
35.000000 98.755 169.0437
35.500000 98.726 167.9490
36.000000 98.682 167.0103
36.500000 98.651 166.3024
37.000000 98.656 165.7046
37.500000 98.691 164.9930
38.200001 98.719 163.6530
38.700001 98.679 162.6860
39.500000 98.550 161.7409
40.000000 98.488 161.5226
40.599998 98.458 161.2953
41.200001 98.447 160.8754
41.799999 98.424 160.2935
42.500000 98.387 159.5204
43.099998 98.352 158.7506
43.700001 98.306 157.8687
44.400002 98.229 156.8168
45.000000 98.153 156.0117
45.500000 98.093 155.4323
46.200001 98.027 154.7289
46.799999 97.985 154.1912
47.500000 97.950 153.6275
48.200001 97.931 153.1338
48.700001 97.930 152.7867
49.400002 97.940 152.2018
50.000000 97.939 151.5650
50.799999 97.900 150.6559
51.500000 97.842 149.9653
52.200001 97.785 149.3760
53.000000 97.734 148.7018
53.799999 97.691 147.9445
54.500000 97.652 147.2083
55.200001 97.602 146.4649
56.000000 97.534 145.7266
57.000000 97.459 145.0054
58.000000 97.398 144.3640
59.000000 97.341 143.7588
60.000000 97.291 143.1052
60.799999 97.247 142.4794
61.500000 97.199 141.8951
62.200001 97.149 141.3092
63.000000 97.095 140.6257
64.000000 97.029 139.7406
65.000000 96.960 138.8975
66.000000 96.893 138.1793
67.000000 96.837 137.5673
68.000000 96.787 136.9586
69.000000 96.729 136.3147
70.000000 96.659 135.6939
71.000000 96.591 135.0786
72.000000 96.521 134.4083
73.000000 96.445 133.7553
74.000000 96.373 133.1905
75.000000 96.314 132.6771
76.199997 96.254 132.0930
77.500000 96.199 131.4426
78.800003 96.136 130.7058
80.000000 96.066 129.9965
81.199997 95.990 129.2563
82.500000 95.897 128.4374
83.800003 95.797 127.7241
85.000000 95.719 127.1856
86.199997 95.660 126.6459
87.500000 95.596 125.9731
88.500000 95.537 125.4576
90.000000 95.443 124.8016
91.199997 95.378 124.3227
92.500000 95.314 123.8023
93.800003 95.252 123.3339
95.000000 95.198 122.9856
96.199997 95.148 122.6899
97.500000 95.095 122.3642
98.800003 95.041 121.9456
100.000000 94.992 121.4204
101.500000 94.936 120.5694
103.000000 94.885 119.6403
104.400002 94.834 118.9207
106.000000 94.755 118.4310
107.500000 94.642 118.1873
109.000000 94.483 117.8539
110.599998 94.288 117.1537
112.000000 94.150 116.2205
113.800003 94.084 114.8047
115.000000 94.098 114.0015
117.199997 94.149 113.3979
118.000000 94.153 113.4424
120.599998 94.067 113.6483
122.000000 93.973 113.4260
124.099998 93.855 112.6087
125.000000 93.826 112.1831
126.500000 93.805 111.5821
128.000000 93.799 111.2155
131.500000 93.736 110.6569
132.000000 93.716 110.5255
134.000000 93.617 109.8190
136.000000 93.518 108.8054
138.000000 93.394 107.6537
140.000000 93.224 107.0448
143.000000 93.056 107.5473
145.000000 93.032 107.5869
147.500000 92.994 106.8490
150.000000 92.958 105.7617
152.500000 92.954 104.7081
155.000000 92.984 103.7665
157.500000 93.006 103.0214
160.000000 92.985 102.6581
162.500000 92.892 102.5438
165.000000 92.730 102.3346
167.500000 92.560 101.8372
170.000000 92.447 101.1683
172.500000 92.393 100.4951
175.000000 92.358 99.9402
177.500000 92.322 99.4959
180.000000 92.277 99.1028
182.500000 92.220 98.7258
185.000000 92.153 98.3583
187.500000 92.087 97.9576
190.000000 92.028 97.4599
192.500000 91.977 96.8939
195.000000 91.926 96.3672
197.500000 91.866 95.9702
200.000000 91.801 95.6429
203.000000 91.732 95.0790
206.000000 91.677 94.3319
209.000000 91.636 93.6990
212.000000 91.606 93.3059
214.000000 91.589 93.0956
218.000000 91.556 92.6019
220.000000 91.538 92.2959
224.000000 91.500 91.6349
227.000000 91.471 91.1225
230.000000 91.444 90.5350
233.000000 91.398 89.9073
236.000000 91.341 89.5115
240.000000 91.304 89.2372
243.000000 91.286 88.7974
247.000000 91.228 88.1119
250.000000 91.191 87.8692
254.000000 91.167 87.7338
258.000000 91.156 87.4131
262.000000 91.151 86.8469
265.000000 91.159 86.4708
269.000000 91.165 86.0172
272.000000 91.141 85.5576
276.000000 91.093 84.7814
280.000000 91.062 84.0687
285.000000 91.038 83.3315
290.000000 91.007 82.6563
295.000000 90.967 82.1969
300.000000 90.944 81.7656
304.000000 90.925 81.2619
307.000000 90.907 80.8446
311.000000 90.879 80.3061
315.000000 90.851 79.8010
320.000000 90.819 79.2272
325.000000 90.788 78.7045
330.000000 90.759 78.2048
335.000000 90.728 77.7775
340.000000 90.687 77.4603
345.000000 90.634 77.2611
350.000000 90.593 77.1245
355.000000 90.602 76.6760
360.000000 90.646 75.8847
365.000000 90.679 75.1445
370.000000 90.691 74.5469
375.000000 90.693 73.9981
382.000000 90.685 73.2485
387.000000 90.672 72.7674
395.000000 90.651 72.0404
400.000000 90.644 71.5997
406.000000 90.641 71.1280
412.000000 90.640 70.7086
418.000000 90.637 70.2955
425.000000 90.635 69.7979
431.000000 90.635 69.3579
437.000000 90.636 68.9398
444.000000 90.635 68.4723
450.000000 90.629 68.1010
455.000000 90.620 67.8222
462.000000 90.601 67.4271
468.000000 90.579 67.0394
475.000000 90.552 66.5878
482.000000 90.529 66.0738
487.000000 90.523 65.6378
494.000000 90.535 64.9708
500.000000 90.541 64.4645
508.000000 90.502 64.1211
515.000000 90.454 64.2255
522.000000 90.465 64.4231
530.000000 90.560 64.1028
538.000000 90.649 63.3435
545.000000 90.681 62.7778
552.000000 90.687 62.4282
560.000000 90.686 62.1522
570.000000 90.681 61.8481
580.000000 90.679 61.5284
590.000000 90.686 61.1349
600.000000 90.696 60.7297
608.000000 90.707 60.4859
615.000000 90.715 60.3249
622.000000 90.721 60.1793
630.000000 90.730 60.0203
640.000000 90.742 59.8340
650.000000 90.755 59.6462
660.000000 90.775 59.4598
670.000000 90.793 59.2775
680.000000 90.790 59.1082
690.000000 90.787 58.9291
700.000000 90.805 58.7663
710.000000 90.834 58.6235
720.000000 90.865 58.5121
730.000000 90.896 58.4413
740.000000 90.927 58.3940
750.000000 90.953 58.3514
762.000000 90.983 58.2757
775.000000 91.020 58.1607
788.000000 91.061 58.0616
800.000000 91.096 58.0158
812.000000 91.132 58.0515
825.000000 91.173 58.1776
838.000000 91.208 58.3597
850.000000 91.237 58.5319
862.000000 91.272 58.6681
875.000000 91.314 58.7608
885.000000 91.352 58.8093
900.000000 91.422 58.8990
912.000000 91.488 58.9896
925.000000 91.567 59.0699
938.000000 91.652 59.1356
950.000000 91.729 59.1983
962.000000 91.805 59.2584
975.000000 91.885 59.3256
988.000000 91.963 59.3879
1000.000000 92.034 59.4288
1015.000000 92.125 59.4636
1030.000000 92.220 59.4850
1044.000000 92.309 59.5073
1060.000000 92.409 59.5771
1075.000000 92.505 59.6802
1090.000000 92.606 59.7663
1106.000000 92.721 59.7714
1120.000000 92.827 59.7056
1138.000000 92.969 59.5856
1150.000000 93.067 59.4919
1172.000000 93.252 59.2613
1180.000000 93.319 59.1558
1206.000000 93.535 58.7188
1220.000000 93.648 58.4216
1241.000000 93.813 57.8973
1250.000000 93.882 57.6434
1265.000000 93.994 57.1904
1280.000000 94.101 56.7147
1315.000000 94.330 55.6039
1320.000000 94.361 55.4512
1340.000000 94.480 54.8519
1360.000000 94.592 54.2578
1380.000000 94.697 53.6678
1400.000000 94.795 53.0933
1430.000000 94.934 52.2537
1450.000000 95.021 51.7208
1475.000000 95.123 51.1076
1500.000000 95.223 50.5342
1525.000000 95.322 49.9947
1550.000000 95.420 49.4891
1575.000000 95.518 49.0139
1600.000000 95.618 48.5646
1625.000000 95.719 48.1361
1650.000000 95.822 47.7272
1675.000000 95.926 47.3335
1700.000000 96.031 46.9499
1725.000000 96.137 46.5745
1750.000000 96.244 46.2084
1775.000000 96.352 45.8474
1800.000000 96.461 45.4859
1825.000000 96.572 45.1243
1850.000000 96.686 44.7602
1875.000000 96.802 44.3926
1900.000000 96.920 44.0195
1925.000000 97.039 43.6368
1950.000000 97.161 43.2430
1975.000000 97.285 42.8347
2000.000000 97.411 42.4085
2030.000000 97.566 41.8709
2060.000000 97.722 41.3042
2090.000000 97.880 40.7071
2120.000000 98.039 40.0745
2140.000000 98.145 39.6313
2180.000000 98.358 38.6885
2200.000000 98.465 38.1869
2240.000000 98.675 37.1220
2270.000000 98.831 36.2670
2300.000000 98.985 35.3621
2330.000000 99.135 34.4061
2360.000000 99.283 33.3974
2400.000000 99.474 31.9698
2430.000000 99.610 30.8414
2470.000000 99.781 29.2646
2500.000000 99.900 28.0292
2540.000000 100.044 26.3206
2580.000000 100.170 24.5488
2620.000000 100.277 22.7251
2650.000000 100.343 21.3312
2690.000000 100.412 19.4493
2720.000000 100.449 18.0305
2760.000000 100.479 16.1436
2800.000000 100.487 14.2807
2850.000000 100.467 12.0100
2900.000000 100.416 9.8325
2950.000000 100.336 7.7715
3000.000000 100.229 5.8464
3040.000000 100.128 4.4167
3070.000000 100.043 3.4138
3110.000000 99.920 2.1707
3150.000000 99.792 1.0362
3200.000000 99.625 -0.2223
3250.000000 99.457 -1.3071
3300.000000 99.292 -2.2380
3350.000000 99.132 -3.0451
3400.000000 98.976 -3.7562
3450.000000 98.822 -4.3848
3500.000000 98.668 -4.9338
3550.000000 98.516 -5.3959
3600.000000 98.365 -5.7602
3650.000000 98.218 -6.0208
3700.000000 98.076 -6.1809
3750.000000 97.941 -6.2479
3820.000000 97.769 -6.2079
3870.000000 97.659 -6.1050
3950.000000 97.508 -5.8607
4000.000000 97.425 -5.6780
4060.000000 97.336 -5.4352
4120.000000 97.258 -5.1693
4180.000000 97.192 -4.8868
4250.000000 97.134 -4.5596
4310.000000 97.100 -4.3088
4370.000000 97.079 -4.1092
4440.000000 97.067 -3.9623
4500.000000 97.064 -3.9232
4550.000000 97.065 -3.9592
4620.000000 97.068 -4.1191
4680.000000 97.067 -4.3539
4750.000000 97.057 -4.7299
4820.000000 97.034 -5.1985
4870.000000 97.008 -5.5782
4940.000000 96.953 -6.1533
5000.000000 96.889 -6.6683
5080.000000 96.776 -7.3533
5150.000000 96.650 -7.9167
5220.000000 96.501 -8.4093
5300.000000 96.305 -8.8370
5380.000000 96.087 -9.0731
5450.000000 95.885 -9.0909
5520.000000 95.677 -8.9148
5600.000000 95.441 -8.4698
5700.000000 95.163 -7.5599
5800.000000 94.920 -6.3090
5900.000000 94.725 -4.8162
6000.000000 94.584 -3.2067
6080.000000 94.509 -1.9186
6150.000000 94.468 -0.8382
6220.000000 94.445 0.1743
6300.000000 94.438 1.2362
6400.000000 94.447 2.4333
6500.000000 94.462 3.5402
6600.000000 94.478 4.6438
6700.000000 94.497 5.8342
6800.000000 94.529 7.1705
6900.000000 94.594 8.6595
7000.000000 94.709 10.2495
7100.000000 94.891 11.8307
7200.000000 95.147 13.2356
7300.000000 95.474 14.2676
7400.000000 95.859 14.7454
7500.000000 96.279 14.5308
7620.000000 96.787 13.2330
7750.000000 97.286 10.4623
7880.000000 97.644 6.2759
8000.000000 97.757 1.3412
8120.000000 97.573 -4.1005
8250.000000 96.996 -9.5349
8380.000000 96.090 -13.3109
8500.000000 95.102 -14.7438
8620.000000 94.102 -14.2845
8750.000000 93.092 -11.9767
8850.000000 92.403 -9.0131
9000.000000 91.608 -2.8132
9120.000000 91.261 3.1394
9250.000000 91.223 9.6300
9380.000000 91.506 15.2082
9500.000000 91.973 18.9728
9620.000000 92.552 21.1599
9750.000000 93.210 21.6860
9880.000000 93.804 20.4303
10000.000000 94.223 17.9891
10150.000000 94.500 13.8551
10300.000000 94.474 9.3765
10440.000000 94.202 5.6332
10600.000000 93.677 2.4996
10750.000000 93.077 0.9393
10900.000000 92.463 0.6801
11060.000000 91.868 1.5850
11200.000000 91.438 3.0942
11380.000000 91.036 5.6162
11500.000000 90.868 7.4667
11720.000000 90.779 10.8473
11800.000000 90.823 11.9652
12060.000000 91.258 14.2740
12200.000000 91.633 14.0864
12410.000000 92.200 11.2110
12500.000000 92.367 9.0413
12650.000000 92.462 4.6956
12800.000000 92.323 0.1464
13150.000000 91.379 -8.6436
13200.000000 91.206 -9.6171
13400.000000 90.479 -12.8918
13600.000000 89.747 -15.4801
13800.000000 89.024 -17.7978
14000.000000 88.282 -20.1098
14300.000000 87.030 -23.5264
14500.000000 86.053 -25.3382
14750.000000 84.679 -26.3170
15000.000000 83.237 -25.3061
15250.000000 81.874 -22.2451
15500.000000 80.732 -17.6641
15750.000000 79.898 -12.6357
16000.000000 79.345 -8.4571
16250.000000 78.947 -6.0012
16500.000000 78.560 -5.4257
16750.000000 78.066 -6.3502
17000.000000 77.374 -8.0433
17250.000000 76.445 -9.5025
17500.000000 75.328 -9.6656
17750.000000 74.177 -7.8557
18000.000000 73.206 -4.2776
18250.000000 72.597 -0.1117
18500.000000 72.406 3.0835
18750.000000 72.541 4.1559
19000.000000 72.846 2.6702
19250.000000 73.178 -1.3462
19500.000000 73.428 -7.6931
19750.000000 73.515 -16.0663
20000.000000 73.385 -26.0581
20300.000000 72.919 -39.6216
20600.000000 72.148 -54.5462
20900.000000 71.143 -70.9648
21200.000000 69.964 -89.4263
21400.000000 69.077 -103.1788
21800.000000 66.950 -134.5499
22000.000000 65.640 -152.0489
22400.000000 62.417 170.1748
22700.000000 59.536 139.9420
23000.000000 56.557 108.1044
23300.000000 54.324 74.2413
23600.000000 54.049 39.6938
24000.000000 55.038 8.2918
