* Measurement data measured by REW V5.30.9
* Source: Headset (JA3 HIFI AUDIO(CX31993)), MICROPHONE (Master Volume), L, volume: 0.680
* Format: 2M Log Swept Sine, 1 sweep at -12.0 dBFS with no timing reference
* Dated: Feb 21, 2024 4:31:29 PM
* REW Settings:
*  C-weighting compensation: Off
*  Target level: 75.0 dB
* Note: ; 
* Measurement: Lenovo buds L
* Smoothing: 1/24 octave
* Frequency Step: 1/48 octave
* Start Frequency: 1.000 Hz
*
* Freq(Hz) SPL(dB) Phase(degrees)
1.000000 28.308 130.0504
1.015000 28.402 129.3172
1.030000 28.495 128.5903
1.044000 28.580 127.9172
1.060000 28.675 127.1536
1.075000 28.761 126.4427
1.090000 28.846 125.7354
1.106000 28.935 124.9810
1.120000 29.011 124.3156
1.138000 29.108 123.4503
1.150000 29.172 122.8680
1.172000 29.287 121.7916
1.180000 29.328 121.3980
1.206000 29.460 120.1138
1.220000 29.529 119.4207
1.241000 29.632 118.3812
1.250000 29.675 117.9364
1.265000 29.746 117.1967
1.280000 29.815 116.4598
1.315000 29.972 114.7558
1.320000 29.993 114.5145
1.340000 30.078 113.5559
1.360000 30.161 112.6086
1.380000 30.241 111.6739
1.400000 30.317 110.7529
1.430000 30.427 109.3991
1.450000 30.496 108.5154
1.475000 30.578 107.4237
1.500000 30.656 106.3242
1.525000 30.729 105.2087
1.550000 30.798 104.0809
1.575000 30.864 102.9456
1.600000 30.924 101.8073
1.625000 30.981 100.6704
1.650000 31.033 99.5391
1.675000 31.081 98.4173
1.700000 31.124 97.3086
1.725000 31.163 96.2164
1.750000 31.197 95.1440
1.775000 31.227 94.0943
1.800000 31.252 93.0697
1.825000 31.272 92.0690
1.850000 31.288 91.0777
1.875000 31.299 90.0755
1.900000 31.306 89.0578
1.925000 31.309 88.0273
1.950000 31.307 86.9882
1.975000 31.300 85.9450
2.000000 31.289 84.9022
2.030000 31.270 83.6583
2.060000 31.244 82.4306
2.090000 31.211 81.2281
2.120000 31.172 80.0604
2.140000 31.142 79.3059
2.180000 31.072 77.8651
2.200000 31.033 77.1774
2.240000 30.945 75.8309
2.270000 30.871 74.8263
2.300000 30.789 73.8251
2.330000 30.702 72.8313
2.360000 30.607 71.8501
2.400000 30.470 70.5719
2.430000 30.361 69.6452
2.470000 30.204 68.4684
2.500000 30.080 67.6422
2.540000 29.904 66.6347
2.580000 29.715 65.7441
2.620000 29.509 64.9511
2.650000 29.344 64.4117
2.690000 29.111 63.7674
2.720000 28.929 63.3436
2.760000 28.679 62.8650
2.800000 28.426 62.4955
2.850000 28.108 62.2082
2.900000 27.795 62.1449
2.950000 27.484 62.3497
3.000000 27.151 62.8766
3.040000 26.869 63.5459
3.070000 26.655 64.1932
3.110000 26.376 65.2471
3.150000 26.112 66.5115
3.200000 25.822 68.3639
3.250000 25.597 70.4731
3.300000 25.452 72.7974
3.350000 25.384 75.3764
3.400000 25.378 78.2192
3.450000 25.428 81.2193
3.500000 25.529 84.2341
3.550000 25.677 87.1194
3.600000 25.866 89.7479
3.650000 26.097 92.0359
3.700000 26.380 93.9986
3.750000 26.724 95.7013
3.820000 27.291 97.6440
3.870000 27.733 98.6904
3.950000 28.454 99.7540
4.000000 28.890 100.0465
4.060000 29.389 100.0680
4.120000 29.880 99.8173
4.180000 30.371 99.3459
4.250000 30.937 98.5471
4.310000 31.410 97.6670
4.370000 31.869 96.6204
4.440000 32.383 95.2159
4.500000 32.809 93.8906
4.550000 33.153 92.7197
4.620000 33.623 90.9973
4.680000 34.014 89.4542
4.750000 34.458 87.5829
4.820000 34.888 85.6379
4.870000 35.187 84.2115
4.940000 35.593 82.1827
5.000000 35.932 80.4291
5.080000 36.369 78.0848
5.150000 36.739 76.0249
5.220000 37.098 73.9437
5.300000 37.494 71.5561
5.380000 37.874 69.1959
5.450000 38.194 67.1739
5.520000 38.503 65.1875
5.600000 38.841 62.9314
5.700000 39.243 60.1560
5.800000 39.622 57.5018
5.900000 39.979 54.9941
6.000000 40.313 52.5778
6.080000 40.564 50.7246
6.150000 40.775 49.1920
6.220000 40.977 47.7579
6.300000 41.197 46.2243
6.400000 41.456 44.4343
6.500000 41.703 42.8094
6.600000 41.943 41.3860
6.700000 42.176 40.1578
6.800000 42.403 39.0953
6.900000 42.630 38.1872
7.000000 42.864 37.4349
7.100000 43.103 36.8335
7.200000 43.348 36.3452
7.300000 43.602 35.9267
7.400000 43.866 35.5661
7.500000 44.141 35.2613
7.620000 44.477 34.9164
7.750000 44.848 34.5083
7.880000 45.222 34.0689
8.000000 45.564 33.6316
8.120000 45.894 33.1467
8.250000 46.239 32.5772
8.380000 46.566 32.0108
8.500000 46.847 31.5109
8.620000 47.109 31.0369
8.750000 47.376 30.6067
8.850000 47.571 30.3608
9.000000 47.847 30.1222
9.120000 48.064 30.0580
9.250000 48.303 30.1332
9.380000 48.549 30.3328
9.500000 48.789 30.5816
9.620000 49.050 30.8740
9.750000 49.351 31.2033
9.880000 49.667 31.4565
10.000000 49.971 31.5893
10.150000 50.360 31.5933
10.300000 50.750 31.3370
10.440000 51.109 30.8612
10.600000 51.502 30.0600
10.750000 51.841 29.0646
10.900000 52.149 27.8911
11.060000 52.433 26.5159
11.200000 52.642 25.2381
11.380000 52.858 23.6152
11.500000 52.970 22.5800
11.720000 53.118 20.8763
11.800000 53.158 20.3503
12.060000 53.251 19.0173
12.200000 53.294 18.5697
12.410000 53.371 18.2227
12.500000 53.418 18.1741
12.650000 53.516 18.2046
12.800000 53.641 18.3161
13.150000 54.029 18.6243
13.200000 54.093 18.6508
13.400000 54.365 18.6805
13.600000 54.651 18.5775
13.800000 54.944 18.3458
14.000000 55.238 18.0175
14.300000 55.679 17.3906
14.500000 55.975 16.8987
14.750000 56.351 16.1762
15.000000 56.728 15.3009
15.250000 57.094 14.2416
15.500000 57.433 13.0228
15.750000 57.731 11.7212
16.000000 57.981 10.4610
16.250000 58.189 9.3909
16.500000 58.369 8.6232
16.750000 58.547 8.2169
17.000000 58.749 8.1233
17.250000 58.994 8.2070
17.500000 59.287 8.2856
17.750000 59.613 8.1931
18.000000 59.948 7.8512
18.250000 60.268 7.2675
18.500000 60.554 6.5292
18.750000 60.801 5.7531
19.000000 61.014 5.0462
19.250000 61.203 4.4814
19.500000 61.384 4.0721
19.750000 61.568 3.7932
20.000000 61.758 3.5961
20.299999 61.993 3.4129
20.600000 62.233 3.2651
20.900000 62.477 3.1601
21.200001 62.733 3.0910
21.400000 62.915 3.0339
21.799999 63.309 2.7365
22.000000 63.512 2.4255
22.400000 63.892 1.4185
22.700001 64.118 0.4393
23.000000 64.276 -0.5028
23.299999 64.377 -1.1558
23.600000 64.455 -1.3325
24.000000 64.611 -0.8248
24.299999 64.818 -0.1746
24.700001 65.215 0.4089
25.000000 65.556 0.3352
25.400000 65.979 -0.4541
25.799999 66.310 -1.6521
26.200001 66.554 -2.7789
26.500000 66.709 -3.4171
26.900000 66.921 -4.0221
27.200001 67.093 -4.4025
27.600000 67.328 -4.9398
28.000000 67.550 -5.4939
28.500000 67.809 -6.0141
29.000000 68.092 -6.2742
29.500000 68.430 -6.5708
30.000000 68.784 -7.2128
30.400000 69.033 -7.9259
30.700001 69.191 -8.4512
31.100000 69.374 -8.9918
31.500000 69.551 -9.2918
32.000000 69.796 -9.4535
32.500000 70.066 -9.6215
33.000000 70.334 -9.9167
33.500000 70.576 -10.2695
34.000000 70.795 -10.5555
34.500000 71.008 -10.7107
35.000000 71.236 -10.7790
35.500000 71.493 -10.9169
36.000000 71.772 -11.3177
36.500000 72.041 -12.0636
37.000000 72.270 -13.0436
37.500000 72.454 -14.0310
38.200001 72.672 -15.1060
38.700001 72.834 -15.6011
39.500000 73.143 -16.0381
40.000000 73.379 -16.2439
40.599998 73.688 -16.6430
41.200001 73.976 -17.2104
41.799999 74.222 -17.6547
42.500000 74.517 -17.8521
43.099998 74.804 -18.1620
43.700001 75.055 -18.8670
44.400002 75.237 -19.6744
45.000000 75.368 -19.8707
45.500000 75.526 -19.8461
46.200001 75.815 -20.1153
46.799999 76.069 -20.7077
47.500000 76.362 -21.6006
48.200001 76.645 -22.7390
48.700001 76.804 -23.5827
49.400002 76.966 -24.2788
50.000000 77.120 -24.2280
50.799999 77.410 -23.8576
51.500000 77.674 -23.7396
52.200001 77.890 -23.7682
53.000000 78.059 -23.8587
53.799999 78.135 -23.7916
54.500000 78.178 -23.4119
55.200001 78.274 -22.9609
56.000000 78.471 -23.0275
57.000000 78.726 -24.3571
58.000000 78.956 -25.7477
59.000000 79.369 -27.0619
60.000000 79.821 -29.0012
60.799999 80.139 -30.3268
61.500000 80.391 -31.2423
62.200001 80.592 -31.7334
63.000000 80.837 -31.6505
64.000000 81.180 -32.0355
65.000000 81.317 -32.5728
66.000000 81.496 -32.3203
67.000000 81.706 -33.2747
68.000000 81.764 -34.0379
69.000000 81.983 -34.1320
70.000000 82.285 -35.2223
71.000000 82.487 -36.4496
72.000000 82.679 -36.9684
73.000000 82.920 -37.2216
74.000000 83.168 -37.5805
75.000000 83.397 -38.1186
76.199997 83.596 -38.9380
77.500000 83.779 -39.3133
78.800003 84.020 -39.6529
80.000000 84.321 -39.8194
81.199997 84.678 -41.1926
82.500000 84.786 -42.9469
83.800003 84.881 -43.1370
85.000000 85.057 -43.1875
86.199997 85.276 -43.3637
87.500000 85.506 -44.0044
88.500000 85.633 -44.4857
90.000000 85.822 -44.8020
91.199997 86.031 -44.6708
92.500000 86.396 -45.3736
93.800003 86.543 -47.2406
95.000000 86.630 -47.3274
96.199997 86.914 -47.6636
97.500000 87.163 -49.1881
98.800003 87.268 -50.4031
100.000000 87.361 -50.6846
101.500000 87.578 -50.7764
103.000000 87.829 -51.1862
104.400002 88.059 -51.6955
106.000000 88.306 -52.4843
107.500000 88.500 -53.3053
109.000000 88.674 -53.9925
110.599998 88.867 -54.6762
112.000000 89.036 -55.2354
113.800003 89.263 -55.8566
115.000000 89.413 -56.3218
117.199997 89.663 -57.1263
118.000000 89.757 -57.4192
120.599998 90.048 -58.5652
122.000000 90.192 -59.1022
124.099998 90.409 -59.9005
125.000000 90.494 -60.2773
126.500000 90.623 -60.9361
128.000000 90.747 -61.5248
131.500000 91.109 -62.4400
132.000000 91.166 -62.5530
134.000000 91.371 -63.0106
136.000000 91.537 -63.4130
138.000000 91.712 -64.0243
140.000000 91.897 -64.9652
143.000000 92.200 -66.6902
145.000000 92.371 -67.6362
147.500000 92.599 -68.2424
150.000000 92.832 -69.1745
152.500000 93.034 -70.1467
155.000000 93.234 -70.9244
157.500000 93.413 -71.5344
160.000000 93.578 -72.3202
162.500000 93.759 -73.4927
165.000000 94.035 -74.5595
167.500000 94.284 -74.8577
170.000000 94.511 -74.5457
172.500000 94.665 -75.5070
175.000000 94.730 -77.0829
177.500000 94.811 -78.2130
180.000000 94.909 -78.8486
182.500000 95.026 -79.3834
185.000000 95.172 -80.2704
187.500000 95.323 -81.1631
190.000000 95.479 -81.9295
192.500000 95.629 -82.7379
195.000000 95.770 -83.5030
197.500000 95.905 -84.1526
200.000000 96.033 -84.8117
203.000000 96.182 -85.7214
206.000000 96.332 -86.6078
209.000000 96.485 -87.3820
212.000000 96.637 -88.1979
214.000000 96.739 -88.7756
218.000000 96.942 -89.9629
220.000000 97.043 -90.5367
224.000000 97.241 -91.6198
227.000000 97.383 -92.4310
230.000000 97.524 -93.2626
233.000000 97.659 -94.0572
236.000000 97.782 -94.8223
240.000000 97.942 -95.9181
243.000000 98.068 -96.7223
247.000000 98.229 -97.8222
250.000000 98.347 -98.6541
254.000000 98.501 -99.6981
258.000000 98.645 -100.7132
262.000000 98.787 -101.7130
265.000000 98.887 -102.4551
269.000000 99.020 -103.4477
272.000000 99.121 -104.2176
276.000000 99.248 -105.2720
280.000000 99.369 -106.3100
285.000000 99.518 -107.5729
290.000000 99.661 -108.8299
295.000000 99.798 -110.0881
300.000000 99.934 -111.3279
304.000000 100.037 -112.3229
307.000000 100.111 -113.0592
311.000000 100.209 -114.0175
315.000000 100.306 -114.9816
320.000000 100.420 -116.1811
325.000000 100.525 -117.3824
330.000000 100.624 -118.5996
335.000000 100.726 -119.8214
340.000000 100.823 -121.0167
345.000000 100.912 -122.1808
350.000000 100.997 -123.3786
355.000000 101.077 -124.5735
360.000000 101.154 -125.7508
365.000000 101.225 -126.8863
370.000000 101.291 -128.0277
375.000000 101.353 -129.1916
382.000000 101.430 -130.8004
387.000000 101.477 -131.9025
395.000000 101.545 -133.6330
400.000000 101.584 -134.7160
406.000000 101.628 -135.9770
412.000000 101.669 -137.2012
418.000000 101.706 -138.4351
425.000000 101.745 -139.8648
431.000000 101.771 -141.0880
437.000000 101.791 -142.3036
444.000000 101.811 -143.7125
450.000000 101.824 -144.8797
455.000000 101.832 -145.8314
462.000000 101.835 -147.1514
468.000000 101.832 -148.2428
475.000000 101.821 -149.5107
482.000000 101.805 -150.7813
487.000000 101.792 -151.6746
494.000000 101.768 -152.8865
500.000000 101.743 -153.8734
508.000000 101.705 -155.1811
515.000000 101.671 -156.3304
522.000000 101.638 -157.4354
530.000000 101.593 -158.6685
538.000000 101.539 -159.8852
545.000000 101.489 -160.9230
552.000000 101.437 -161.9443
560.000000 101.371 -163.1304
570.000000 101.259 -164.7774
580.000000 101.054 -166.4528
590.000000 100.815 -166.9234
600.000000 100.746 -167.0498
608.000000 100.721 -167.7153
615.000000 100.677 -168.4162
622.000000 100.615 -169.1168
630.000000 100.527 -169.9112
640.000000 100.383 -170.9114
650.000000 100.197 -171.7253
660.000000 100.010 -171.8550
670.000000 99.954 -171.4519
680.000000 99.969 -171.9965
690.000000 99.905 -173.0632
700.000000 99.791 -173.9297
710.000000 99.665 -174.5976
720.000000 99.536 -175.1468
730.000000 99.403 -175.5689
740.000000 99.271 -175.8901
750.000000 99.142 -176.1476
762.000000 98.988 -176.4210
775.000000 98.826 -176.6339
788.000000 98.665 -176.7926
800.000000 98.511 -176.8477
812.000000 98.360 -176.7974
825.000000 98.201 -176.6079
838.000000 98.048 -176.3046
850.000000 97.919 -176.0142
862.000000 97.797 -175.7155
875.000000 97.679 -175.3628
885.000000 97.594 -175.0914
900.000000 97.470 -174.6213
912.000000 97.378 -174.2001
925.000000 97.288 -173.6718
938.000000 97.213 -173.0019
950.000000 97.158 -172.3319
962.000000 97.114 -171.6891
975.000000 97.068 -171.0186
988.000000 97.028 -170.3823
1000.000000 97.008 -169.8062
1015.000000 96.998 -169.0440
1030.000000 96.996 -168.3017
1044.000000 97.003 -167.6569
1060.000000 97.033 -166.9345
1075.000000 97.084 -166.2673
1090.000000 97.144 -165.6512
1106.000000 97.215 -165.0999
1120.000000 97.287 -164.7187
1138.000000 97.385 -164.3571
1150.000000 97.459 -164.1748
1172.000000 97.617 -163.9388
1180.000000 97.676 -163.8966
1206.000000 97.858 -164.0004
1220.000000 97.956 -164.2189
1241.000000 98.100 -164.7362
1250.000000 98.159 -165.0161
1265.000000 98.257 -165.5458
1280.000000 98.353 -166.1118
1315.000000 98.541 -167.5936
1320.000000 98.562 -167.8375
1340.000000 98.636 -168.8900
1360.000000 98.689 -170.0418
1380.000000 98.724 -171.2200
1400.000000 98.745 -172.3381
1430.000000 98.740 -174.0032
1450.000000 98.714 -175.1280
1475.000000 98.658 -176.5294
1500.000000 98.577 -177.8986
1525.000000 98.484 -179.1005
1550.000000 98.377 179.8187
1575.000000 98.252 178.7787
1600.000000 98.120 177.7872
1625.000000 97.978 176.8309
1650.000000 97.824 175.9896
1675.000000 97.674 175.3717
1700.000000 97.521 174.8862
1725.000000 97.362 174.4463
1750.000000 97.200 174.0486
1775.000000 97.035 173.6873
1800.000000 96.868 173.3742
1825.000000 96.704 173.1539
1850.000000 96.541 173.0678
1875.000000 96.379 173.0577
1900.000000 96.223 173.0829
1925.000000 96.071 173.1330
1950.000000 95.921 173.1994
1975.000000 95.773 173.3495
2000.000000 95.635 173.6346
2030.000000 95.481 174.0522
2060.000000 95.332 174.4232
2090.000000 95.184 174.7310
2120.000000 95.026 174.9922
2140.000000 94.918 175.2140
2180.000000 94.722 175.8647
2200.000000 94.628 176.2925
2240.000000 94.456 177.2126
2270.000000 94.332 177.7301
2300.000000 94.210 178.2211
2330.000000 94.096 178.7695
2360.000000 93.982 179.4030
2400.000000 93.846 -179.5708
2430.000000 93.748 -178.7147
2470.000000 93.625 -177.6220
2500.000000 93.539 -176.8140
2540.000000 93.445 -175.7679
2580.000000 93.362 -174.7230
2620.000000 93.294 -173.4152
2650.000000 93.254 -172.3720
2690.000000 93.204 -171.0527
2720.000000 93.171 -170.0796
2760.000000 93.143 -168.7988
2800.000000 93.127 -167.5683
2850.000000 93.124 -165.9131
2900.000000 93.157 -164.0531
2950.000000 93.220 -162.2652
3000.000000 93.313 -160.6142
3040.000000 93.408 -159.4345
3070.000000 93.485 -158.6412
3110.000000 93.600 -157.5971
3150.000000 93.729 -156.4818
3200.000000 93.901 -155.2036
3250.000000 94.085 -154.1235
3300.000000 94.282 -153.0224
3350.000000 94.499 -151.7907
3400.000000 94.735 -150.8158
3450.000000 94.985 -150.2078
3500.000000 95.247 -149.9139
3550.000000 95.500 -149.9687
3600.000000 95.733 -150.2947
3650.000000 95.946 -150.8850
3700.000000 96.137 -151.6120
3750.000000 96.313 -152.1986
3820.000000 96.525 -152.9851
3870.000000 96.653 -153.7535
3950.000000 96.835 -155.1969
4000.000000 96.928 -156.2032
4060.000000 97.014 -157.3362
4120.000000 97.096 -158.1407
4180.000000 97.182 -158.8293
4250.000000 97.281 -159.7812
4310.000000 97.361 -160.5977
4370.000000 97.439 -161.1677
4440.000000 97.524 -161.7221
4500.000000 97.597 -162.3401
4550.000000 97.667 -162.9341
4620.000000 97.777 -163.9907
4680.000000 97.878 -165.1352
4750.000000 98.002 -166.7306
4820.000000 98.115 -168.7584
4870.000000 98.189 -170.2556
4940.000000 98.280 -172.2221
5000.000000 98.330 -174.0347
5080.000000 98.342 -176.9079
5150.000000 98.307 -179.6393
5220.000000 98.237 177.7729
5300.000000 98.100 174.9318
5380.000000 97.876 171.9807
5450.000000 97.620 169.4418
5520.000000 97.314 166.9852
5600.000000 96.911 164.3407
5700.000000 96.354 161.5748
5800.000000 95.743 159.3641
5900.000000 95.129 158.1734
6000.000000 94.516 157.6718
6080.000000 94.047 157.4550
6150.000000 93.725 157.4662
6220.000000 93.578 157.7947
6300.000000 93.660 158.5959
6400.000000 93.908 159.8274
6500.000000 93.979 161.1924
6600.000000 93.824 162.7292
6700.000000 93.618 164.3596
6800.000000 93.447 166.0610
6900.000000 93.312 167.5419
7000.000000 93.199 169.0578
7100.000000 93.066 170.6650
7200.000000 92.876 171.9933
7300.000000 92.585 172.7321
7400.000000 92.132 172.7725
7500.000000 91.455 172.1204
7620.000000 90.277 169.3972
7750.000000 88.490 161.6930
7880.000000 86.176 144.8221
8000.000000 83.621 115.9277
8120.000000 81.820 103.4696
8250.000000 79.693 92.5746
8380.000000 76.225 78.7264
8500.000000 71.175 66.1769
8620.000000 64.413 54.8911
8750.000000 55.823 43.5931
8850.000000 49.539 26.7253
9000.000000 45.446 16.9086
9120.000000 45.208 56.4122
9250.000000 45.306 93.4489
9380.000000 45.307 63.5820
9500.000000 44.994 37.6148
9620.000000 44.755 99.8000
9750.000000 44.860 176.8800
9880.000000 45.223 -179.1950
10000.000000 45.505 -178.0672
10150.000000 45.316 145.6034
10300.000000 45.050 85.3066
10440.000000 44.870 62.4495
10600.000000 44.719 41.8498
10750.000000 44.424 40.9746
10900.000000 43.949 118.3167
11060.000000 43.463 152.2819
11200.000000 42.942 131.9902
11380.000000 41.562 176.6580
11500.000000 40.137 -138.1403
11720.000000 38.731 -118.1614
11800.000000 38.606 -93.9994
12060.000000 38.249 -132.1752
12200.000000 38.238 -148.0128
12410.000000 38.372 -157.6517
12500.000000 38.493 -142.7383
12650.000000 38.688 156.3226
12800.000000 38.853 56.7036
13150.000000 39.126 14.0966
13200.000000 39.092 17.1191
13400.000000 38.875 12.8295
13600.000000 38.670 -112.3365
13800.000000 38.897 -131.9675
14000.000000 39.290 171.8571
14300.000000 39.063 154.1785
14500.000000 38.895 151.2539
14750.000000 38.768 130.3943
15000.000000 39.005 -143.8024
15250.000000 39.126 -110.7859
15500.000000 39.187 -54.9724
15750.000000 39.454 -53.0615
16000.000000 39.553 -103.3395
16250.000000 39.366 133.8157
16500.000000 39.094 -57.5504
16750.000000 38.782 -86.2285
17000.000000 38.877 -122.2823
17250.000000 39.054 -157.0757
17500.000000 39.320 -43.4586
17750.000000 39.589 -54.0468
18000.000000 39.370 -40.0176
18250.000000 38.820 75.8775
18500.000000 38.449 86.9977
18750.000000 38.175 103.3200
19000.000000 38.208 97.3875
19250.000000 38.284 100.8996
19500.000000 38.217 107.5046
19750.000000 38.329 -114.9611
20000.000000 38.376 -112.0577
20300.000000 38.281 -127.7067
20600.000000 38.246 -151.9766
20900.000000 38.149 124.0338
21200.000000 37.983 87.1424
21400.000000 37.990 77.3542
21800.000000 38.093 15.4063
22000.000000 38.140 -17.1324
