* Measurement data measured by REW V5.30.2
* Source: Headset (JA3 HIFI AUDIO(CX31993)), no input selected, L, volume: no control
* Format: 512k Log Swept Sine, 1 sweep at -12.0 dBFS with no timing reference
* Dated: Feb 15, 2024 6:07:29 PM
* REW Settings:
*  C-weighting compensation: Off
*  Target level: 75.0 dB
* Note: ; 
* Measurement: Simgot EA500LM Gold L
* Smoothing: None
* Frequency Step: 1/48 octave
* Start Frequency: 1.000 Hz
*
* Freq(Hz) SPL(dB) Phase(degrees)
1.000000 53.839 55.0796
1.015000 54.128 53.9126
1.030000 54.413 52.7668
1.044000 54.675 51.7149
1.060000 54.969 50.5321
1.075000 55.238 49.4401
1.090000 55.499 48.3629
1.106000 55.771 47.2321
1.120000 56.006 46.2766
1.138000 56.307 45.0977
1.150000 56.506 44.3411
1.172000 56.868 43.0111
1.180000 56.999 42.5448
1.206000 57.422 41.0879
1.220000 57.647 40.3378
1.241000 57.983 39.2533
1.250000 58.126 38.8022
1.265000 58.362 38.0670
1.280000 58.597 37.3508
1.315000 59.137 35.7421
1.320000 59.213 35.5182
1.340000 59.517 34.6349
1.360000 59.816 33.7670
1.380000 60.112 32.9096
1.400000 60.405 32.0579
1.430000 60.836 30.7803
1.450000 61.119 29.9214
1.475000 61.467 28.8363
1.500000 61.808 27.7765
1.525000 62.143 26.7497
1.550000 62.472 25.7531
1.575000 62.794 24.7838
1.600000 63.112 23.8389
1.625000 63.423 22.9156
1.650000 63.730 22.0110
1.675000 64.031 21.1223
1.700000 64.329 20.2466
1.725000 64.622 19.3811
1.750000 64.910 18.5229
1.775000 65.196 17.6691
1.800000 65.477 16.8170
1.825000 65.756 15.9635
1.850000 66.031 15.1114
1.875000 66.301 14.2715
1.900000 66.566 13.4433
1.925000 66.827 12.6262
1.950000 67.083 11.8192
1.975000 67.335 11.0214
2.000000 67.583 10.2320
2.030000 67.875 9.2946
2.060000 68.163 8.3666
2.090000 68.445 7.4463
2.120000 68.724 6.5324
2.140000 68.907 5.9259
2.180000 69.269 4.7176
2.200000 69.447 4.1149
2.240000 69.798 2.9188
2.270000 70.054 2.0315
2.300000 70.306 1.1520
2.330000 70.553 0.2799
2.360000 70.796 -0.5853
2.400000 71.113 -1.7290
2.430000 71.346 -2.5799
2.470000 71.651 -3.7062
2.500000 71.875 -4.5454
2.540000 72.170 -5.6577
2.580000 72.460 -6.7633
2.620000 72.743 -7.8597
2.650000 72.950 -8.6757
2.690000 73.221 -9.7555
2.720000 73.420 -10.5593
2.760000 73.680 -11.6232
2.800000 73.934 -12.6785
2.850000 74.245 -13.9858
2.900000 74.548 -15.2804
2.950000 74.845 -16.5628
3.000000 75.132 -17.8326
3.040000 75.356 -18.8392
3.070000 75.521 -19.5887
3.110000 75.736 -20.5806
3.150000 75.946 -21.5640
3.200000 76.203 -22.7812
3.250000 76.454 -23.9846
3.300000 76.699 -25.1742
3.350000 76.937 -26.3507
3.400000 77.168 -27.5142
3.450000 77.393 -28.6644
3.500000 77.611 -29.8007
3.550000 77.824 -30.9226
3.600000 78.031 -32.0296
3.650000 78.234 -33.1213
3.700000 78.432 -34.1979
3.750000 78.624 -35.2602
3.820000 78.883 -36.7231
3.870000 79.062 -37.7501
3.950000 79.340 -39.3609
4.000000 79.509 -40.3468
4.060000 79.707 -41.5083
4.120000 79.898 -42.6468
4.180000 80.083 -43.7624
4.250000 80.292 -45.0355
4.310000 80.466 -46.1026
4.370000 80.636 -47.1476
4.440000 80.831 -48.3382
4.500000 80.992 -49.3324
4.550000 81.123 -50.1436
4.620000 81.303 -51.2546
4.680000 81.453 -52.1860
4.750000 81.626 -53.2507
4.820000 81.796 -54.2898
4.870000 81.915 -55.0136
4.940000 82.078 -56.0047
5.000000 82.215 -56.8370
5.080000 82.396 -57.9280
5.150000 82.553 -58.8692
5.220000 82.707 -59.7902
5.300000 82.880 -60.8199
5.380000 83.051 -61.8330
5.450000 83.199 -62.7123
5.520000 83.344 -63.5895
5.600000 83.509 -64.5810
5.700000 83.711 -65.8065
5.800000 83.909 -67.0260
5.900000 84.102 -68.2484
6.000000 84.290 -69.4704
6.080000 84.437 -70.4463
6.150000 84.562 -71.2989
6.220000 84.683 -72.1500
6.300000 84.818 -73.1236
6.400000 84.981 -74.3417
6.500000 85.136 -75.5520
6.600000 85.284 -76.7450
6.700000 85.423 -77.9265
6.800000 85.555 -79.0953
6.900000 85.680 -80.2383
7.000000 85.798 -81.3448
7.100000 85.908 -82.4234
7.200000 86.012 -83.4698
7.300000 86.112 -84.4751
7.400000 86.208 -85.4334
7.500000 86.299 -86.3491
7.620000 86.405 -87.3951
7.750000 86.520 -88.4643
7.880000 86.634 -89.4586
8.000000 86.740 -90.3323
8.120000 86.851 -91.1813
8.250000 86.974 -92.0566
8.380000 87.101 -92.9201
8.500000 87.221 -93.7314
8.620000 87.346 -94.5421
8.750000 87.481 -95.4419
8.850000 87.584 -96.1638
9.000000 87.740 -97.2844
9.120000 87.861 -98.2116
9.250000 87.984 -99.2516
9.380000 88.102 -100.3281
9.500000 88.202 -101.3312
9.620000 88.293 -102.3380
9.750000 88.382 -103.4392
9.880000 88.460 -104.5137
10.000000 88.523 -105.4734
10.150000 88.590 -106.6352
10.300000 88.649 -107.7129
10.440000 88.695 -108.6419
10.600000 88.744 -109.6135
10.750000 88.791 -110.4242
10.900000 88.839 -111.1501
11.060000 88.899 -111.8656
11.200000 88.959 -112.4310
11.380000 89.046 -113.1463
11.500000 89.113 -113.6226
11.720000 89.246 -114.5306
11.800000 89.297 -114.8898
12.060000 89.469 -116.1463
12.200000 89.557 -116.8962
12.410000 89.683 -118.1029
12.500000 89.731 -118.6363
12.650000 89.804 -119.5590
12.800000 89.868 -120.4868
13.150000 89.974 -122.5926
13.200000 89.985 -122.8760
13.400000 90.021 -123.9641
13.600000 90.049 -124.9581
13.800000 90.072 -125.8452
14.000000 90.096 -126.6455
14.300000 90.140 -127.7026
14.500000 90.178 -128.3499
14.750000 90.233 -129.1371
15.000000 90.297 -129.9219
15.250000 90.364 -130.7297
15.500000 90.433 -131.5621
15.750000 90.501 -132.4198
16.000000 90.566 -133.2991
16.250000 90.627 -134.1953
16.500000 90.681 -135.1027
16.750000 90.729 -136.0141
17.000000 90.770 -136.9116
17.250000 90.803 -137.7832
17.500000 90.830 -138.6132
17.750000 90.855 -139.3923
18.000000 90.879 -140.1261
18.250000 90.905 -140.8212
18.500000 90.935 -141.5010
18.750000 90.967 -142.1762
19.000000 90.999 -142.8565
19.250000 91.030 -143.5401
19.500000 91.060 -144.2174
19.750000 91.087 -144.8821
20.000000 91.116 -145.5297
20.299999 91.152 -146.3032
20.600000 91.190 -147.0983
20.900000 91.227 -147.9403
21.200001 91.255 -148.8337
21.400000 91.263 -149.4334
21.799999 91.258 -150.5607
22.000000 91.248 -151.0471
22.400000 91.228 -151.8094
22.700001 91.229 -152.2322
23.000000 91.254 -152.6271
23.299999 91.299 -153.1041
23.600000 91.351 -153.7161
24.000000 91.405 -154.7287
24.299999 91.423 -155.5402
24.700001 91.417 -156.5348
25.000000 91.405 -157.1511
25.400000 91.398 -157.8242
25.799999 91.410 -158.4566
26.200001 91.432 -159.1561
26.500000 91.444 -159.7218
26.900000 91.451 -160.4711
27.200001 91.453 -160.9933
27.600000 91.459 -161.6438
28.000000 91.473 -162.3116
28.500000 91.484 -163.2409
29.000000 91.471 -164.1747
29.500000 91.440 -164.9367
30.000000 91.422 -165.5200
30.400000 91.427 -165.9841
30.700001 91.436 -166.3871
31.100000 91.441 -166.9910
31.500000 91.434 -167.6022
32.000000 91.417 -168.2761
32.500000 91.408 -168.8708
33.000000 91.409 -169.5051
33.500000 91.404 -170.2078
34.000000 91.386 -170.8805
34.500000 91.368 -171.4539
35.000000 91.363 -171.9938
35.500000 91.365 -172.6085
36.000000 91.357 -173.2930
36.500000 91.333 -173.9426
37.000000 91.305 -174.4862
37.500000 91.286 -174.9616
38.200001 91.269 -175.6423
38.700001 91.257 -176.1506
39.500000 91.233 -176.9615
40.000000 91.214 -177.4858
40.599998 91.178 -178.0878
41.200001 91.136 -178.5383
41.799999 91.118 -178.8732
42.500000 91.133 -179.4290
43.099998 91.132 179.8362
43.700001 91.092 179.1089
44.400002 91.030 178.5606
45.000000 91.008 178.2317
45.500000 91.008 177.8450
46.200001 90.990 177.1037
46.799999 90.939 176.5423
47.500000 90.883 176.1891
48.200001 90.871 175.8761
48.700001 90.872 175.4920
49.400002 90.844 174.8385
50.000000 90.803 174.3811
50.799999 90.762 173.8335
51.500000 90.716 173.2578
52.200001 90.648 172.8205
53.000000 90.600 172.5428
53.799999 90.584 172.0336
54.500000 90.539 171.4718
55.200001 90.482 171.1038
56.000000 90.444 170.7530
57.000000 90.398 170.2265
58.000000 90.364 169.7347
59.000000 90.314 169.0721
60.000000 90.246 168.6711
60.799999 90.219 168.3266
61.500000 90.181 167.9395
62.200001 90.135 167.6780
63.000000 90.106 167.3925
64.000000 90.060 166.8632
65.000000 90.001 166.4449
66.000000 89.948 166.0288
67.000000 89.895 165.6475
68.000000 89.847 165.1917
69.000000 89.779 164.7593
70.000000 89.715 164.4779
71.000000 89.673 164.1652
72.000000 89.615 163.7260
73.000000 89.550 163.4734
74.000000 89.504 163.1332
75.000000 89.444 162.9003
76.199997 89.412 162.3932
77.500000 89.302 162.1346
78.800003 89.294 161.5651
80.000000 89.175 161.4269
81.199997 89.203 160.8821
82.500000 89.012 160.4923
83.800003 89.027 160.4820
85.000000 88.899 159.9983
86.199997 88.883 160.1509
87.500000 88.815 159.3357
88.500000 88.701 159.3018
90.000000 88.684 159.4313
91.199997 88.646 158.7266
92.500000 88.505 158.6262
93.800003 88.499 158.8222
95.000000 88.488 158.2079
96.199997 88.369 157.7104
97.500000 88.258 157.8676
98.800003 88.246 157.9795
100.000000 88.235 157.5586
101.500000 88.151 157.0014
103.000000 88.038 156.7891
104.400002 87.951 156.7500
106.000000 87.883 156.8277
107.500000 87.822 156.8404
109.000000 87.785 156.6350
110.599998 87.715 156.4089
112.000000 87.655 156.3394
113.800003 87.564 156.0893
115.000000 87.553 156.1890
117.199997 87.425 156.1826
118.000000 87.444 156.0389
120.599998 87.232 155.8126
122.000000 87.187 155.5593
124.099998 87.095 155.2921
125.000000 87.058 155.2043
126.500000 87.045 155.0263
128.000000 86.941 154.8235
131.500000 86.810 155.1446
132.000000 86.794 155.1461
134.000000 86.715 154.9730
136.000000 86.625 154.9281
138.000000 86.547 154.8156
140.000000 86.438 154.7986
143.000000 86.320 155.2360
145.000000 86.227 154.7999
147.500000 86.116 155.2207
150.000000 86.001 155.5919
152.500000 85.930 155.1743
155.000000 85.870 154.4539
157.500000 86.003 153.2910
160.000000 86.257 155.0803
162.500000 85.801 157.5241
165.000000 85.643 154.8055
167.500000 85.705 155.8307
170.000000 85.561 155.4487
172.500000 85.538 155.2990
175.000000 85.494 156.1231
177.500000 85.338 155.6392
180.000000 85.373 156.2188
182.500000 85.235 156.0896
185.000000 85.202 156.6777
187.500000 85.181 155.9757
190.000000 85.054 156.4429
192.500000 85.033 156.6578
195.000000 84.965 156.6055
197.500000 84.918 156.6005
200.000000 84.876 156.7707
203.000000 84.750 156.8941
206.000000 84.773 156.5461
209.000000 84.610 156.5102
212.000000 84.478 156.9860
214.000000 84.451 157.1035
218.000000 84.366 157.3971
220.000000 84.341 157.5722
224.000000 84.310 157.6347
227.000000 84.235 158.1018
230.000000 84.144 158.4536
233.000000 84.099 158.3326
236.000000 84.037 158.7542
240.000000 83.995 158.9708
243.000000 83.952 159.1443
247.000000 83.870 159.3930
250.000000 83.796 159.6801
254.000000 83.724 159.8506
258.000000 83.657 160.0665
262.000000 83.594 160.4267
265.000000 83.546 160.6584
269.000000 83.479 160.9654
272.000000 83.436 161.1304
276.000000 83.376 161.5063
280.000000 83.323 161.7473
285.000000 83.248 162.3124
290.000000 83.172 162.5215
295.000000 83.110 162.9412
300.000000 83.051 163.1868
304.000000 83.020 163.5394
307.000000 82.974 163.8449
311.000000 82.925 164.1144
315.000000 82.863 164.4226
320.000000 82.814 164.7992
325.000000 82.771 165.1860
330.000000 82.712 165.6454
335.000000 82.671 165.9473
340.000000 82.612 166.3914
345.000000 82.569 166.7532
350.000000 82.537 167.2096
355.000000 82.480 167.5537
360.000000 82.435 167.9683
365.000000 82.393 168.3643
370.000000 82.347 168.6933
375.000000 82.300 169.1645
382.000000 82.251 169.5705
387.000000 82.213 170.0481
395.000000 82.151 170.6530
400.000000 82.109 170.9991
406.000000 82.076 171.5090
412.000000 82.027 171.9595
418.000000 81.990 172.4476
425.000000 81.949 172.9896
431.000000 81.911 173.4131
437.000000 81.882 173.9133
444.000000 81.836 174.3630
450.000000 81.806 174.8498
455.000000 81.785 175.2695
462.000000 81.741 175.7941
468.000000 81.723 176.2363
475.000000 81.690 176.7680
482.000000 81.655 177.3005
487.000000 81.633 177.7502
494.000000 81.603 178.2365
500.000000 81.598 178.7383
508.000000 81.569 179.3229
515.000000 81.511 179.7738
522.000000 81.481 -179.6583
530.000000 81.482 -179.1245
538.000000 81.463 -178.5028
545.000000 81.444 -177.9700
552.000000 81.435 -177.4672
560.000000 81.408 -176.8954
570.000000 81.393 -176.1239
580.000000 81.377 -175.4034
590.000000 81.361 -174.7147
600.000000 81.355 -173.9420
608.000000 81.332 -173.4429
615.000000 81.236 -172.5948
622.000000 81.303 -172.7669
630.000000 81.282 -171.9191
640.000000 81.294 -171.1236
650.000000 81.281 -170.3037
660.000000 81.281 -169.5894
670.000000 81.295 -168.9836
680.000000 81.323 -168.0919
690.000000 81.285 -167.3282
700.000000 81.286 -166.6286
710.000000 81.308 -165.8173
720.000000 81.297 -165.0161
730.000000 81.308 -164.4820
740.000000 81.326 -163.7132
750.000000 81.344 -162.9220
762.000000 81.354 -162.0706
775.000000 81.394 -161.1307
788.000000 81.423 -160.1656
800.000000 81.404 -159.7812
812.000000 81.507 -158.4428
825.000000 81.541 -157.2115
838.000000 81.572 -156.6323
850.000000 81.614 -155.6610
862.000000 81.674 -154.8940
875.000000 81.734 -153.9790
885.000000 81.801 -153.2821
900.000000 81.879 -152.2923
912.000000 81.950 -151.4702
925.000000 82.031 -150.6687
938.000000 82.112 -149.8427
950.000000 82.196 -149.1801
962.000000 82.282 -148.5036
975.000000 82.373 -147.6999
988.000000 82.462 -147.0562
1000.000000 82.552 -146.6212
1015.000000 82.679 -145.7643
1030.000000 82.801 -145.1213
1044.000000 82.905 -144.5181
1060.000000 83.038 -143.9207
1075.000000 83.161 -143.4418
1090.000000 83.284 -142.9307
1106.000000 83.408 -142.4968
1120.000000 83.520 -142.1729
1138.000000 83.665 -141.7578
1150.000000 83.752 -141.5084
1172.000000 83.899 -141.0654
1180.000000 83.952 -140.9302
1206.000000 84.127 -140.4925
1220.000000 84.216 -140.2586
1241.000000 84.343 -139.8868
1250.000000 84.396 -139.7689
1265.000000 84.479 -139.5372
1280.000000 84.568 -139.2232
1315.000000 84.769 -138.8094
1320.000000 84.802 -138.7282
1340.000000 84.921 -138.4849
1360.000000 85.028 -138.2122
1380.000000 85.131 -137.9612
1400.000000 85.238 -137.6939
1430.000000 85.388 -137.2617
1450.000000 85.485 -137.0315
1475.000000 85.610 -136.6539
1500.000000 85.742 -136.3555
1525.000000 85.873 -136.0338
1550.000000 85.996 -135.6967
1575.000000 86.127 -135.3816
1600.000000 86.256 -135.0994
1625.000000 86.388 -134.7991
1650.000000 86.524 -134.4675
1675.000000 86.663 -134.2689
1700.000000 86.801 -134.0378
1725.000000 86.936 -133.8543
1750.000000 87.080 -133.6849
1775.000000 87.208 -133.5132
1800.000000 87.341 -133.3694
1825.000000 87.472 -133.2402
1850.000000 87.606 -133.0708
1875.000000 87.741 -132.9681
1900.000000 87.867 -132.8518
1925.000000 87.995 -132.7446
1950.000000 88.118 -132.6033
1975.000000 88.252 -132.4767
2000.000000 88.383 -132.3491
2030.000000 88.544 -132.1467
2060.000000 88.713 -131.9041
2090.000000 88.887 -131.5960
2120.000000 89.088 -131.3143
2140.000000 89.248 -131.1682
2180.000000 89.578 -131.0637
2200.000000 89.748 -131.2158
2240.000000 90.084 -131.6964
2270.000000 90.316 -132.3418
2300.000000 90.528 -133.0487
2330.000000 90.723 -133.7954
2360.000000 90.895 -134.5589
2400.000000 91.108 -135.6451
2430.000000 91.258 -136.3812
2470.000000 91.450 -137.4308
2500.000000 91.592 -138.1503
2540.000000 91.754 -139.2595
2580.000000 91.905 -140.2435
2620.000000 92.068 -141.2212
2650.000000 92.194 -141.9659
2690.000000 92.363 -143.0059
2720.000000 92.496 -143.9099
2760.000000 92.665 -145.2733
2800.000000 92.819 -146.7997
2850.000000 92.977 -148.9275
2900.000000 93.075 -151.1561
2950.000000 93.111 -153.3845
3000.000000 93.097 -155.5527
3040.000000 93.056 -157.1324
3070.000000 93.009 -158.2467
3110.000000 92.924 -159.5681
3150.000000 92.835 -160.7878
3200.000000 92.702 -162.0621
3250.000000 92.564 -163.0939
3300.000000 92.424 -163.9771
3350.000000 92.296 -164.6212
3400.000000 92.180 -165.0911
3450.000000 92.065 -165.4247
3500.000000 91.983 -165.8412
3550.000000 91.888 -166.1873
3600.000000 91.801 -166.4581
3650.000000 91.709 -166.6578
3700.000000 91.622 -166.6956
3750.000000 91.552 -166.7017
3820.000000 91.475 -166.6564
3870.000000 91.438 -166.5732
3950.000000 91.395 -166.4403
4000.000000 91.373 -166.3483
4060.000000 91.355 -166.2575
4120.000000 91.346 -166.2075
4180.000000 91.349 -166.1048
4250.000000 91.361 -166.0697
4310.000000 91.380 -166.0524
4370.000000 91.398 -166.0073
4440.000000 91.430 -165.9767
4500.000000 91.468 -165.9598
4550.000000 91.511 -166.0059
4620.000000 91.574 -166.0626
4680.000000 91.621 -166.2204
4750.000000 91.694 -166.4503
4820.000000 91.774 -166.7860
4870.000000 91.836 -167.0872
4940.000000 91.917 -167.5657
5000.000000 91.978 -168.0773
5080.000000 92.057 -168.8633
5150.000000 92.119 -169.6796
5220.000000 92.168 -170.5567
5300.000000 92.205 -171.6246
5380.000000 92.220 -172.6970
5450.000000 92.216 -173.6218
5520.000000 92.201 -174.4867
5600.000000 92.184 -175.4927
5700.000000 92.157 -176.7840
5800.000000 92.099 -178.1695
5900.000000 91.999 -179.5095
6000.000000 91.860 179.2983
6080.000000 91.736 178.5263
6150.000000 91.618 177.9598
6220.000000 91.493 177.5688
6300.000000 91.358 177.2532
6400.000000 91.205 177.0594
6500.000000 91.074 177.0338
6600.000000 90.971 177.1797
6700.000000 90.899 177.4159
6800.000000 90.868 177.7173
6900.000000 90.876 177.9851
7000.000000 90.922 178.1990
7100.000000 91.017 178.2936
7200.000000 91.158 178.1893
7300.000000 91.347 177.7353
7400.000000 91.571 176.9015
7500.000000 91.817 175.5646
7620.000000 92.114 173.1925
7750.000000 92.415 169.4972
7880.000000 92.615 164.5474
8000.000000 92.636 158.9997
8120.000000 92.424 152.9018
8250.000000 91.907 146.3494
8380.000000 91.120 140.5967
8500.000000 90.222 136.4080
8620.000000 89.231 133.5433
8750.000000 88.110 131.8397
8850.000000 87.261 131.4661
9000.000000 86.053 132.0888
9120.000000 85.161 133.3350
9250.000000 84.277 135.2736
9380.000000 83.458 137.7835
9500.000000 82.765 140.2838
9620.000000 82.142 143.2045
9750.000000 81.520 146.3697
9880.000000 80.960 149.7082
10000.000000 80.477 152.9608
10150.000000 79.898 157.1185
10300.000000 79.389 161.6707
10440.000000 78.969 165.8978
10600.000000 78.548 171.3262
10750.000000 78.253 176.5903
10900.000000 78.048 -178.1946
11060.000000 77.936 -172.4181
11200.000000 77.901 -167.4702
11380.000000 77.961 -161.2580
11500.000000 78.066 -157.1892
11720.000000 78.380 -150.0907
11800.000000 78.527 -147.5236
12060.000000 79.166 -139.7960
12200.000000 79.643 -135.9819
12410.000000 80.478 -130.6364
12500.000000 80.881 -128.6306
12650.000000 81.651 -125.6151
12800.000000 82.532 -123.2721
13150.000000 85.044 -121.3758
13200.000000 85.450 -121.7647
13400.000000 87.194 -125.6615
13600.000000 88.896 -134.8834
13800.000000 89.918 -149.8347
14000.000000 89.657 -166.0006
14300.000000 87.756 179.3195
14500.000000 86.441 175.8037
14750.000000 85.186 175.1019
15000.000000 84.393 176.0069
15250.000000 83.989 176.8903
15500.000000 83.878 176.6507
15750.000000 83.942 174.4691
16000.000000 83.991 169.6222
16250.000000 83.724 161.9912
16500.000000 82.833 153.5546
16750.000000 81.365 147.0778
17000.000000 79.632 144.1933
17250.000000 77.940 144.3064
17500.000000 76.397 146.6980
17750.000000 75.123 150.9309
18000.000000 74.120 155.9220
18250.000000 73.371 161.6258
18500.000000 72.915 166.7640
18750.000000 72.715 171.2393
19000.000000 72.779 174.2676
19250.000000 72.918 175.2810
19500.000000 72.950 173.5331
19750.000000 72.554 169.5618
20000.000000 71.512 164.8668
20300.000000 69.263 159.7987
20600.000000 66.092 156.7932
20900.000000 61.759 155.1491
21200.000000 56.028 156.6045
21400.000000 51.759 161.7073
21800.000000 43.656 170.6924
22000.000000 38.694 168.1838
22400.000000 24.427 178.5820
22700.000000 8.942 -78.2432
23000.000000 17.753 -37.2871
23300.000000 18.344 -146.5469
23600.000000 19.116 12.4023
