* Measurement data measured by REW V5.30.2
* Source: Headset (JA3 HIFI AUDIO(CX31993)), no input selected, L, volume: no control
* Format: 512k Log Swept Sine, 1 sweep at -12.0 dBFS with no timing reference
* Dated: Feb 15, 2024 6:12:51 PM
* REW Settings:
*  C-weighting compensation: Off
*  Target level: 75.0 dB
* Note: ; 
* Measurement: Simgot EA500 R
* Smoothing: None
* Frequency Step: 1/48 octave
* Start Frequency: 1.000 Hz
*
* Freq(Hz) SPL(dB) Phase(degrees)
1.000000 49.468 47.0250
1.015000 49.770 45.9169
1.030000 50.066 44.8299
1.044000 50.338 43.8321
1.060000 50.641 42.7087
1.075000 50.918 41.6692
1.090000 51.186 40.6405
1.106000 51.463 39.5569
1.120000 51.701 38.6455
1.138000 52.005 37.5288
1.150000 52.205 36.8171
1.172000 52.568 35.5755
1.180000 52.699 35.1432
1.206000 53.120 33.8032
1.220000 53.343 33.1196
1.241000 53.675 32.1391
1.250000 53.815 31.7340
1.265000 54.048 31.0770
1.280000 54.278 30.4408
1.315000 54.807 29.0240
1.320000 54.882 28.8281
1.340000 55.178 28.0572
1.360000 55.470 27.3025
1.380000 55.759 26.5586
1.400000 56.044 25.8198
1.430000 56.464 24.7094
1.450000 56.740 23.9595
1.475000 57.080 23.0072
1.500000 57.412 22.0804
1.525000 57.738 21.1878
1.550000 58.056 20.3265
1.575000 58.369 19.4936
1.600000 58.675 18.6862
1.625000 58.975 17.9015
1.650000 59.270 17.1367
1.675000 59.560 16.3888
1.700000 59.845 15.6549
1.725000 60.127 14.9323
1.750000 60.404 14.2180
1.775000 60.678 13.5093
1.800000 60.949 12.8031
1.825000 61.218 12.0966
1.850000 61.483 11.3926
1.875000 61.743 10.7021
1.900000 61.998 10.0248
1.925000 62.249 9.3597
1.950000 62.495 8.7058
1.975000 62.737 8.0622
2.000000 62.976 7.4280
2.030000 63.257 6.6780
2.060000 63.534 5.9384
2.090000 63.806 5.2076
2.120000 64.075 4.4839
2.140000 64.252 4.0046
2.180000 64.602 3.0514
2.200000 64.775 2.5766
2.240000 65.116 1.6385
2.270000 65.366 0.9471
2.300000 65.611 0.2650
2.330000 65.853 -0.4086
2.360000 66.090 -1.0745
2.400000 66.401 -1.9519
2.430000 66.630 -2.6033
2.470000 66.931 -3.4646
2.500000 67.153 -4.1063
2.540000 67.446 -4.9577
2.580000 67.736 -5.8053
2.620000 68.020 -6.6429
2.650000 68.229 -7.2642
2.690000 68.502 -8.0846
2.720000 68.704 -8.6948
2.760000 68.970 -9.5027
2.800000 69.230 -10.3056
2.850000 69.551 -11.3044
2.900000 69.866 -12.3006
2.950000 70.175 -13.2963
3.000000 70.479 -14.2849
3.040000 70.717 -15.0707
3.070000 70.893 -15.6576
3.110000 71.124 -16.4378
3.150000 71.351 -17.2162
3.200000 71.631 -18.1882
3.250000 71.905 -19.1610
3.300000 72.175 -20.1365
3.350000 72.439 -21.1128
3.400000 72.698 -22.0882
3.450000 72.952 -23.0630
3.500000 73.200 -24.0380
3.550000 73.443 -25.0135
3.600000 73.681 -25.9902
3.650000 73.914 -26.9686
3.700000 74.143 -27.9494
3.750000 74.366 -28.9328
3.820000 74.670 -30.3121
3.870000 74.881 -31.2980
3.950000 75.208 -32.8738
4.000000 75.405 -33.8564
4.060000 75.636 -35.0328
4.120000 75.860 -36.2114
4.180000 76.076 -37.3901
4.250000 76.319 -38.7606
4.310000 76.520 -39.9275
4.370000 76.714 -41.0836
4.440000 76.932 -42.4185
4.500000 77.111 -43.5580
4.550000 77.255 -44.5020
4.620000 77.448 -45.8104
4.680000 77.607 -46.9151
4.750000 77.786 -48.1789
4.820000 77.957 -49.4169
4.870000 78.073 -50.2901
4.940000 78.228 -51.4933
5.000000 78.356 -52.5032
5.080000 78.519 -53.8131
5.150000 78.656 -54.9201
5.220000 78.786 -55.9951
5.300000 78.926 -57.1853
5.380000 79.061 -58.3322
5.450000 79.174 -59.2983
5.520000 79.286 -60.2275
5.600000 79.408 -61.2427
5.700000 79.553 -62.4469
5.800000 79.696 -63.5877
5.900000 79.838 -64.6711
6.000000 79.977 -65.6846
6.080000 80.088 -66.4538
6.150000 80.185 -67.1054
6.220000 80.283 -67.7441
6.300000 80.397 -68.4530
6.400000 80.540 -69.2989
6.500000 80.685 -70.1211
6.600000 80.832 -70.9423
6.700000 80.981 -71.7563
6.800000 81.133 -72.5602
6.900000 81.285 -73.3705
7.000000 81.438 -74.2008
7.100000 81.591 -75.0423
7.200000 81.745 -75.8974
7.300000 81.896 -76.7727
7.400000 82.045 -77.6726
7.500000 82.192 -78.5937
7.620000 82.364 -79.7248
7.750000 82.543 -80.9811
7.880000 82.715 -82.2738
8.000000 82.865 -83.4879
8.120000 83.005 -84.7136
8.250000 83.148 -86.0640
8.380000 83.278 -87.4156
8.500000 83.387 -88.6506
8.620000 83.484 -89.8848
8.750000 83.578 -91.1915
8.850000 83.642 -92.1603
9.000000 83.723 -93.5740
9.120000 83.779 -94.6415
9.250000 83.830 -95.7132
9.380000 83.872 -96.7085
9.500000 83.909 -97.5454
9.620000 83.945 -98.2909
9.750000 83.981 -99.0037
9.880000 84.024 -99.6376
10.000000 84.071 -100.1463
10.150000 84.138 -100.6908
10.300000 84.222 -101.2124
10.440000 84.316 -101.6622
10.600000 84.438 -102.2001
10.750000 84.565 -102.7822
10.900000 84.704 -103.4256
11.060000 84.850 -104.2292
11.200000 84.979 -105.0332
11.380000 85.132 -106.1629
11.500000 85.224 -106.9851
11.720000 85.367 -108.5522
11.800000 85.409 -109.1192
12.060000 85.511 -110.9373
12.200000 85.546 -111.8161
12.410000 85.580 -113.0009
12.500000 85.592 -113.4342
12.650000 85.607 -114.0577
12.800000 85.626 -114.5807
13.150000 85.704 -115.4400
13.200000 85.721 -115.5473
13.400000 85.803 -115.9265
13.600000 85.903 -116.3411
13.800000 86.021 -116.8334
14.000000 86.142 -117.4343
14.300000 86.321 -118.5390
14.500000 86.426 -119.3801
14.750000 86.537 -120.4725
15.000000 86.626 -121.5702
15.250000 86.696 -122.6086
15.500000 86.754 -123.5771
15.750000 86.802 -124.4712
16.000000 86.845 -125.3017
16.250000 86.884 -126.0771
16.500000 86.918 -126.7969
16.750000 86.949 -127.4556
17.000000 86.979 -128.0426
17.250000 87.011 -128.5613
17.500000 87.050 -129.0167
17.750000 87.099 -129.4448
18.000000 87.159 -129.8752
18.250000 87.230 -130.3406
18.500000 87.307 -130.8789
18.750000 87.387 -131.4987
19.000000 87.463 -132.2078
19.250000 87.531 -132.9946
19.500000 87.586 -133.8333
19.750000 87.626 -134.7009
20.000000 87.649 -135.5487
20.299999 87.657 -136.4812
20.600000 87.652 -137.2674
20.900000 87.646 -137.8755
21.200001 87.653 -138.3210
21.400000 87.671 -138.5737
21.799999 87.738 -139.0895
22.000000 87.782 -139.4062
22.400000 87.874 -140.2184
22.700001 87.928 -140.9406
23.000000 87.962 -141.6636
23.299999 87.982 -142.2989
23.600000 87.998 -142.8156
24.000000 88.032 -143.3597
24.299999 88.073 -143.7545
24.700001 88.138 -144.3806
25.000000 88.182 -144.9407
25.400000 88.217 -145.7313
25.799999 88.230 -146.4380
26.200001 88.238 -147.0018
26.500000 88.251 -147.3715
26.900000 88.279 -147.8843
27.200001 88.301 -148.3268
27.600000 88.320 -148.9847
28.000000 88.322 -149.6409
28.500000 88.309 -150.3412
29.000000 88.301 -150.8899
29.500000 88.314 -151.3722
30.000000 88.347 -151.8951
30.400000 88.384 -152.3982
30.700001 88.412 -152.8409
31.100000 88.442 -153.5044
31.500000 88.455 -154.1908
32.000000 88.450 -154.9361
32.500000 88.443 -155.4539
33.000000 88.464 -155.8347
33.500000 88.513 -156.2901
34.000000 88.561 -156.9323
34.500000 88.579 -157.6452
35.000000 88.567 -158.2245
35.500000 88.553 -158.5743
36.000000 88.562 -158.8047
36.500000 88.595 -159.0994
37.000000 88.628 -159.5445
37.500000 88.645 -160.0790
38.200001 88.643 -160.7989
38.700001 88.634 -161.2485
39.500000 88.622 -161.8574
40.000000 88.628 -162.2059
40.599998 88.647 -162.7266
41.200001 88.651 -163.3906
41.799999 88.625 -163.9483
42.500000 88.612 -164.2980
43.099998 88.637 -164.6857
43.700001 88.639 -165.2420
44.400002 88.612 -165.5959
45.000000 88.642 -165.7022
45.500000 88.694 -166.1091
46.200001 88.691 -167.0168
46.799999 88.631 -167.3114
47.500000 88.663 -167.3072
48.200001 88.731 -168.0982
48.700001 88.693 -168.8309
49.400002 88.596 -169.0093
50.000000 88.624 -168.8372
50.799999 88.706 -169.5574
51.500000 88.663 -170.2626
52.200001 88.644 -170.3877
53.000000 88.693 -170.9335
53.799999 88.650 -171.6990
54.500000 88.609 -171.8043
55.200001 88.642 -171.9533
56.000000 88.671 -172.6185
57.000000 88.611 -173.4090
58.000000 88.541 -173.4420
59.000000 88.614 -173.5192
60.000000 88.607 -174.6232
60.799999 88.504 -174.7636
61.500000 88.522 -174.5084
62.200001 88.593 -174.9436
63.000000 88.563 -175.8292
64.000000 88.484 -176.0365
65.000000 88.531 -176.2931
66.000000 88.538 -177.1264
67.000000 88.478 -177.6093
68.000000 88.458 -177.6678
69.000000 88.474 -177.8675
70.000000 88.486 -178.1030
71.000000 88.513 -178.6453
72.000000 88.450 -179.3305
73.000000 88.400 -179.4391
74.000000 88.412 -179.8912
75.000000 88.365 179.5978
76.199997 88.356 179.3693
77.500000 88.358 178.8384
78.800003 88.328 178.4673
80.000000 88.300 178.3069
81.199997 88.293 178.0080
82.500000 88.243 177.5580
83.800003 88.176 177.1755
85.000000 88.145 177.2247
86.199997 88.185 176.6358
87.500000 88.088 176.0793
88.500000 88.067 176.1649
90.000000 88.082 175.7505
91.199997 88.060 175.2456
92.500000 88.002 174.8571
93.800003 88.000 174.6957
95.000000 87.981 174.1297
96.199997 87.913 174.0324
97.500000 87.918 174.1531
98.800003 87.944 173.6569
100.000000 87.872 173.1836
101.500000 87.820 173.0403
103.000000 87.778 172.6456
104.400002 87.734 172.5060
106.000000 87.706 172.2086
107.500000 87.683 171.8928
109.000000 87.634 171.8223
110.599998 87.597 171.3194
112.000000 87.621 171.3756
113.800003 87.534 170.7566
115.000000 87.524 170.6527
117.199997 87.431 170.3856
118.000000 87.412 170.6464
120.599998 87.334 169.7505
122.000000 87.331 169.7750
124.099998 87.347 169.4548
125.000000 87.316 168.9951
126.500000 87.220 168.7849
128.000000 87.174 168.8849
131.500000 87.069 168.8546
132.000000 87.062 168.9022
134.000000 87.012 168.5718
136.000000 86.917 168.2491
138.000000 86.902 168.1422
140.000000 86.820 167.8911
143.000000 86.742 167.8450
145.000000 86.703 167.3406
147.500000 86.656 167.2631
150.000000 86.662 167.4534
152.500000 86.630 167.2586
155.000000 86.557 167.0289
157.500000 86.521 166.8022
160.000000 86.452 166.7662
162.500000 86.424 166.5117
165.000000 86.360 166.4704
167.500000 86.328 166.4998
170.000000 86.214 166.8262
172.500000 86.258 166.9456
175.000000 86.351 166.1137
177.500000 86.297 165.5698
180.000000 86.154 165.4838
182.500000 86.106 165.4035
185.000000 86.106 165.6772
187.500000 86.025 165.8555
190.000000 85.934 165.9307
192.500000 85.840 165.6256
195.000000 85.837 165.5019
197.500000 85.819 165.7021
200.000000 85.766 165.7073
203.000000 85.731 165.2861
206.000000 85.631 164.8391
209.000000 85.507 165.3380
212.000000 85.493 165.5145
214.000000 85.479 165.1622
218.000000 85.429 165.2256
220.000000 85.389 165.2852
224.000000 85.342 165.2379
227.000000 85.300 165.3413
230.000000 85.209 165.3520
233.000000 85.122 165.3563
236.000000 85.124 165.2891
240.000000 85.029 164.9102
243.000000 84.954 165.3366
247.000000 84.957 165.5833
250.000000 84.945 165.6672
254.000000 84.826 165.2334
258.000000 84.708 165.3214
262.000000 84.629 165.6886
265.000000 84.515 165.6006
269.000000 84.502 165.3272
272.000000 84.605 165.3071
276.000000 84.600 166.4075
280.000000 84.493 166.5191
285.000000 84.522 167.3515
290.000000 84.186 169.0833
295.000000 84.018 166.2880
300.000000 84.311 166.4559
304.000000 83.988 167.4438
307.000000 84.093 169.3095
311.000000 84.204 168.4478
315.000000 83.861 168.0126
320.000000 83.994 168.6898
325.000000 84.108 169.4319
330.000000 83.843 169.5271
335.000000 83.765 169.1022
340.000000 83.769 168.6914
345.000000 83.764 170.6180
350.000000 83.289 168.8177
355.000000 83.639 169.5090
360.000000 83.395 169.9274
365.000000 83.458 169.9180
370.000000 83.337 170.7294
375.000000 83.342 170.5744
382.000000 83.249 170.7099
387.000000 83.250 171.9351
395.000000 83.128 172.0247
400.000000 83.223 171.6155
406.000000 83.033 173.1494
412.000000 83.090 172.3752
418.000000 83.004 173.5866
425.000000 82.817 172.5379
431.000000 82.811 173.8196
437.000000 82.762 174.5974
444.000000 82.916 174.8842
450.000000 82.776 174.9899
455.000000 82.828 175.3521
462.000000 82.733 175.8138
468.000000 82.690 176.0895
475.000000 82.662 176.6688
482.000000 82.622 177.0529
487.000000 82.628 177.4655
494.000000 82.566 177.9007
500.000000 82.539 178.2222
508.000000 82.489 178.5975
515.000000 82.465 178.9946
522.000000 82.448 179.6146
530.000000 82.395 -179.8694
538.000000 82.392 -179.5215
545.000000 82.348 -178.9206
552.000000 82.307 -178.7080
560.000000 82.256 -178.1333
570.000000 82.237 -177.6252
580.000000 82.232 -176.5380
590.000000 82.190 -175.9675
600.000000 82.172 -175.4254
608.000000 82.153 -174.9640
615.000000 82.130 -174.4915
622.000000 82.109 -173.8497
630.000000 82.100 -173.2955
640.000000 82.071 -172.5506
650.000000 82.062 -172.0612
660.000000 82.056 -171.2876
670.000000 82.045 -170.6380
680.000000 82.025 -169.8811
690.000000 82.024 -169.1788
700.000000 82.021 -168.4110
710.000000 82.019 -167.6178
720.000000 82.001 -166.9486
730.000000 82.010 -166.3369
740.000000 82.036 -165.5708
750.000000 82.050 -164.8333
762.000000 82.071 -163.8538
775.000000 82.102 -162.8543
788.000000 82.119 -161.9935
800.000000 82.155 -161.2320
812.000000 82.199 -160.3513
825.000000 82.233 -159.4253
838.000000 82.284 -158.5949
850.000000 82.324 -157.7521
862.000000 82.370 -156.8194
875.000000 82.429 -155.9598
885.000000 82.476 -155.3311
900.000000 82.556 -154.2800
912.000000 82.631 -153.4813
925.000000 82.709 -152.7460
938.000000 82.800 -151.8391
950.000000 82.880 -151.1011
962.000000 82.955 -150.4188
975.000000 83.046 -149.6482
988.000000 83.161 -148.9943
1000.000000 83.250 -148.3376
1015.000000 83.384 -147.5927
1030.000000 83.520 -146.9456
1044.000000 83.634 -146.3277
1060.000000 83.778 -145.6590
1075.000000 83.911 -145.1664
1090.000000 84.051 -144.5995
1106.000000 84.193 -144.1786
1120.000000 84.328 -143.7408
1138.000000 84.486 -143.3786
1150.000000 84.599 -143.0498
1172.000000 84.786 -142.6088
1180.000000 84.851 -142.5623
1206.000000 85.079 -142.1835
1220.000000 85.189 -142.0273
1241.000000 85.352 -141.8344
1250.000000 85.425 -141.6754
1265.000000 85.537 -141.5490
1280.000000 85.645 -141.5296
1315.000000 85.916 -141.2819
1320.000000 85.959 -141.2662
1340.000000 86.094 -141.1508
1360.000000 86.235 -141.1109
1380.000000 86.373 -141.0439
1400.000000 86.513 -140.9787
1430.000000 86.711 -140.9707
1450.000000 86.841 -140.9314
1475.000000 86.999 -140.9549
1500.000000 87.159 -140.9502
1525.000000 87.316 -140.9862
1550.000000 87.470 -141.0143
1575.000000 87.633 -141.0810
1600.000000 87.788 -141.1625
1625.000000 87.945 -141.2625
1650.000000 88.097 -141.3939
1675.000000 88.250 -141.5035
1700.000000 88.412 -141.6789
1725.000000 88.570 -141.8596
1750.000000 88.727 -142.0528
1775.000000 88.885 -142.3053
1800.000000 89.044 -142.5630
1825.000000 89.204 -142.8690
1850.000000 89.366 -143.2209
1875.000000 89.523 -143.5965
1900.000000 89.680 -144.0164
1925.000000 89.838 -144.4832
1950.000000 89.991 -144.9624
1975.000000 90.144 -145.5128
2000.000000 90.299 -146.1240
2030.000000 90.479 -146.8793
2060.000000 90.657 -147.7190
2090.000000 90.827 -148.6148
2120.000000 90.991 -149.5834
2140.000000 91.096 -150.2618
2180.000000 91.295 -151.7034
2200.000000 91.387 -152.4843
2240.000000 91.556 -154.0732
2270.000000 91.672 -155.3528
2300.000000 91.778 -156.6565
2330.000000 91.868 -158.0212
2360.000000 91.939 -159.3795
2400.000000 92.016 -161.2813
2430.000000 92.054 -162.6893
2470.000000 92.086 -164.5986
2500.000000 92.092 -166.0158
2540.000000 92.077 -167.8824
2580.000000 92.019 -169.6363
2620.000000 91.948 -171.3513
2650.000000 91.883 -172.5681
2690.000000 91.775 -174.1105
2720.000000 91.673 -175.1634
2760.000000 91.517 -176.4431
2800.000000 91.368 -177.5883
2850.000000 91.168 -178.7870
2900.000000 90.972 -179.7512
2950.000000 90.779 179.5186
3000.000000 90.600 178.8912
3040.000000 90.465 178.3907
3070.000000 90.369 177.9887
3110.000000 90.226 177.4615
3150.000000 90.076 177.0264
3200.000000 89.869 176.5652
3250.000000 89.653 176.3899
3300.000000 89.443 176.3973
3350.000000 89.255 176.5757
3400.000000 89.096 176.8845
3450.000000 88.954 177.2357
3500.000000 88.820 177.5153
3550.000000 88.697 177.7811
3600.000000 88.563 178.0524
3650.000000 88.433 178.5022
3700.000000 88.299 179.0237
3750.000000 88.187 179.6510
3820.000000 88.034 -179.3557
3870.000000 87.947 -178.4706
3950.000000 87.866 -176.9743
4000.000000 87.855 -176.0587
4060.000000 87.870 -175.0364
4120.000000 87.910 -174.1814
4180.000000 87.959 -173.4874
4250.000000 88.008 -172.8376
4310.000000 88.057 -172.3226
4370.000000 88.109 -171.9039
4440.000000 88.170 -171.4443
4500.000000 88.227 -171.0897
4550.000000 88.277 -170.8033
4620.000000 88.350 -170.4436
4680.000000 88.421 -170.1983
4750.000000 88.513 -170.0060
4820.000000 88.612 -169.8414
4870.000000 88.683 -169.7962
4940.000000 88.773 -169.8069
5000.000000 88.859 -169.9148
5080.000000 88.982 -170.0930
5150.000000 89.094 -170.3555
5220.000000 89.206 -170.7472
5300.000000 89.316 -171.3388
5380.000000 89.411 -172.0105
5450.000000 89.500 -172.6021
5520.000000 89.602 -173.4391
5600.000000 89.682 -174.6565
5700.000000 89.711 -176.2599
5800.000000 89.682 -177.8032
5900.000000 89.617 -179.2721
6000.000000 89.507 179.4369
6080.000000 89.391 178.5694
6150.000000 89.278 177.9118
6220.000000 89.163 177.3771
6300.000000 89.021 176.9018
6400.000000 88.852 176.5471
6500.000000 88.679 176.4480
6600.000000 88.519 176.5434
6700.000000 88.379 176.8370
6800.000000 88.263 177.3040
6900.000000 88.194 177.8847
7000.000000 88.153 178.5612
7100.000000 88.162 179.3297
7200.000000 88.224 -179.9666
7300.000000 88.323 -179.3342
7400.000000 88.478 -178.8148
7500.000000 88.687 -178.4584
7620.000000 89.025 -178.3619
7750.000000 89.533 -178.9875
7880.000000 90.174 178.6782
8000.000000 90.748 174.5931
8120.000000 91.180 168.6181
8250.000000 91.346 160.3305
8380.000000 91.056 151.2386
8500.000000 90.366 143.4656
8620.000000 89.375 137.3186
8750.000000 88.125 132.8833
8850.000000 87.127 130.9413
9000.000000 85.686 129.8880
9120.000000 84.616 130.3085
9250.000000 83.533 131.6623
9380.000000 82.541 133.7619
9500.000000 81.698 136.1399
9620.000000 80.926 138.9498
9750.000000 80.190 142.2532
9880.000000 79.512 145.9036
10000.000000 78.937 149.4614
10150.000000 78.303 154.2014
10300.000000 77.730 159.0034
10440.000000 77.303 163.8571
10600.000000 76.871 169.1635
10750.000000 76.549 174.4256
10900.000000 76.311 179.7946
11060.000000 76.100 -174.4165
11200.000000 75.991 -169.3574
11380.000000 75.965 -162.8610
11500.000000 76.002 -158.5720
11720.000000 76.194 -150.4401
11800.000000 76.286 -147.6096
12060.000000 76.823 -138.2660
12200.000000 77.262 -133.3337
12410.000000 78.079 -125.9725
12500.000000 78.507 -122.8640
12650.000000 79.369 -117.8708
12800.000000 80.430 -113.3582
13150.000000 84.054 -106.9618
13200.000000 84.714 -107.1807
13400.000000 87.568 -112.9139
13600.000000 90.228 -129.4678
13800.000000 91.135 -155.7239
14000.000000 89.658 -177.5150
14300.000000 86.467 169.4529
14500.000000 84.759 167.9146
14750.000000 83.203 169.1396
15000.000000 82.179 171.8760
15250.000000 81.585 174.7498
15500.000000 81.314 177.2398
15750.000000 81.398 178.1957
16000.000000 81.649 176.5522
16250.000000 81.845 171.6030
16500.000000 81.609 163.6965
16750.000000 80.673 155.2505
17000.000000 79.145 149.2495
17250.000000 77.396 146.9733
17500.000000 75.699 147.8130
17750.000000 74.231 151.2429
18000.000000 73.043 155.9719
18250.000000 72.154 161.5703
18500.000000 71.524 167.6217
18750.000000 71.256 173.1152
19000.000000 71.250 176.9709
19250.000000 71.338 179.0879
19500.000000 71.378 178.6652
19750.000000 70.968 176.2203
20000.000000 70.026 173.5519
20300.000000 68.114 171.0735
20600.000000 65.362 171.2238
20900.000000 62.199 171.3614
21200.000000 58.146 170.9949
21400.000000 55.011 169.2791
21800.000000 46.031 159.2003
22000.000000 40.081 159.5693
22400.000000 28.539 157.6956
22700.000000 22.690 157.7930
23000.000000 16.090 167.6738
23300.000000 15.035 122.9688
23600.000000 23.342 -101.6953
