* Measurement data measured by REW V5.30.2
* Source: Headset (JA3 HIFI AUDIO(CX31993)), no input selected, L, volume: no control
* Format: 512k Log Swept Sine, 1 sweep at -12.0 dBFS with no timing reference
* Dated: Feb 15, 2024 6:06:23 PM
* REW Settings:
*  C-weighting compensation: Off
*  Target level: 75.0 dB
* Note: ; 
* Measurement: Simgot EA500LM Gold R
* Smoothing: None
* Frequency Step: 1/48 octave
* Start Frequency: 1.000 Hz
*
* Freq(Hz) SPL(dB) Phase(degrees)
1.000000 45.488 69.7479
1.015000 46.496 67.3820
1.030000 47.460 65.0950
1.044000 48.314 63.0291
1.060000 49.227 60.7458
1.075000 50.013 58.6775
1.090000 50.721 56.6761
1.106000 51.390 54.6240
1.120000 51.934 52.9642
1.138000 52.591 51.0242
1.150000 53.004 49.8445
1.172000 53.711 47.8989
1.180000 53.953 47.2563
1.206000 54.691 45.3825
1.220000 55.060 44.4967
1.241000 55.578 43.3079
1.250000 55.789 42.8441
1.265000 56.127 42.1241
1.280000 56.450 41.4620
1.315000 57.154 40.0871
1.320000 57.250 39.9048
1.340000 57.626 39.1965
1.360000 57.991 38.5040
1.380000 58.351 37.8042
1.400000 58.709 37.0740
1.430000 59.254 35.8707
1.450000 59.628 34.9627
1.475000 60.113 33.6875
1.500000 60.585 32.4007
1.525000 61.037 31.1395
1.550000 61.469 29.9021
1.575000 61.884 28.6872
1.600000 62.284 27.4928
1.625000 62.669 26.3173
1.650000 63.041 25.1591
1.675000 63.402 24.0164
1.700000 63.753 22.8877
1.725000 64.095 21.7712
1.750000 64.431 20.6653
1.775000 64.762 19.5682
1.800000 65.088 18.4784
1.825000 65.413 17.3940
1.850000 65.734 16.3165
1.875000 66.045 15.2515
1.900000 66.346 14.1989
1.925000 66.638 13.1586
1.950000 66.921 12.1302
1.975000 67.197 11.1135
2.000000 67.466 10.1082
2.030000 67.779 8.9164
2.060000 68.085 7.7402
2.090000 68.382 6.5790
2.120000 68.674 5.4323
2.140000 68.865 4.6755
2.180000 69.241 3.1803
2.200000 69.427 2.4414
2.240000 69.789 0.9839
2.270000 70.051 -0.0912
2.300000 70.304 -1.1511
2.330000 70.551 -2.1960
2.360000 70.790 -3.2262
2.400000 71.100 -4.5776
2.430000 71.327 -5.5748
2.470000 71.622 -6.8831
2.500000 71.838 -7.8489
2.540000 72.122 -9.1163
2.580000 72.401 -10.3607
2.620000 72.671 -11.5782
2.650000 72.867 -12.4740
2.690000 73.122 -13.6461
2.720000 73.307 -14.5094
2.760000 73.548 -15.6405
2.800000 73.784 -16.7502
2.850000 74.071 -18.1094
2.900000 74.352 -19.4403
2.950000 74.629 -20.7441
3.000000 74.897 -22.0115
3.040000 75.105 -22.9996
3.070000 75.257 -23.7273
3.110000 75.457 -24.6813
3.150000 75.653 -25.6189
3.200000 75.892 -26.7713
3.250000 76.128 -27.9061
3.300000 76.361 -29.0275
3.350000 76.589 -30.1281
3.400000 76.812 -31.2029
3.450000 77.030 -32.2563
3.500000 77.243 -33.2924
3.550000 77.453 -34.3154
3.600000 77.658 -35.3293
3.650000 77.861 -36.3384
3.700000 78.060 -37.3425
3.750000 78.256 -38.3343
3.820000 78.523 -39.7045
3.870000 78.710 -40.6727
3.950000 79.000 -42.2085
4.000000 79.177 -43.1628
4.060000 79.384 -44.3049
4.120000 79.585 -45.4420
4.180000 79.781 -46.5721
4.250000 80.003 -47.8795
4.310000 80.187 -48.9885
4.370000 80.365 -50.0850
4.440000 80.566 -51.3494
4.500000 80.731 -52.4258
4.550000 80.864 -53.3152
4.620000 81.044 -54.5438
4.680000 81.192 -55.5770
4.750000 81.360 -56.7535
4.820000 81.521 -57.8995
4.870000 81.631 -58.7039
4.940000 81.779 -59.8071
5.000000 81.901 -60.7288
5.080000 82.059 -61.9185
5.150000 82.195 -62.9185
5.220000 82.326 -63.8793
5.300000 82.469 -64.9341
5.380000 82.608 -65.9475
5.450000 82.730 -66.8043
5.520000 82.852 -67.6351
5.600000 82.990 -68.5385
5.700000 83.160 -69.6136
5.800000 83.331 -70.6574
5.900000 83.505 -71.6947
6.000000 83.681 -72.7004
6.080000 83.823 -73.4935
6.150000 83.948 -74.1924
6.220000 84.071 -74.9069
6.300000 84.213 -75.7416
6.400000 84.390 -76.7980
6.500000 84.565 -77.8762
6.600000 84.733 -78.9843
6.700000 84.895 -80.1317
6.800000 85.051 -81.3090
6.900000 85.199 -82.4978
7.000000 85.334 -83.6848
7.100000 85.459 -84.8909
7.200000 85.574 -86.0956
7.300000 85.679 -87.2686
7.400000 85.773 -88.3984
7.500000 85.855 -89.5043
7.620000 85.944 -90.7704
7.750000 86.032 -92.0289
7.880000 86.108 -93.1785
8.000000 86.175 -94.1512
8.120000 86.246 -95.0366
8.250000 86.324 -95.8835
8.380000 86.407 -96.6674
8.500000 86.495 -97.3664
8.620000 86.591 -98.0177
8.750000 86.702 -98.7286
8.850000 86.792 -99.3130
9.000000 86.937 -100.2186
9.120000 87.054 -100.9890
9.250000 87.176 -101.8942
9.380000 87.296 -102.8627
9.500000 87.399 -103.7875
9.620000 87.492 -104.7394
9.750000 87.581 -105.8065
9.880000 87.660 -106.8556
10.000000 87.719 -107.7954
10.150000 87.780 -108.9401
10.300000 87.831 -109.9906
10.440000 87.869 -110.8828
10.600000 87.909 -111.8055
10.750000 87.949 -112.5627
10.900000 87.992 -113.2312
11.060000 88.049 -113.9005
11.200000 88.107 -114.4363
11.380000 88.192 -115.1332
11.500000 88.255 -115.6152
11.720000 88.380 -116.5474
11.800000 88.425 -116.9150
12.060000 88.573 -118.1915
12.200000 88.645 -118.9207
12.410000 88.746 -120.0579
12.500000 88.785 -120.5433
12.650000 88.844 -121.3580
12.800000 88.897 -122.1631
13.150000 89.005 -123.9620
13.200000 89.019 -124.2111
13.400000 89.072 -125.1848
13.600000 89.121 -126.1337
13.800000 89.167 -127.0627
14.000000 89.208 -127.9687
14.300000 89.261 -129.2781
14.500000 89.290 -130.1007
14.750000 89.326 -131.0632
15.000000 89.363 -131.9540
15.250000 89.407 -132.7985
15.500000 89.458 -133.6459
15.750000 89.514 -134.5240
16.000000 89.569 -135.4695
16.250000 89.613 -136.4592
16.500000 89.643 -137.4631
16.750000 89.655 -138.4266
17.000000 89.657 -139.2867
17.250000 89.653 -140.0294
17.500000 89.655 -140.6423
17.750000 89.666 -141.1785
18.000000 89.692 -141.6813
18.250000 89.732 -142.1991
18.500000 89.776 -142.7700
18.750000 89.822 -143.3855
19.000000 89.864 -144.0376
19.250000 89.900 -144.6915
19.500000 89.934 -145.3367
19.750000 89.966 -145.9668
20.000000 90.000 -146.5952
20.299999 90.039 -147.3710
20.600000 90.074 -148.1818
20.900000 90.100 -149.0200
21.200001 90.112 -149.8511
21.400000 90.113 -150.3763
21.799999 90.106 -151.3356
22.000000 90.100 -151.7664
22.400000 90.089 -152.5473
22.700001 90.081 -153.0788
23.000000 90.074 -153.5620
23.299999 90.069 -153.9805
23.600000 90.073 -154.3352
24.000000 90.100 -154.7572
24.299999 90.141 -155.1180
24.700001 90.211 -155.7721
25.000000 90.262 -156.4235
25.400000 90.305 -157.4486
25.799999 90.311 -158.4921
26.200001 90.291 -159.4009
26.500000 90.271 -159.9625
26.900000 90.249 -160.5833
27.200001 90.239 -160.9936
27.600000 90.234 -161.5016
28.000000 90.236 -161.9700
28.500000 90.255 -162.5237
29.000000 90.291 -163.1553
29.500000 90.323 -163.9568
30.000000 90.323 -164.8280
30.400000 90.301 -165.4210
30.700001 90.280 -165.7548
31.100000 90.265 -166.0866
31.500000 90.271 -166.3981
32.000000 90.294 -166.9274
32.500000 90.307 -167.6293
33.000000 90.293 -168.3431
33.500000 90.265 -168.9373
34.000000 90.246 -169.4391
34.500000 90.238 -169.9611
35.000000 90.227 -170.5368
35.500000 90.207 -171.0936
36.000000 90.186 -171.5662
36.500000 90.177 -171.9885
37.000000 90.179 -172.4529
37.500000 90.181 -172.9965
38.200001 90.163 -173.7820
38.700001 90.140 -174.2651
39.500000 90.114 -174.9109
40.000000 90.106 -175.3237
40.599998 90.093 -175.8727
41.200001 90.070 -176.4108
41.799999 90.044 -176.8672
42.500000 90.028 -177.3813
43.099998 90.013 -177.9061
43.700001 89.982 -178.3952
44.400002 89.953 -178.7879
45.000000 89.952 -179.1441
45.500000 89.949 -179.5562
46.200001 89.917 179.9101
46.799999 89.898 179.6077
47.500000 89.893 179.0740
48.200001 89.826 178.4287
48.700001 89.751 178.3283
49.400002 89.733 178.6346
50.000000 89.807 178.4391
50.799999 89.828 177.2441
51.500000 89.726 176.4952
52.200001 89.658 176.3123
53.000000 89.648 175.8701
53.799999 89.599 175.2365
54.500000 89.553 174.9239
55.200001 89.536 174.6302
56.000000 89.519 174.2003
57.000000 89.498 173.6263
58.000000 89.439 173.0042
59.000000 89.381 172.8434
60.000000 89.394 172.4172
60.799999 89.349 171.8602
61.500000 89.305 171.6861
62.200001 89.309 171.4203
63.000000 89.277 170.6982
64.000000 89.144 170.2767
65.000000 89.078 170.3251
66.000000 89.043 170.2951
67.000000 89.058 170.0408
68.000000 89.011 169.2651
69.000000 88.915 168.9548
70.000000 88.875 168.7217
71.000000 88.844 168.3410
72.000000 88.814 167.9006
73.000000 88.792 167.5281
74.000000 88.773 166.9012
75.000000 88.691 166.5036
76.199997 88.651 166.1312
77.500000 88.482 165.9938
78.800003 88.525 166.3889
80.000000 88.493 165.6111
81.199997 88.435 165.3120
82.500000 88.367 164.9177
83.800003 88.333 164.6181
85.000000 88.272 164.2692
86.199997 88.236 164.0875
87.500000 88.179 163.6834
88.500000 88.119 163.5638
90.000000 88.067 163.3801
91.199997 88.012 163.0884
92.500000 87.940 162.8978
93.800003 87.890 162.6697
95.000000 87.831 162.4523
96.199997 87.790 162.2141
97.500000 87.724 162.0281
98.800003 87.702 161.8796
100.000000 87.654 161.5963
101.500000 87.590 161.4382
103.000000 87.520 161.3499
104.400002 87.479 161.2712
106.000000 87.403 160.8719
107.500000 87.353 160.8722
109.000000 87.286 160.3735
110.599998 87.215 160.3602
112.000000 87.184 160.2159
113.800003 87.093 160.1440
115.000000 87.065 159.9708
117.199997 86.961 159.9537
118.000000 86.903 159.9666
120.599998 86.836 159.5452
122.000000 86.770 159.6463
124.099998 86.683 159.5114
125.000000 86.669 159.5443
126.500000 86.634 159.3744
128.000000 86.572 159.1998
131.500000 86.435 159.2127
132.000000 86.414 159.2538
134.000000 86.352 159.0866
136.000000 86.298 159.3078
138.000000 86.232 159.3167
140.000000 86.179 159.2201
143.000000 86.073 159.0892
145.000000 86.046 158.9717
147.500000 86.027 158.7191
150.000000 85.843 159.1045
152.500000 85.806 158.9426
155.000000 85.756 158.9794
157.500000 85.655 159.0121
160.000000 85.586 159.0238
162.500000 85.523 159.3222
165.000000 85.458 159.0099
167.500000 85.384 159.1389
170.000000 85.342 159.3002
172.500000 85.246 159.4029
175.000000 85.180 159.4302
177.500000 85.108 159.6725
180.000000 85.082 159.7133
182.500000 84.986 159.9435
185.000000 84.954 160.2460
187.500000 84.904 160.0260
190.000000 84.894 159.9950
192.500000 84.875 160.6600
195.000000 84.752 160.2250
197.500000 84.721 159.9921
200.000000 84.680 159.8059
203.000000 84.519 159.8918
206.000000 84.486 160.0453
209.000000 84.486 160.2477
212.000000 84.440 160.8063
214.000000 84.425 160.7849
218.000000 84.297 161.1250
220.000000 84.213 161.0575
224.000000 84.146 161.6133
227.000000 84.150 161.7928
230.000000 84.046 161.8310
233.000000 83.942 161.6954
236.000000 83.987 162.3364
240.000000 83.988 162.3271
243.000000 83.855 162.4841
247.000000 83.799 162.7651
250.000000 83.742 163.0773
254.000000 83.670 163.3379
258.000000 83.565 163.1893
262.000000 83.589 163.9196
265.000000 83.479 163.8080
269.000000 83.457 164.2585
272.000000 83.415 164.2153
276.000000 83.361 164.9528
280.000000 83.332 164.9855
285.000000 83.260 165.3621
290.000000 83.202 165.8029
295.000000 83.138 166.1218
300.000000 83.092 166.4706
304.000000 83.036 166.8699
307.000000 83.013 166.8059
311.000000 82.941 166.9398
315.000000 82.930 167.5917
320.000000 82.929 167.6277
325.000000 82.785 168.2731
330.000000 82.773 168.7313
335.000000 82.734 169.0295
340.000000 82.733 169.3401
345.000000 82.638 169.8030
350.000000 82.613 169.9638
355.000000 82.543 170.4340
360.000000 82.523 170.6319
365.000000 82.475 170.9606
370.000000 82.419 171.6503
375.000000 82.398 171.9224
382.000000 82.344 172.1847
387.000000 82.303 172.6628
395.000000 82.263 173.1825
400.000000 82.232 173.5903
406.000000 82.191 174.0969
412.000000 82.153 174.4528
418.000000 82.126 174.7699
425.000000 82.101 175.4067
431.000000 82.072 175.7112
437.000000 82.033 176.2581
444.000000 81.981 176.7708
450.000000 81.979 177.1898
455.000000 81.942 177.4556
462.000000 81.900 177.8527
468.000000 81.878 178.5012
475.000000 81.828 178.9539
482.000000 81.843 179.4088
487.000000 81.784 179.3145
494.000000 81.809 -179.7576
500.000000 81.782 -179.2350
508.000000 81.753 -178.4981
515.000000 81.699 -177.7813
522.000000 81.669 -177.3848
530.000000 81.718 -176.5468
538.000000 81.675 -176.3835
545.000000 81.557 -175.5983
552.000000 81.580 -175.4551
560.000000 81.568 -174.8052
570.000000 81.628 -174.2977
580.000000 81.630 -173.6632
590.000000 81.586 -172.3992
600.000000 81.611 -172.1115
608.000000 81.588 -172.0058
615.000000 81.611 -171.5642
622.000000 81.564 -170.7931
630.000000 81.549 -170.4202
640.000000 81.537 -169.5640
650.000000 81.528 -168.7555
660.000000 81.521 -168.1356
670.000000 81.537 -167.5330
680.000000 81.531 -166.7064
690.000000 81.545 -166.0479
700.000000 81.530 -165.3988
710.000000 81.564 -164.5653
720.000000 81.570 -163.8904
730.000000 81.582 -163.1226
740.000000 81.582 -162.4602
750.000000 81.616 -161.6859
762.000000 81.640 -160.8882
775.000000 81.683 -160.5216
788.000000 81.679 -159.1300
800.000000 81.714 -158.1955
812.000000 81.771 -157.3017
825.000000 81.804 -156.4473
838.000000 81.864 -155.5092
850.000000 81.906 -154.7061
862.000000 81.965 -153.8844
875.000000 82.036 -153.0675
885.000000 82.079 -152.3792
900.000000 82.156 -151.3409
912.000000 82.233 -150.5870
925.000000 82.322 -149.8402
938.000000 82.418 -148.9745
950.000000 82.497 -148.3858
962.000000 82.580 -147.6600
975.000000 82.678 -147.0185
988.000000 82.777 -146.3313
1000.000000 82.878 -145.7300
1015.000000 82.994 -145.0714
1030.000000 83.118 -144.3943
1044.000000 83.220 -143.9009
1060.000000 83.352 -143.2243
1075.000000 83.487 -142.7104
1090.000000 83.617 -142.2292
1106.000000 83.748 -141.8087
1120.000000 83.866 -141.4365
1138.000000 84.010 -140.9758
1150.000000 84.113 -140.7175
1172.000000 84.280 -140.3305
1180.000000 84.341 -140.1873
1206.000000 84.530 -139.7756
1220.000000 84.629 -139.5692
1241.000000 84.787 -139.3430
1250.000000 84.853 -139.2623
1265.000000 84.952 -139.0990
1280.000000 85.051 -138.9631
1315.000000 85.261 -138.6425
1320.000000 85.291 -138.5973
1340.000000 85.409 -138.4407
1360.000000 85.534 -138.2762
1380.000000 85.652 -138.1348
1400.000000 85.763 -137.9459
1430.000000 85.928 -137.7324
1450.000000 86.037 -137.5878
1475.000000 86.166 -137.3917
1500.000000 86.301 -137.2272
1525.000000 86.437 -137.0632
1550.000000 86.571 -136.8960
1575.000000 86.702 -136.7404
1600.000000 86.828 -136.5662
1625.000000 86.954 -136.4117
1650.000000 87.084 -136.2477
1675.000000 87.221 -136.1255
1700.000000 87.364 -136.0264
1725.000000 87.507 -135.9586
1750.000000 87.643 -135.9020
1775.000000 87.774 -135.8813
1800.000000 87.906 -135.8545
1825.000000 88.037 -135.8368
1850.000000 88.171 -135.8374
1875.000000 88.305 -135.8588
1900.000000 88.438 -135.8979
1925.000000 88.568 -135.9082
1950.000000 88.695 -135.9329
1975.000000 88.826 -135.9549
2000.000000 88.962 -135.9791
2030.000000 89.131 -135.9993
2060.000000 89.314 -135.9938
2090.000000 89.514 -136.0790
2120.000000 89.722 -136.3501
2140.000000 89.862 -136.6177
2180.000000 90.114 -137.3473
2200.000000 90.234 -137.7673
2240.000000 90.452 -138.6612
2270.000000 90.604 -139.3242
2300.000000 90.745 -140.0135
2330.000000 90.876 -140.6999
2360.000000 90.999 -141.4039
2400.000000 91.157 -142.3683
2430.000000 91.266 -143.1296
2470.000000 91.397 -144.1396
2500.000000 91.483 -144.8509
2540.000000 91.581 -145.7126
2580.000000 91.671 -146.4382
2620.000000 91.778 -147.0397
2650.000000 91.883 -147.4584
2690.000000 92.048 -148.1440
2720.000000 92.185 -148.8500
2760.000000 92.360 -150.0633
2800.000000 92.497 -151.4683
2850.000000 92.623 -153.3401
2900.000000 92.707 -155.1899
2950.000000 92.750 -157.0875
3000.000000 92.751 -158.9424
3040.000000 92.726 -160.3845
3070.000000 92.694 -161.3719
3110.000000 92.631 -162.5660
3150.000000 92.551 -163.5866
3200.000000 92.441 -164.6158
3250.000000 92.336 -165.3864
3300.000000 92.256 -165.9673
3350.000000 92.208 -166.5037
3400.000000 92.181 -167.1166
3450.000000 92.148 -167.8113
3500.000000 92.106 -168.5572
3550.000000 92.046 -169.2628
3600.000000 91.981 -169.9240
3650.000000 91.914 -170.5384
3700.000000 91.847 -171.0452
3750.000000 91.779 -171.4821
3820.000000 91.680 -171.9804
3870.000000 91.613 -172.2595
3950.000000 91.525 -172.6327
4000.000000 91.483 -172.8479
4060.000000 91.436 -173.0778
4120.000000 91.394 -173.2781
4180.000000 91.360 -173.4985
4250.000000 91.321 -173.7385
4310.000000 91.305 -173.9877
4370.000000 91.294 -174.2592
4440.000000 91.281 -174.5999
4500.000000 91.277 -174.9330
4550.000000 91.272 -175.2535
4620.000000 91.264 -175.7272
4680.000000 91.253 -176.1996
4750.000000 91.236 -176.7695
4820.000000 91.209 -177.4120
4870.000000 91.185 -177.9001
4940.000000 91.150 -178.6097
5000.000000 91.114 -179.2343
5080.000000 91.054 179.9156
5150.000000 90.979 179.1713
5220.000000 90.895 178.4550
5300.000000 90.780 177.6630
5380.000000 90.643 176.9633
5450.000000 90.520 176.4250
5520.000000 90.392 175.9841
5600.000000 90.244 175.5549
5700.000000 90.044 175.1962
5800.000000 89.839 175.0154
5900.000000 89.631 175.0715
6000.000000 89.430 175.3353
6080.000000 89.279 175.7075
6150.000000 89.155 176.1457
6220.000000 89.044 176.6382
6300.000000 88.945 177.3254
6400.000000 88.852 178.3109
6500.000000 88.803 179.3533
6600.000000 88.792 -179.6779
6700.000000 88.816 -178.7999
6800.000000 88.870 -178.0019
6900.000000 88.950 -177.3271
7000.000000 89.061 -176.7045
7100.000000 89.209 -176.2127
7200.000000 89.405 -175.8792
7300.000000 89.640 -175.8001
7400.000000 89.908 -176.0421
7500.000000 90.215 -176.6892
7620.000000 90.628 -178.1444
7750.000000 91.110 179.1720
7880.000000 91.571 174.9579
8000.000000 91.868 169.5605
8120.000000 91.940 163.0112
8250.000000 91.663 155.3516
8380.000000 91.021 148.1906
8500.000000 90.170 142.8141
8620.000000 89.183 138.9238
8750.000000 88.049 136.3975
8850.000000 87.180 135.5317
9000.000000 85.929 135.5515
9120.000000 84.997 136.4473
9250.000000 84.063 138.1920
9380.000000 83.200 140.4974
9500.000000 82.469 142.9963
9620.000000 81.809 145.8191
9750.000000 81.168 149.2664
9880.000000 80.586 152.8319
10000.000000 80.115 156.3394
10150.000000 79.595 160.8507
10300.000000 79.146 165.6037
10440.000000 78.798 170.0306
10600.000000 78.492 175.2151
10750.000000 78.291 -179.9619
10900.000000 78.140 -175.1281
11060.000000 78.075 -169.9047
11200.000000 78.064 -165.4181
11380.000000 78.161 -159.8558
11500.000000 78.304 -156.1362
11720.000000 78.644 -149.8503
11800.000000 78.795 -147.5983
12060.000000 79.474 -141.0272
12200.000000 79.944 -137.9719
12410.000000 80.732 -133.7670
12500.000000 81.117 -132.2399
12650.000000 81.849 -130.1416
12800.000000 82.670 -128.7766
13150.000000 84.908 -129.7272
13200.000000 85.254 -130.4985
13400.000000 86.586 -135.9723
13600.000000 87.645 -145.1650
13800.000000 88.066 -157.0610
14000.000000 87.699 -168.5235
14300.000000 86.293 -179.7710
14500.000000 85.283 176.5190
14750.000000 84.197 174.6566
15000.000000 83.332 174.3058
15250.000000 82.704 174.8420
15500.000000 82.309 175.5503
15750.000000 82.243 175.5750
16000.000000 82.345 173.0663
16250.000000 82.289 167.5251
16500.000000 81.754 160.3801
16750.000000 80.742 153.8880
17000.000000 79.401 149.4666
17250.000000 77.968 147.3160
17500.000000 76.567 146.9498
17750.000000 75.263 147.4158
18000.000000 74.101 148.3132
18250.000000 72.915 149.1716
18500.000000 71.390 149.5822
18750.000000 69.436 156.2848
19000.000000 68.801 169.4176
19250.000000 69.195 176.0554
19500.000000 69.447 177.0463
19750.000000 69.208 175.9093
20000.000000 68.332 173.7480
20300.000000 66.501 171.7433
20600.000000 63.883 170.7486
20900.000000 60.295 171.2149
21200.000000 55.948 169.3441
21400.000000 52.086 170.0538
21800.000000 42.059 160.2845
22000.000000 35.714 164.2722
22400.000000 25.420 166.0681
22700.000000 13.194 -1.8672
23000.000000 15.534 -172.5488
23300.000000 21.791 -12.1328
23600.000000 26.953 122.4805
