* Measurement data measured by REW V5.30.2
* Source: Headset (USB-C to 3.5mm Headphone Jack Adapter), MICROPHONE (Master Volume), L, volume: 0.250
* Format: 512k Log Swept Sine, 1 sweep at -12.0 dBFS with no timing reference
* Dated: Jan 15, 2024 10:07:52 PM
* REW Settings:
*  C-weighting compensation: Off
*  Target level: 75.0 dB
* Note: ; 
* Measurement: SM2 B Ext Deep L
* Smoothing: 1/24 octave
* Frequency Step: 1/48 octave
* Start Frequency: 20.300 Hz
*
* Freq(Hz) SPL(dB) Phase(degrees)
20.299999 100.097 -106.0562
20.600000 100.118 -106.7725
20.900000 100.153 -108.0202
21.200001 100.174 -109.1228
21.400000 100.182 -109.7878
21.799999 100.190 -111.0681
22.000000 100.191 -111.7248
22.400000 100.184 -113.0838
22.700001 100.172 -114.1229
23.000000 100.156 -115.1529
23.299999 100.142 -116.1538
23.600000 100.134 -117.1269
24.000000 100.142 -118.3977
24.299999 100.162 -119.3340
24.700001 100.205 -120.5170
25.000000 100.244 -121.2950
25.400000 100.293 -122.1239
25.799999 100.326 -122.7550
26.200001 100.337 -123.3775
26.500000 100.333 -123.9841
26.900000 100.321 -125.0820
27.200001 100.313 -126.0892
27.600000 100.304 -127.5087
28.000000 100.291 -128.7723
28.500000 100.253 -129.9739
29.000000 100.198 -131.0158
29.500000 100.155 -132.3181
30.000000 100.148 -133.9665
30.400000 100.163 -135.2891
30.700001 100.176 -136.1303
31.100000 100.188 -136.9729
31.500000 100.196 -137.5841
32.000000 100.208 -138.3132
32.500000 100.225 -139.2285
33.000000 100.235 -140.2621
33.500000 100.225 -141.2249
34.000000 100.199 -142.0893
34.500000 100.169 -142.9919
35.000000 100.140 -143.9796
35.500000 100.117 -144.9084
36.000000 100.106 -145.6447
36.500000 100.108 -146.2772
37.000000 100.110 -147.0336
37.500000 100.092 -147.9833
38.200001 100.030 -149.2673
38.700001 99.983 -149.9038
39.500000 99.934 -150.7193
40.000000 99.909 -151.4037
40.599998 99.881 -152.4088
41.200001 99.873 -153.3977
41.799999 99.879 -154.2830
42.500000 99.863 -155.2382
43.099998 99.818 -155.9967
43.700001 99.766 -156.7092
44.400002 99.721 -157.5791
45.000000 99.701 -158.3623
45.500000 99.698 -158.9505
46.200001 99.699 -159.6249
46.799999 99.685 -160.2045
47.500000 99.657 -161.0906
48.200001 99.652 -162.1410
48.700001 99.660 -162.8474
49.400002 99.645 -163.6109
50.000000 99.599 -164.0542
50.799999 99.542 -164.5702
51.500000 99.519 -165.1576
52.200001 99.493 -165.8463
53.000000 99.449 -166.6304
53.799999 99.404 -167.4175
54.500000 99.360 -168.0828
55.200001 99.310 -168.6672
56.000000 99.271 -169.2895
57.000000 99.244 -170.0713
58.000000 99.198 -170.8059
59.000000 99.140 -171.5553
60.000000 99.088 -172.2887
60.799999 99.045 -172.8222
61.500000 99.002 -173.2610
62.200001 98.958 -173.6928
63.000000 98.907 -174.2001
64.000000 98.840 -174.8579
65.000000 98.797 -175.4881
66.000000 98.793 -176.0854
67.000000 98.764 -176.7301
68.000000 98.688 -177.3161
69.000000 98.621 -177.7599
70.000000 98.579 -178.2004
71.000000 98.543 -178.6993
72.000000 98.499 -179.2630
73.000000 98.439 -179.8191
74.000000 98.367 179.7293
75.000000 98.285 179.3220
76.199997 98.197 178.7847
77.500000 98.131 178.2169
78.800003 98.072 177.7094
80.000000 98.018 177.2572
81.199997 97.963 176.7662
82.500000 97.911 176.2589
83.800003 97.858 175.7749
85.000000 97.803 175.3801
86.199997 97.750 175.0681
87.500000 97.697 174.7143
88.500000 97.658 174.4233
90.000000 97.603 173.9949
91.199997 97.557 173.6300
92.500000 97.507 173.1922
93.800003 97.462 172.7656
95.000000 97.418 172.4650
96.199997 97.369 172.2383
97.500000 97.310 171.9797
98.800003 97.256 171.6954
100.000000 97.221 171.4086
101.500000 97.183 171.0035
103.000000 97.128 170.6334
104.400002 97.073 170.4045
106.000000 97.010 170.1854
107.500000 96.947 169.9543
109.000000 96.888 169.7102
110.599998 96.823 169.4778
112.000000 96.769 169.2926
113.800003 96.708 169.0283
115.000000 96.665 168.8503
117.199997 96.566 168.5501
118.000000 96.521 168.4218
120.599998 96.420 168.0096
122.000000 96.410 167.8605
124.099998 96.356 167.7020
125.000000 96.325 167.6375
126.500000 96.280 167.5259
128.000000 96.236 167.4145
131.500000 96.130 167.1771
132.000000 96.116 167.1391
134.000000 96.057 166.9738
136.000000 95.996 166.8275
138.000000 95.937 166.7132
140.000000 95.879 166.6143
143.000000 95.794 166.4705
145.000000 95.740 166.3782
147.500000 95.672 166.2822
150.000000 95.605 166.2051
152.500000 95.541 166.1404
155.000000 95.480 166.0846
157.500000 95.418 166.0345
160.000000 95.351 166.0030
162.500000 95.282 165.9902
165.000000 95.212 165.9748
167.500000 95.146 165.9573
170.000000 95.080 165.9580
172.500000 95.011 165.9639
175.000000 94.941 165.9733
177.500000 94.873 165.9850
180.000000 94.807 166.0058
182.500000 94.742 166.0511
185.000000 94.680 166.1045
187.500000 94.620 166.1677
190.000000 94.561 166.2493
192.500000 94.499 166.3364
195.000000 94.436 166.4202
197.500000 94.375 166.5364
200.000000 94.319 166.6675
203.000000 94.262 166.8281
206.000000 94.224 167.0036
209.000000 94.189 167.1705
212.000000 94.156 167.3188
214.000000 94.135 167.3840
218.000000 94.091 167.4774
220.000000 94.067 167.5220
224.000000 94.014 167.6052
227.000000 93.970 167.6771
230.000000 93.928 167.7706
233.000000 93.888 167.8816
236.000000 93.848 168.0076
240.000000 93.793 168.1853
243.000000 93.752 168.3051
247.000000 93.699 168.4678
250.000000 93.660 168.5981
254.000000 93.610 168.7760
258.000000 93.559 168.9782
262.000000 93.506 169.2009
265.000000 93.469 169.3658
269.000000 93.421 169.5630
272.000000 93.385 169.7083
276.000000 93.339 169.9274
280.000000 93.296 170.1486
285.000000 93.241 170.4116
290.000000 93.185 170.6746
295.000000 93.136 170.9432
300.000000 93.090 171.2274
304.000000 93.051 171.4521
307.000000 93.022 171.6213
311.000000 92.984 171.8482
315.000000 92.948 172.0764
320.000000 92.903 172.3720
325.000000 92.862 172.6566
330.000000 92.822 172.9353
335.000000 92.783 173.2300
340.000000 92.746 173.5182
345.000000 92.712 173.8055
350.000000 92.677 174.0949
355.000000 92.640 174.3831
360.000000 92.602 174.6728
365.000000 92.569 174.9719
370.000000 92.540 175.2710
375.000000 92.513 175.5635
382.000000 92.471 175.9858
387.000000 92.442 176.2812
395.000000 92.399 176.7411
400.000000 92.373 177.0354
406.000000 92.342 177.3978
412.000000 92.313 177.7622
418.000000 92.286 178.1094
425.000000 92.255 178.5121
431.000000 92.229 178.8600
437.000000 92.203 179.2083
444.000000 92.175 179.6167
450.000000 92.151 179.9648
455.000000 92.131 -179.7430
462.000000 92.104 -179.3328
468.000000 92.083 -178.9886
475.000000 92.060 -178.5891
482.000000 92.037 -178.1822
487.000000 92.021 -177.8915
494.000000 92.001 -177.4898
500.000000 91.984 -177.1462
508.000000 91.962 -176.6795
515.000000 91.945 -176.2654
522.000000 91.928 -175.8578
530.000000 91.909 -175.3987
538.000000 91.891 -174.9344
545.000000 91.876 -174.5240
552.000000 91.863 -174.1154
560.000000 91.849 -173.6508
570.000000 91.831 -173.0690
580.000000 91.813 -172.4794
590.000000 91.797 -171.8854
600.000000 91.784 -171.2972
608.000000 91.775 -170.8272
615.000000 91.767 -170.4106
622.000000 91.760 -169.9888
630.000000 91.752 -169.5072
640.000000 91.743 -168.9049
650.000000 91.736 -168.2968
660.000000 91.732 -167.6828
670.000000 91.731 -167.0668
680.000000 91.732 -166.4488
690.000000 91.734 -165.8311
700.000000 91.737 -165.2143
710.000000 91.741 -164.5807
720.000000 91.747 -163.9288
730.000000 91.755 -163.2796
740.000000 91.767 -162.6389
750.000000 91.782 -162.0001
762.000000 91.803 -161.2342
775.000000 91.829 -160.3936
788.000000 91.858 -159.5439
800.000000 91.887 -158.7642
812.000000 91.916 -157.9883
825.000000 91.949 -157.1459
838.000000 91.988 -156.3083
850.000000 92.029 -155.5453
862.000000 92.075 -154.7949
875.000000 92.128 -153.9941
885.000000 92.173 -153.3860
900.000000 92.247 -152.4939
912.000000 92.310 -151.7987
925.000000 92.385 -151.0679
938.000000 92.464 -150.3659
950.000000 92.540 -149.7454
962.000000 92.620 -149.1489
975.000000 92.710 -148.5319
988.000000 92.803 -147.9520
1000.000000 92.890 -147.4499
1015.000000 92.999 -146.8692
1030.000000 93.109 -146.3453
1044.000000 93.214 -145.9120
1060.000000 93.339 -145.4936
1075.000000 93.459 -145.2075
1090.000000 93.569 -145.0794
1106.000000 93.652 -145.0284
1120.000000 93.702 -144.8185
1138.000000 93.791 -144.3421
1150.000000 93.868 -144.0573
1172.000000 94.015 -143.7042
1180.000000 94.067 -143.6163
1206.000000 94.226 -143.4218
1220.000000 94.306 -143.3563
1241.000000 94.423 -143.2937
1250.000000 94.473 -143.2761
1265.000000 94.558 -143.2569
1280.000000 94.643 -143.2492
1315.000000 94.830 -143.2661
1320.000000 94.856 -143.2709
1340.000000 94.955 -143.2912
1360.000000 95.048 -143.3124
1380.000000 95.137 -143.3401
1400.000000 95.223 -143.3680
1430.000000 95.346 -143.4024
1450.000000 95.424 -143.4210
1475.000000 95.519 -143.4432
1500.000000 95.610 -143.4521
1525.000000 95.698 -143.4483
1550.000000 95.785 -143.4393
1575.000000 95.871 -143.4254
1600.000000 95.957 -143.4061
1625.000000 96.043 -143.3855
1650.000000 96.131 -143.3585
1675.000000 96.218 -143.3263
1700.000000 96.305 -143.2922
1725.000000 96.392 -143.2578
1750.000000 96.480 -143.2228
1775.000000 96.568 -143.1881
1800.000000 96.656 -143.1543
1825.000000 96.744 -143.1232
1850.000000 96.834 -143.0982
1875.000000 96.924 -143.0772
1900.000000 97.014 -143.0600
1925.000000 97.105 -143.0506
1950.000000 97.197 -143.0486
1975.000000 97.291 -143.0529
2000.000000 97.386 -143.0615
2030.000000 97.503 -143.0803
2060.000000 97.621 -143.1122
2090.000000 97.742 -143.1596
2120.000000 97.863 -143.2230
2140.000000 97.945 -143.2751
2180.000000 98.111 -143.4010
2200.000000 98.194 -143.4764
2240.000000 98.364 -143.6541
2270.000000 98.492 -143.8134
2300.000000 98.621 -143.9951
2330.000000 98.751 -144.1988
2360.000000 98.884 -144.4261
2400.000000 99.062 -144.7685
2430.000000 99.197 -145.0565
2470.000000 99.379 -145.4871
2500.000000 99.519 -145.8473
2540.000000 99.709 -146.3793
2580.000000 99.901 -146.9759
2620.000000 100.095 -147.6396
2650.000000 100.241 -148.1842
2690.000000 100.437 -148.9780
2720.000000 100.583 -149.6258
2760.000000 100.777 -150.5598
2800.000000 100.970 -151.5810
2850.000000 101.207 -152.9903
2900.000000 101.438 -154.5500
2950.000000 101.662 -156.2766
3000.000000 101.874 -158.1761
3040.000000 102.034 -159.8220
3070.000000 102.147 -161.1315
3110.000000 102.284 -162.9777
3150.000000 102.405 -164.9340
3200.000000 102.528 -167.5228
3250.000000 102.619 -170.2577
3300.000000 102.673 -173.1132
3350.000000 102.689 -176.0616
3400.000000 102.662 -179.0679
3450.000000 102.590 177.9050
3500.000000 102.475 174.9003
3550.000000 102.315 171.9615
3600.000000 102.115 169.1256
3650.000000 101.876 166.4241
3700.000000 101.603 163.8837
3750.000000 101.301 161.5266
3820.000000 100.835 158.5662
3870.000000 100.478 156.7053
3950.000000 99.877 154.1589
4000.000000 99.487 152.8302
4060.000000 99.008 151.4891
4120.000000 98.524 150.4152
4180.000000 98.040 149.5886
4250.000000 97.479 148.9082
4310.000000 97.004 148.5511
4370.000000 96.537 148.3883
4440.000000 96.003 148.4226
4500.000000 95.556 148.6208
4550.000000 95.194 148.8954
4620.000000 94.701 149.4361
4680.000000 94.292 150.0251
4750.000000 93.831 150.8361
4820.000000 93.386 151.7563
4870.000000 93.077 152.4710
4940.000000 92.656 153.5473
5000.000000 92.301 154.5362
5080.000000 91.836 155.9503
5150.000000 91.436 157.2774
5220.000000 91.046 158.6915
5300.000000 90.611 160.4260
5380.000000 90.189 162.2940
5450.000000 89.832 164.0383
5520.000000 89.487 165.8717
5600.000000 89.109 168.0691
5700.000000 88.659 170.9623
5800.000000 88.226 174.0424
5900.000000 87.794 177.5350
6000.000000 87.421 -177.9393
6080.000000 87.360 -173.8060
6150.000000 87.491 -171.3535
6220.000000 87.550 -170.3703
6300.000000 87.426 -169.4651
6400.000000 87.181 -167.4353
6500.000000 86.973 -164.7920
6600.000000 86.815 -161.9418
6700.000000 86.696 -159.0215
6800.000000 86.611 -156.0964
6900.000000 86.557 -153.1722
7000.000000 86.537 -150.2514
7100.000000 86.550 -147.3680
7200.000000 86.599 -144.5594
7300.000000 86.680 -141.8444
7400.000000 86.788 -139.2298
7500.000000 86.924 -136.7226
7620.000000 87.124 -133.8834
7750.000000 87.391 -131.0022
7880.000000 87.710 -128.3520
8000.000000 88.035 -126.1709
8120.000000 88.381 -124.2857
8250.000000 88.795 -122.6425
8380.000000 89.259 -121.5126
8500.000000 89.728 -121.0001
8620.000000 90.223 -121.0793
8750.000000 90.769 -121.9181
8850.000000 91.174 -123.1141
9000.000000 91.718 -125.6964
9120.000000 92.078 -128.1938
9250.000000 92.416 -130.9508
9380.000000 92.778 -133.6254
9500.000000 93.198 -136.4485
9620.000000 93.673 -140.3937
9750.000000 94.098 -146.4641
9880.000000 94.264 -153.9455
10000.000000 94.135 -161.0466
10150.000000 93.664 -168.8321
10300.000000 93.002 -174.7682
10440.000000 92.343 -178.7469
10600.000000 91.637 178.0682
10750.000000 91.066 175.9335
10900.000000 90.594 174.2552
11060.000000 90.196 172.6479
11200.000000 89.927 171.2035
11380.000000 89.672 169.0742
11500.000000 89.544 167.3687
11720.000000 89.351 163.4368
11800.000000 89.281 161.7109
12060.000000 88.987 154.9979
12200.000000 88.749 150.7836
12410.000000 88.244 143.9832
12500.000000 87.971 141.0076
12650.000000 87.442 136.1397
12800.000000 86.830 131.5461
13150.000000 85.167 122.4767
13200.000000 84.914 121.3841
13400.000000 83.900 117.4713
13600.000000 82.911 114.1492
13800.000000 81.972 111.2424
14000.000000 81.097 108.5589
14300.000000 79.945 104.5284
14500.000000 79.296 101.5915
14750.000000 78.609 97.3373
15000.000000 78.068 92.2302
15250.000000 77.669 86.1221
15500.000000 77.421 78.8714
15750.000000 77.319 70.4471
16000.000000 77.379 60.8577
16250.000000 77.689 49.5898
16500.000000 78.208 34.7655
16750.000000 78.534 16.0272
17000.000000 78.486 -3.5107
17250.000000 78.567 -21.8613
17500.000000 78.979 -42.9504
17750.000000 79.220 -67.8180
18000.000000 79.125 -94.6740
18250.000000 78.746 -122.3990
18500.000000 78.178 -150.7107
18750.000000 77.512 -179.9710
19000.000000 76.791 149.0295
19250.000000 75.983 115.4791
19500.000000 75.002 79.4180
19750.000000 73.852 44.7042
