* Measurement data measured by REW V5.30.2
* Source: Headset (USB-C to 3.5mm Headphone Jack Adapter), MICROPHONE (Master Volume), L, volume: 0.250
* Format: 512k Log Swept Sine, 1 sweep at -12.0 dBFS with no timing reference
* Dated: Jan 15, 2024 11:04:33 PM
* REW Settings:
*  C-weighting compensation: Off
*  Target level: 75.0 dB
* Note: ; 
* Measurement: SM2 Stock Deep R
* Smoothing: 1/24 octave
* Frequency Step: 1/48 octave
* Start Frequency: 20.300 Hz
*
* Freq(Hz) SPL(dB) Phase(degrees)
20.299999 99.643 -102.3976
20.600000 99.684 -103.0798
20.900000 99.747 -104.3007
21.200001 99.766 -105.4599
21.400000 99.761 -106.1799
21.799999 99.740 -107.5288
22.000000 99.735 -108.1709
22.400000 99.750 -109.4040
22.700001 99.779 -110.3273
23.000000 99.814 -111.2955
23.299999 99.841 -112.3131
23.600000 99.858 -113.3547
24.000000 99.866 -114.7118
24.299999 99.873 -115.6519
24.700001 99.896 -116.7772
25.000000 99.926 -117.5566
25.400000 99.969 -118.5939
25.799999 99.991 -119.7238
26.200001 99.979 -120.9704
26.500000 99.956 -121.9359
26.900000 99.928 -123.1650
27.200001 99.923 -123.9763
27.600000 99.943 -124.8762
28.000000 99.972 -125.6299
28.500000 99.984 -126.5769
29.000000 99.961 -127.7314
29.500000 99.941 -129.0746
30.000000 99.962 -130.3978
30.400000 99.997 -131.3313
30.700001 100.016 -131.9605
31.100000 100.015 -132.7695
31.500000 99.988 -133.6089
32.000000 99.945 -134.7193
32.500000 99.928 -135.7964
33.000000 99.935 -136.7260
33.500000 99.941 -137.5260
34.000000 99.930 -138.3249
34.500000 99.912 -139.2250
35.000000 99.906 -140.2146
35.500000 99.916 -141.2019
36.000000 99.929 -142.1107
36.500000 99.932 -142.9350
37.000000 99.919 -143.7243
37.500000 99.895 -144.5301
38.200001 99.857 -145.7168
38.700001 99.833 -146.5933
39.500000 99.799 -148.0253
40.000000 99.781 -148.9131
40.599998 99.769 -149.8871
41.200001 99.768 -150.6846
41.799999 99.769 -151.3639
42.500000 99.752 -152.2042
43.099998 99.721 -153.0215
43.700001 99.692 -153.8359
44.400002 99.673 -154.7396
45.000000 99.680 -155.5354
45.500000 99.700 -156.1968
46.200001 99.733 -156.9822
46.799999 99.730 -157.5131
47.500000 99.683 -158.1951
48.200001 99.634 -159.0240
48.700001 99.611 -159.5676
49.400002 99.566 -160.1388
50.000000 99.502 -160.6296
50.799999 99.439 -161.6006
51.500000 99.433 -162.6019
52.200001 99.425 -163.4399
53.000000 99.387 -164.1607
53.799999 99.356 -164.7951
54.500000 99.329 -165.3438
55.200001 99.293 -165.9112
56.000000 99.266 -166.5860
57.000000 99.248 -167.4285
58.000000 99.196 -168.2870
59.000000 99.140 -169.1026
60.000000 99.096 -169.8249
60.799999 99.057 -170.3922
61.500000 99.023 -170.9024
62.200001 98.994 -171.4196
63.000000 98.956 -171.9853
64.000000 98.894 -172.6440
65.000000 98.846 -173.3097
66.000000 98.823 -173.9424
67.000000 98.794 -174.5465
68.000000 98.742 -175.1452
69.000000 98.686 -175.6993
70.000000 98.641 -176.2579
71.000000 98.608 -176.8261
72.000000 98.573 -177.3528
73.000000 98.523 -177.8577
74.000000 98.455 -178.3974
75.000000 98.371 -178.9024
76.199997 98.289 -179.3937
77.500000 98.237 -179.9638
78.800003 98.180 179.4150
80.000000 98.119 178.9576
81.199997 98.064 178.5519
82.500000 98.022 178.0477
83.800003 97.981 177.4833
85.000000 97.940 176.9532
86.199997 97.896 176.4517
87.500000 97.842 175.9537
88.500000 97.795 175.6245
90.000000 97.718 175.1797
91.199997 97.660 174.8365
92.500000 97.604 174.4792
93.800003 97.554 174.1267
95.000000 97.513 173.7995
96.199997 97.477 173.4685
97.500000 97.446 173.1252
98.800003 97.417 172.8320
100.000000 97.380 172.6048
101.500000 97.313 172.3281
103.000000 97.239 171.9250
104.400002 97.187 171.4797
106.000000 97.146 171.2050
107.500000 97.081 171.0504
109.000000 97.002 170.6750
110.599998 96.952 170.2852
112.000000 96.909 170.1176
113.800003 96.843 169.8225
115.000000 96.805 169.6610
117.199997 96.749 169.4241
118.000000 96.749 169.4434
120.599998 96.734 169.4217
122.000000 96.655 168.9174
124.099998 96.526 168.4498
125.000000 96.478 168.3619
126.500000 96.411 168.1941
128.000000 96.364 167.9974
131.500000 96.270 167.6929
132.000000 96.254 167.6532
134.000000 96.191 167.4798
136.000000 96.129 167.3059
138.000000 96.071 167.1720
140.000000 96.015 167.0412
143.000000 95.928 166.8444
145.000000 95.870 166.7357
147.500000 95.801 166.6185
150.000000 95.735 166.5027
152.500000 95.667 166.4042
155.000000 95.599 166.3235
157.500000 95.532 166.2513
160.000000 95.464 166.1869
162.500000 95.390 166.1281
165.000000 95.313 166.0865
167.500000 95.240 166.0843
170.000000 95.167 166.0875
172.500000 95.093 166.1023
175.000000 95.021 166.1290
177.500000 94.951 166.1660
180.000000 94.881 166.2230
182.500000 94.813 166.3116
185.000000 94.747 166.4288
187.500000 94.684 166.5493
190.000000 94.627 166.6581
192.500000 94.576 166.7661
195.000000 94.530 166.8641
197.500000 94.484 166.9346
200.000000 94.441 166.9927
203.000000 94.392 167.0864
206.000000 94.343 167.1884
209.000000 94.297 167.2905
212.000000 94.250 167.3869
214.000000 94.219 167.4529
218.000000 94.164 167.5898
220.000000 94.138 167.6578
224.000000 94.086 167.7912
227.000000 94.047 167.8888
230.000000 94.007 167.9855
233.000000 93.966 168.0833
236.000000 93.927 168.1854
240.000000 93.875 168.3190
243.000000 93.833 168.4201
247.000000 93.778 168.5844
250.000000 93.735 168.7208
254.000000 93.675 168.9128
258.000000 93.618 169.1180
262.000000 93.563 169.3108
265.000000 93.522 169.4417
269.000000 93.470 169.6331
272.000000 93.432 169.8099
276.000000 93.379 170.0645
280.000000 93.327 170.3277
285.000000 93.264 170.6401
290.000000 93.204 170.9538
295.000000 93.147 171.2661
300.000000 93.093 171.5848
304.000000 93.050 171.8502
307.000000 93.017 172.0562
311.000000 92.975 172.3278
315.000000 92.939 172.5997
320.000000 92.896 172.9510
325.000000 92.852 173.3132
330.000000 92.813 173.6748
335.000000 92.779 174.0304
340.000000 92.745 174.3636
345.000000 92.711 174.6878
350.000000 92.679 175.0045
355.000000 92.645 175.3192
360.000000 92.608 175.6409
365.000000 92.574 175.9637
370.000000 92.542 176.2934
375.000000 92.510 176.6195
382.000000 92.466 177.0807
387.000000 92.436 177.4139
395.000000 92.390 177.9546
400.000000 92.362 178.2953
406.000000 92.331 178.7052
412.000000 92.301 179.1171
418.000000 92.271 179.5302
425.000000 92.238 -179.9887
431.000000 92.212 -179.5789
437.000000 92.186 -179.1638
444.000000 92.157 -178.6719
450.000000 92.134 -178.2575
455.000000 92.116 -177.9135
462.000000 92.090 -177.4213
468.000000 92.069 -177.0001
475.000000 92.045 -176.5157
482.000000 92.022 -176.0286
487.000000 92.006 -175.6823
494.000000 91.985 -175.2040
500.000000 91.969 -174.7928
508.000000 91.948 -174.2371
515.000000 91.931 -173.7446
522.000000 91.914 -173.2542
530.000000 91.897 -172.7001
538.000000 91.881 -172.1414
545.000000 91.869 -171.6452
552.000000 91.858 -171.1475
560.000000 91.845 -170.5801
570.000000 91.830 -169.8818
580.000000 91.819 -169.1805
590.000000 91.807 -168.4632
600.000000 91.796 -167.7464
608.000000 91.790 -167.1697
615.000000 91.786 -166.6614
622.000000 91.784 -166.1559
630.000000 91.782 -165.5825
640.000000 91.782 -164.8621
650.000000 91.782 -164.1309
660.000000 91.783 -163.3971
670.000000 91.787 -162.6612
680.000000 91.795 -161.9238
690.000000 91.805 -161.1826
700.000000 91.815 -160.4382
710.000000 91.829 -159.6873
720.000000 91.845 -158.9327
730.000000 91.863 -158.1814
740.000000 91.884 -157.4241
750.000000 91.908 -156.6597
762.000000 91.939 -155.7464
775.000000 91.978 -154.7579
788.000000 92.021 -153.7717
800.000000 92.063 -152.8618
812.000000 92.106 -151.9474
825.000000 92.156 -150.9648
838.000000 92.210 -150.0009
850.000000 92.266 -149.1175
862.000000 92.326 -148.2421
875.000000 92.397 -147.3085
885.000000 92.456 -146.6057
900.000000 92.550 -145.5773
912.000000 92.630 -144.7738
925.000000 92.721 -143.9290
938.000000 92.818 -143.1172
950.000000 92.912 -142.3989
962.000000 93.010 -141.7142
975.000000 93.119 -141.0103
988.000000 93.231 -140.3351
1000.000000 93.333 -139.7430
1015.000000 93.459 -139.0654
1030.000000 93.586 -138.4514
1044.000000 93.705 -137.9173
1060.000000 93.841 -137.3660
1075.000000 93.968 -136.9061
1090.000000 94.093 -136.4870
1106.000000 94.226 -136.0628
1120.000000 94.346 -135.7280
1138.000000 94.504 -135.3884
1150.000000 94.608 -135.2191
1172.000000 94.800 -135.0363
1180.000000 94.871 -135.0269
1206.000000 95.082 -135.4027
1220.000000 95.139 -135.9066
1241.000000 95.080 -136.2117
1250.000000 95.046 -135.8693
1265.000000 95.071 -134.9392
1280.000000 95.183 -134.1440
1315.000000 95.490 -133.3444
1320.000000 95.530 -133.2876
1340.000000 95.677 -133.1037
1360.000000 95.813 -132.9529
1380.000000 95.941 -132.8177
1400.000000 96.063 -132.6858
1430.000000 96.238 -132.4908
1450.000000 96.350 -132.3646
1475.000000 96.487 -132.2021
1500.000000 96.623 -132.0373
1525.000000 96.757 -131.8718
1550.000000 96.891 -131.7081
1575.000000 97.023 -131.5468
1600.000000 97.155 -131.3877
1625.000000 97.290 -131.2325
1650.000000 97.427 -131.0849
1675.000000 97.566 -130.9471
1700.000000 97.707 -130.8223
1725.000000 97.848 -130.7084
1750.000000 97.990 -130.6042
1775.000000 98.133 -130.5146
1800.000000 98.276 -130.4427
1825.000000 98.421 -130.3884
1850.000000 98.565 -130.3509
1875.000000 98.712 -130.3367
1900.000000 98.860 -130.3478
1925.000000 99.008 -130.3783
1950.000000 99.158 -130.4321
1975.000000 99.308 -130.5142
2000.000000 99.460 -130.6241
2030.000000 99.645 -130.7939
2060.000000 99.830 -131.0059
2090.000000 100.016 -131.2616
2120.000000 100.202 -131.5635
2140.000000 100.326 -131.7917
2180.000000 100.572 -132.3133
2200.000000 100.694 -132.6065
2240.000000 100.934 -133.2601
2270.000000 101.112 -133.8090
2300.000000 101.288 -134.4107
2330.000000 101.462 -135.0666
2360.000000 101.631 -135.7738
2400.000000 101.851 -136.7930
2430.000000 102.011 -137.6140
2470.000000 102.214 -138.7796
2500.000000 102.360 -139.7037
2540.000000 102.546 -141.0016
2580.000000 102.720 -142.3733
2620.000000 102.880 -143.8075
2650.000000 102.990 -144.9166
2690.000000 103.122 -146.4370
2720.000000 103.211 -147.6018
2760.000000 103.314 -149.1784
2800.000000 103.399 -150.7714
2850.000000 103.483 -152.7720
2900.000000 103.542 -154.7647
2950.000000 103.579 -156.7299
3000.000000 103.592 -158.6547
3040.000000 103.587 -160.1583
3070.000000 103.575 -161.2624
3110.000000 103.549 -162.6988
3150.000000 103.511 -164.0876
3200.000000 103.450 -165.7561
3250.000000 103.375 -167.3508
3300.000000 103.290 -168.8676
3350.000000 103.197 -170.3067
3400.000000 103.097 -171.6754
3450.000000 102.992 -172.9791
3500.000000 102.881 -174.2225
3550.000000 102.767 -175.4117
3600.000000 102.650 -176.5525
3650.000000 102.531 -177.6506
3700.000000 102.410 -178.7110
3750.000000 102.287 -179.7414
3820.000000 102.112 178.8544
3870.000000 101.983 177.8769
3950.000000 101.770 176.3441
4000.000000 101.632 175.4000
4060.000000 101.456 174.2792
4120.000000 101.271 173.1713
4180.000000 101.078 172.0800
4250.000000 100.842 170.8304
4310.000000 100.631 169.7856
4370.000000 100.411 168.7675
4440.000000 100.143 167.6113
4500.000000 99.904 166.6450
4550.000000 99.697 165.8564
4620.000000 99.391 164.7847
4680.000000 99.112 163.9095
4750.000000 98.768 162.9606
4820.000000 98.402 162.1247
4870.000000 98.128 161.6197
4940.000000 97.728 161.0672
5000.000000 97.374 160.7524
5080.000000 96.891 160.5697
5150.000000 96.467 160.6187
5220.000000 96.048 160.8342
5300.000000 95.577 161.2469
5380.000000 95.114 161.8059
5450.000000 94.716 162.4067
5520.000000 94.321 163.1071
5600.000000 93.873 164.0230
5700.000000 93.312 165.3511
5800.000000 92.734 166.9478
5900.000000 92.111 169.1456
6000.000000 91.505 173.0026
6080.000000 91.321 177.1507
6150.000000 91.423 179.4295
6220.000000 91.473 179.9716
6300.000000 91.349 179.9499
6400.000000 91.004 -179.6297
6500.000000 90.602 -178.2045
6600.000000 90.242 -176.1876
6700.000000 89.931 -173.9225
6800.000000 89.658 -171.5311
6900.000000 89.420 -169.0605
7000.000000 89.216 -166.5368
7100.000000 89.045 -163.9839
7200.000000 88.907 -161.4352
7300.000000 88.799 -158.9214
7400.000000 88.719 -156.4435
7500.000000 88.664 -153.9872
7620.000000 88.633 -151.0696
7750.000000 88.651 -147.9721
7880.000000 88.723 -144.9777
8000.000000 88.825 -142.3412
8120.000000 88.953 -139.8638
8250.000000 89.135 -137.4169
8380.000000 89.381 -135.2625
8500.000000 89.669 -133.5836
8620.000000 90.020 -132.2719
8750.000000 90.473 -131.3696
8850.000000 90.873 -131.1360
9000.000000 91.555 -131.7416
9120.000000 92.153 -133.2850
9250.000000 92.818 -136.3173
9380.000000 93.436 -141.0088
9500.000000 93.884 -146.8918
9620.000000 94.133 -154.0836
9750.000000 94.106 -162.7553
9880.000000 93.743 -171.4199
10000.000000 93.145 -178.6361
10150.000000 92.146 174.0681
10300.000000 90.996 168.8835
10440.000000 89.885 165.7791
10600.000000 88.651 163.8985
10750.000000 87.570 163.3938
10900.000000 86.580 163.8395
11060.000000 85.636 165.1647
11200.000000 84.908 166.9442
11380.000000 84.123 169.9980
11500.000000 83.714 172.4598
11720.000000 83.274 177.5213
11800.000000 83.233 179.3432
12060.000000 83.501 -176.2229
12200.000000 83.786 -175.3734
12410.000000 84.170 -175.9840
12500.000000 84.292 -176.6472
12650.000000 84.448 -177.8685
12800.000000 84.572 -178.9625
13150.000000 84.955 179.2469
13200.000000 85.037 179.0378
13400.000000 85.462 178.1516
13600.000000 86.074 176.9600
13800.000000 86.909 175.1069
14000.000000 88.019 172.1858
14300.000000 90.327 164.2222
14500.000000 92.279 154.3707
14750.000000 94.610 132.4051
15000.000000 95.609 98.0950
15250.000000 94.519 62.0863
15500.000000 91.931 36.0097
15750.000000 89.050 18.9069
16000.000000 86.561 5.8264
16250.000000 84.501 -6.1647
16500.000000 82.770 -18.3646
16750.000000 81.311 -31.4910
17000.000000 80.007 -45.8461
17250.000000 78.800 -60.1233
17500.000000 78.028 -75.3127
17750.000000 77.625 -93.6806
18000.000000 77.371 -115.2833
18250.000000 77.195 -140.1046
18500.000000 77.020 -168.3507
18750.000000 76.743 159.9267
19000.000000 76.275 124.9544
19250.000000 75.554 87.1345
19500.000000 74.549 47.4286
19750.000000 73.337 10.1555
