* Measurement data measured by REW V5.30.2
* Source: Headset (USB-C to 3.5mm Headphone Jack Adapter), MICROPHONE (Master Volume), L, volume: 0.250
* Format: 512k Log Swept Sine, 1 sweep at -12.0 dBFS with no timing reference
* Dated: Jan 15, 2024 10:19:14 PM
* REW Settings:
*  C-weighting compensation: Off
*  Target level: 75.0 dB
* Note: ; 
* Measurement: Sonic Memory SM2 M Ext L
* Smoothing: 1/24 octave
* Frequency Step: 1/48 octave
* Start Frequency: 20.300 Hz
*
* Freq(Hz) SPL(dB) Phase(degrees)
20.299999 99.675 -106.3217
20.600000 99.681 -106.9253
20.900000 99.691 -108.0044
21.200001 99.697 -109.0362
21.400000 99.701 -109.7034
21.799999 99.712 -111.0306
22.000000 99.719 -111.6936
22.400000 99.737 -112.9772
22.700001 99.752 -113.9040
23.000000 99.771 -114.8430
23.299999 99.792 -115.8488
23.600000 99.813 -116.9529
24.000000 99.843 -118.5695
24.299999 99.866 -119.8147
24.700001 99.895 -121.3604
25.000000 99.914 -122.3291
25.400000 99.928 -123.3126
25.799999 99.924 -124.0359
26.200001 99.904 -124.7080
26.500000 99.886 -125.3030
26.900000 99.871 -126.2926
27.200001 99.869 -127.1603
27.600000 99.872 -128.3813
28.000000 99.864 -129.5301
28.500000 99.821 -130.7437
29.000000 99.765 -131.7867
29.500000 99.744 -132.8454
30.000000 99.768 -134.0109
30.400000 99.791 -134.9669
30.700001 99.795 -135.6548
31.100000 99.780 -136.5144
31.500000 99.758 -137.3322
32.000000 99.756 -138.3375
32.500000 99.782 -139.2702
33.000000 99.789 -140.0078
33.500000 99.748 -140.5892
34.000000 99.688 -141.3198
34.500000 99.659 -142.4947
35.000000 99.663 -144.0301
35.500000 99.658 -145.4582
36.000000 99.620 -146.3672
36.500000 99.579 -146.7742
37.000000 99.576 -147.0785
37.500000 99.606 -147.6544
38.200001 99.624 -149.0041
38.700001 99.591 -150.0866
39.500000 99.505 -151.5310
40.000000 99.450 -152.2362
40.599998 99.401 -153.0267
41.200001 99.415 -153.9153
41.799999 99.499 -154.9276
42.500000 99.576 -156.0707
43.099998 99.536 -156.7839
43.700001 99.434 -157.2008
44.400002 99.331 -157.6091
45.000000 99.269 -158.2637
45.500000 99.214 -159.0872
46.200001 99.145 -160.3065
46.799999 99.122 -161.0365
47.500000 99.135 -161.5913
48.200001 99.155 -162.2653
48.700001 99.159 -162.8434
49.400002 99.141 -163.5209
50.000000 99.114 -163.9761
50.799999 99.093 -164.8137
51.500000 99.083 -165.7701
52.200001 99.038 -166.5778
53.000000 98.950 -167.3024
53.799999 98.876 -168.0285
54.500000 98.828 -168.5199
55.200001 98.785 -168.8226
56.000000 98.754 -169.2165
57.000000 98.739 -169.9669
58.000000 98.691 -170.8405
59.000000 98.626 -171.8519
60.000000 98.591 -172.8038
60.799999 98.557 -173.3644
61.500000 98.517 -173.7680
62.200001 98.481 -174.1491
63.000000 98.436 -174.5506
64.000000 98.360 -175.0335
65.000000 98.304 -175.5392
66.000000 98.275 -176.0492
67.000000 98.221 -176.6434
68.000000 98.140 -177.2911
69.000000 98.078 -177.9694
70.000000 98.050 -178.6972
71.000000 98.025 -179.2694
72.000000 97.985 -179.5959
73.000000 97.917 -179.9203
74.000000 97.823 179.6068
75.000000 97.733 179.0981
76.199997 97.656 178.5491
77.500000 97.585 178.0277
78.800003 97.507 177.5968
80.000000 97.478 177.0531
81.199997 97.496 176.5308
82.500000 97.453 176.2285
83.800003 97.348 175.7988
85.000000 97.274 175.3729
86.199997 97.203 174.9694
87.500000 97.141 174.4535
88.500000 97.094 174.0449
90.000000 97.016 173.5593
91.199997 96.979 173.2712
92.500000 96.937 173.0182
93.800003 96.889 172.7102
95.000000 96.850 172.4225
96.199997 96.805 172.1674
97.500000 96.752 171.8958
98.800003 96.690 171.6161
100.000000 96.641 171.4001
101.500000 96.587 171.1658
103.000000 96.528 170.8975
104.400002 96.469 170.5932
106.000000 96.402 170.2853
107.500000 96.337 170.0269
109.000000 96.288 169.7527
110.599998 96.243 169.4540
112.000000 96.188 169.2922
113.800003 96.122 169.1015
115.000000 96.083 168.9409
117.199997 95.994 168.5428
118.000000 95.974 168.3830
120.599998 95.971 167.9758
122.000000 95.895 168.1753
124.099998 95.791 168.5781
125.000000 95.765 168.5698
126.500000 95.734 168.2447
128.000000 95.696 167.8408
131.500000 95.537 167.6733
132.000000 95.514 167.6933
134.000000 95.437 167.7260
136.000000 95.374 167.6411
138.000000 95.306 167.5925
140.000000 95.232 167.5143
143.000000 95.160 167.4111
145.000000 95.112 167.4254
147.500000 95.036 167.4296
150.000000 94.974 167.3513
152.500000 94.918 167.4061
155.000000 94.864 167.4788
157.500000 94.804 167.4571
160.000000 94.754 167.4531
162.500000 94.688 167.3675
165.000000 94.603 167.5356
167.500000 94.553 167.8238
170.000000 94.528 167.9081
172.500000 94.491 167.8019
175.000000 94.428 167.6835
177.500000 94.350 167.6767
180.000000 94.272 167.6894
182.500000 94.205 167.6519
185.000000 94.150 167.6240
187.500000 94.096 167.6517
190.000000 94.038 167.6977
192.500000 93.978 167.7566
195.000000 93.919 167.8399
197.500000 93.862 167.9335
200.000000 93.809 168.0156
203.000000 93.751 168.1249
206.000000 93.697 168.2586
209.000000 93.646 168.3969
212.000000 93.600 168.5375
214.000000 93.568 168.6261
218.000000 93.503 168.8028
220.000000 93.470 168.9080
224.000000 93.409 169.1235
227.000000 93.365 169.2952
230.000000 93.323 169.4555
233.000000 93.283 169.6065
236.000000 93.241 169.7855
240.000000 93.190 170.0800
243.000000 93.157 170.2981
247.000000 93.114 170.5293
250.000000 93.076 170.6982
254.000000 93.024 170.9602
258.000000 92.968 171.2224
262.000000 92.908 171.4775
265.000000 92.869 171.6882
269.000000 92.821 171.9614
272.000000 92.785 172.1365
276.000000 92.744 172.3789
280.000000 92.700 172.6955
285.000000 92.647 173.0554
290.000000 92.603 173.4294
295.000000 92.556 173.8058
300.000000 92.510 174.1591
304.000000 92.479 174.4435
307.000000 92.457 174.6574
311.000000 92.426 174.9430
315.000000 92.398 175.2147
320.000000 92.359 175.5250
325.000000 92.318 175.8469
330.000000 92.280 176.2028
335.000000 92.243 176.5630
340.000000 92.209 176.9009
345.000000 92.176 177.2305
350.000000 92.145 177.5876
355.000000 92.113 177.9552
360.000000 92.083 178.3060
365.000000 92.054 178.6605
370.000000 92.025 179.0170
375.000000 91.999 179.3689
382.000000 91.964 179.8625
387.000000 91.941 -179.7826
395.000000 91.902 -179.2139
400.000000 91.878 -178.8647
406.000000 91.848 -178.4554
412.000000 91.821 -178.0195
418.000000 91.799 -177.5818
425.000000 91.774 -177.0978
431.000000 91.753 -176.6769
437.000000 91.732 -176.2497
444.000000 91.708 -175.7604
450.000000 91.687 -175.3481
455.000000 91.671 -174.9990
462.000000 91.649 -174.5099
468.000000 91.634 -174.0934
475.000000 91.617 -173.6103
482.000000 91.600 -173.1258
487.000000 91.589 -172.7779
494.000000 91.574 -172.2901
500.000000 91.562 -171.8701
508.000000 91.546 -171.3127
515.000000 91.535 -170.8319
522.000000 91.525 -170.3467
530.000000 91.514 -169.7793
538.000000 91.503 -169.2138
545.000000 91.494 -168.7312
552.000000 91.486 -168.2493
560.000000 91.478 -167.6960
570.000000 91.469 -167.0046
580.000000 91.464 -166.3088
590.000000 91.460 -165.6067
600.000000 91.457 -164.8977
608.000000 91.456 -164.3248
615.000000 91.456 -163.8356
622.000000 91.457 -163.3571
630.000000 91.460 -162.8168
640.000000 91.466 -162.1433
650.000000 91.473 -161.4346
660.000000 91.479 -160.7097
670.000000 91.491 -159.9904
680.000000 91.504 -159.2793
690.000000 91.518 -158.5703
700.000000 91.532 -157.8597
710.000000 91.550 -157.1518
720.000000 91.570 -156.4424
730.000000 91.591 -155.7234
740.000000 91.616 -155.0055
750.000000 91.643 -154.2915
762.000000 91.677 -153.4293
775.000000 91.720 -152.4885
788.000000 91.767 -151.5581
800.000000 91.812 -150.7065
812.000000 91.857 -149.8553
825.000000 91.908 -148.9394
838.000000 91.963 -148.0345
850.000000 92.019 -147.2109
862.000000 92.079 -146.4041
875.000000 92.148 -145.5424
885.000000 92.205 -144.8891
900.000000 92.296 -143.9384
912.000000 92.374 -143.2029
925.000000 92.462 -142.4293
938.000000 92.555 -141.6837
950.000000 92.644 -141.0263
962.000000 92.737 -140.4005
975.000000 92.839 -139.7552
988.000000 92.943 -139.1446
1000.000000 93.039 -138.6149
1015.000000 93.159 -137.9965
1030.000000 93.279 -137.4271
1044.000000 93.393 -136.9449
1060.000000 93.527 -136.4673
1075.000000 93.655 -136.1331
1090.000000 93.771 -135.9584
1106.000000 93.855 -135.8020
1120.000000 93.915 -135.4659
1138.000000 94.025 -134.8968
1150.000000 94.112 -134.5821
1172.000000 94.272 -134.1623
1180.000000 94.328 -134.0414
1206.000000 94.503 -133.7186
1220.000000 94.593 -133.5751
1241.000000 94.724 -133.3916
1250.000000 94.780 -133.3218
1265.000000 94.875 -133.2139
1280.000000 94.970 -133.1153
1315.000000 95.183 -132.9111
1320.000000 95.213 -132.8848
1340.000000 95.329 -132.7825
1360.000000 95.443 -132.6830
1380.000000 95.554 -132.5922
1400.000000 95.662 -132.5042
1430.000000 95.819 -132.3725
1450.000000 95.921 -132.2896
1475.000000 96.047 -132.1883
1500.000000 96.171 -132.0927
1525.000000 96.294 -131.9997
1550.000000 96.416 -131.9139
1575.000000 96.537 -131.8338
1600.000000 96.659 -131.7610
1625.000000 96.782 -131.6969
1650.000000 96.905 -131.6433
1675.000000 97.029 -131.5985
1700.000000 97.152 -131.5655
1725.000000 97.275 -131.5449
1750.000000 97.398 -131.5374
1775.000000 97.520 -131.5469
1800.000000 97.643 -131.5726
1825.000000 97.765 -131.6129
1850.000000 97.886 -131.6685
1875.000000 98.007 -131.7385
1900.000000 98.127 -131.8246
1925.000000 98.247 -131.9291
1950.000000 98.367 -132.0525
1975.000000 98.486 -132.1933
2000.000000 98.604 -132.3499
2030.000000 98.746 -132.5622
2060.000000 98.888 -132.8038
2090.000000 99.029 -133.0695
2120.000000 99.167 -133.3582
2140.000000 99.258 -133.5657
2180.000000 99.436 -134.0108
2200.000000 99.524 -134.2485
2240.000000 99.697 -134.7558
2270.000000 99.822 -135.1630
2300.000000 99.946 -135.5923
2330.000000 100.067 -136.0415
2360.000000 100.186 -136.5087
2400.000000 100.339 -137.1585
2430.000000 100.451 -137.6685
2470.000000 100.597 -138.3745
2500.000000 100.705 -138.9219
2540.000000 100.847 -139.6768
2580.000000 100.986 -140.4581
2620.000000 101.120 -141.2646
2650.000000 101.217 -141.8841
2690.000000 101.343 -142.7300
2720.000000 101.435 -143.3796
2760.000000 101.554 -144.2642
2800.000000 101.669 -145.1703
2850.000000 101.808 -146.3354
2900.000000 101.943 -147.5409
2950.000000 102.071 -148.7914
3000.000000 102.195 -150.0939
3040.000000 102.290 -151.1752
3070.000000 102.358 -152.0098
3110.000000 102.446 -153.1573
3150.000000 102.529 -154.3492
3200.000000 102.625 -155.9036
3250.000000 102.710 -157.5307
3300.000000 102.786 -159.2384
3350.000000 102.849 -161.0328
3400.000000 102.899 -162.9137
3450.000000 102.932 -164.8757
3500.000000 102.946 -166.9134
3550.000000 102.939 -169.0202
3600.000000 102.909 -171.1872
3650.000000 102.853 -173.3983
3700.000000 102.769 -175.6333
3750.000000 102.655 -177.8705
3820.000000 102.445 179.0425
3870.000000 102.259 176.9055
3950.000000 101.903 173.6716
4000.000000 101.645 171.7958
4060.000000 101.302 169.7217
4120.000000 100.929 167.8660
4180.000000 100.532 166.2477
4250.000000 100.047 164.6765
4310.000000 99.617 163.6080
4370.000000 99.180 162.7920
4440.000000 98.669 162.1457
4500.000000 98.235 161.8414
4550.000000 97.878 161.7556
4620.000000 97.390 161.8758
4680.000000 96.988 162.1802
4750.000000 96.542 162.7257
4820.000000 96.123 163.4066
4870.000000 95.838 163.9430
4940.000000 95.452 164.7487
5000.000000 95.128 165.4920
5080.000000 94.702 166.5770
5150.000000 94.339 167.6254
5220.000000 93.987 168.7629
5300.000000 93.603 170.1584
5380.000000 93.238 171.6340
5450.000000 92.933 172.9763
5520.000000 92.637 174.3612
5600.000000 92.307 175.9963
5700.000000 91.897 178.1525
5800.000000 91.476 -179.4403
5900.000000 91.037 -176.4167
6000.000000 90.683 -171.9669
6080.000000 90.715 -167.9641
6150.000000 90.916 -166.0700
6220.000000 90.982 -165.6035
6300.000000 90.861 -164.8827
6400.000000 90.676 -162.8679
6500.000000 90.579 -160.2712
6600.000000 90.571 -157.5664
6700.000000 90.636 -154.9528
6800.000000 90.765 -152.5022
6900.000000 90.951 -150.2384
7000.000000 91.195 -148.1897
7100.000000 91.505 -146.4134
7200.000000 91.885 -145.0223
7300.000000 92.330 -144.1639
7400.000000 92.831 -143.9896
7500.000000 93.368 -144.6523
7620.000000 94.020 -146.7617
7750.000000 94.658 -150.8743
7880.000000 95.104 -156.8801
8000.000000 95.229 -163.6821
8120.000000 95.008 -170.8748
8250.000000 94.396 -178.0130
8380.000000 93.491 176.4250
8500.000000 92.500 173.0434
8620.000000 91.450 171.3388
8750.000000 90.320 171.2235
8850.000000 89.495 172.2426
9000.000000 88.384 175.4435
9120.000000 87.662 179.3566
9250.000000 87.136 -175.2855
9380.000000 86.993 -169.4078
9500.000000 87.253 -164.6030
9620.000000 87.790 -161.5993
9750.000000 88.434 -161.0736
9880.000000 88.911 -162.8737
10000.000000 89.134 -165.4644
10150.000000 89.181 -168.5479
10300.000000 89.106 -170.7942
10440.000000 89.032 -172.2157
10600.000000 89.016 -173.4671
10750.000000 89.088 -174.7023
10900.000000 89.239 -176.3821
11060.000000 89.458 -179.0187
11200.000000 89.657 177.7394
11380.000000 89.841 172.1437
11500.000000 89.866 167.5721
11720.000000 89.602 158.0412
11800.000000 89.392 154.4636
12060.000000 88.315 143.7649
12200.000000 87.545 139.0806
12410.000000 86.275 133.7119
12500.000000 85.723 131.9772
12650.000000 84.830 129.7225
12800.000000 83.990 128.1038
13150.000000 82.301 125.8461
13200.000000 82.093 125.6199
13400.000000 81.350 124.7859
13600.000000 80.752 123.9063
13800.000000 80.305 122.8011
14000.000000 80.004 121.3083
14300.000000 79.834 118.0854
14500.000000 79.915 115.1569
14750.000000 80.265 110.3681
15000.000000 80.913 103.9532
15250.000000 81.852 95.3969
15500.000000 83.051 84.0708
15750.000000 84.410 69.1288
16000.000000 85.687 49.5621
16250.000000 86.556 24.9232
16500.000000 86.694 -3.7717
16750.000000 85.897 -32.8291
17000.000000 84.306 -57.6443
17250.000000 82.538 -77.0728
17500.000000 81.189 -95.2316
17750.000000 80.106 -114.3542
18000.000000 79.126 -134.6765
18250.000000 78.206 -156.5646
18500.000000 77.299 179.5344
18750.000000 76.356 153.2569
19000.000000 75.325 124.2980
19250.000000 74.154 92.4018
19500.000000 72.797 57.9104
19750.000000 71.317 24.6401
