* Measurement data measured by REW V5.30.9
* Source: Headset (JA3 HIFI AUDIO(CX31993)), MICROPHONE (Master Volume), L, volume: 0.250
* Format: 512k Log Swept Sine, 1 sweep at -13.0 dBFS with no timing reference
* Dated: Feb 24, 2024 1:04:42 PM
* REW Settings:
*  C-weighting compensation: Off
*  Target level: 75.0 dB
* Note: ; 
* Measurement: Sony MDR-EX800ST Tape R
* Smoothing: 1/12 octave
* Frequency Step: 1/48 octave
* Start Frequency: 1.000 Hz
*
* Freq(Hz) SPL(dB) Phase(degrees)
1.000000 86.747 -1.0608
1.015000 86.973 -2.0471
1.030000 87.196 -3.0200
1.044000 87.402 -3.9180
1.060000 87.634 -4.9351
1.075000 87.848 -5.8821
1.090000 88.059 -6.8253
1.106000 88.281 -7.8299
1.120000 88.471 -8.7087
1.138000 88.712 -9.8381
1.150000 88.869 -10.5897
1.172000 89.151 -11.9617
1.180000 89.252 -12.4579
1.206000 89.572 -14.0567
1.220000 89.740 -14.9073
1.241000 89.988 -16.1670
1.250000 90.092 -16.7004
1.265000 90.264 -17.5802
1.280000 90.433 -18.4480
1.315000 90.818 -20.4231
1.320000 90.872 -20.6994
1.340000 91.085 -21.7894
1.360000 91.295 -22.8551
1.380000 91.502 -23.8963
1.400000 91.705 -24.9132
1.430000 92.006 -26.3946
1.450000 92.203 -27.3551
1.475000 92.445 -28.5308
1.500000 92.682 -29.6859
1.525000 92.912 -30.8252
1.550000 93.136 -31.9496
1.575000 93.354 -33.0591
1.600000 93.567 -34.1532
1.625000 93.774 -35.2318
1.650000 93.976 -36.2946
1.675000 94.174 -37.3418
1.700000 94.367 -38.3738
1.725000 94.557 -39.3908
1.750000 94.743 -40.3935
1.775000 94.926 -41.3829
1.800000 95.105 -42.3605
1.825000 95.282 -43.3290
1.850000 95.456 -44.2921
1.875000 95.625 -45.2529
1.900000 95.790 -46.2120
1.925000 95.952 -47.1683
1.950000 96.109 -48.1198
1.975000 96.263 -49.0647
2.000000 96.413 -50.0009
2.030000 96.588 -51.1104
2.060000 96.760 -52.2023
2.090000 96.927 -53.2745
2.120000 97.091 -54.3254
2.140000 97.199 -55.0140
2.180000 97.410 -56.3638
2.200000 97.513 -57.0272
2.240000 97.714 -58.3387
2.270000 97.860 -59.3132
2.300000 98.003 -60.2806
2.330000 98.141 -61.2398
2.360000 98.276 -62.1889
2.400000 98.450 -63.4358
2.430000 98.578 -64.3547
2.470000 98.744 -65.5554
2.500000 98.865 -66.4364
2.540000 99.023 -67.5852
2.580000 99.178 -68.7081
2.620000 99.327 -69.8120
2.650000 99.436 -70.6302
2.690000 99.577 -71.7087
2.720000 99.680 -72.5078
2.760000 99.813 -73.5585
2.800000 99.943 -74.5906
2.850000 100.100 -75.8518
2.900000 100.253 -77.0797
2.950000 100.402 -78.2772
3.000000 100.545 -79.4505
3.040000 100.657 -80.3747
3.070000 100.738 -81.0595
3.110000 100.844 -81.9609
3.150000 100.947 -82.8480
3.200000 101.072 -83.9350
3.250000 101.195 -84.9966
3.300000 101.314 -86.0332
3.350000 101.430 -87.0477
3.400000 101.543 -88.0433
3.450000 101.652 -89.0215
3.500000 101.758 -89.9826
3.550000 101.861 -90.9265
3.600000 101.961 -91.8532
3.650000 102.060 -92.7632
3.700000 102.155 -93.6580
3.750000 102.248 -94.5393
3.820000 102.374 -95.7518
3.870000 102.462 -96.6023
3.950000 102.596 -97.9353
4.000000 102.677 -98.7509
4.060000 102.772 -99.7133
4.120000 102.864 -100.6598
4.180000 102.952 -101.5912
4.250000 103.051 -102.6581
4.310000 103.132 -103.5546
4.370000 103.211 -104.4343
4.440000 103.299 -105.4409
4.500000 103.371 -106.2884
4.550000 103.429 -106.9840
4.620000 103.507 -107.9402
4.680000 103.571 -108.7418
4.750000 103.643 -109.6549
4.820000 103.711 -110.5453
4.870000 103.757 -111.1683
4.940000 103.820 -112.0223
5.000000 103.871 -112.7367
5.080000 103.936 -113.6623
5.150000 103.990 -114.4462
5.220000 104.042 -115.2068
5.300000 104.099 -116.0489
5.380000 104.154 -116.8628
5.450000 104.200 -117.5519
5.520000 104.246 -118.2193
5.600000 104.296 -118.9566
5.700000 104.358 -119.8431
5.800000 104.418 -120.6952
5.900000 104.479 -121.5163
6.000000 104.539 -122.3088
6.080000 104.587 -122.9255
6.150000 104.629 -123.4552
6.220000 104.671 -123.9777
6.300000 104.720 -124.5671
6.400000 104.780 -125.2937
6.500000 104.840 -126.0127
6.600000 104.899 -126.7280
6.700000 104.957 -127.4414
6.800000 105.013 -128.1534
6.900000 105.068 -128.8638
7.000000 105.119 -129.5731
7.100000 105.168 -130.2809
7.200000 105.214 -130.9846
7.300000 105.256 -131.6814
7.400000 105.295 -132.3693
7.500000 105.330 -133.0464
7.620000 105.367 -133.8399
7.750000 105.402 -134.6703
7.880000 105.433 -135.4669
8.000000 105.457 -136.1691
8.120000 105.480 -136.8373
8.250000 105.503 -137.5228
8.380000 105.525 -138.1712
8.500000 105.546 -138.7395
8.620000 105.568 -139.2824
8.750000 105.594 -139.8487
8.850000 105.615 -140.2732
9.000000 105.649 -140.8983
9.120000 105.678 -141.3947
9.250000 105.711 -141.9346
9.380000 105.744 -142.4798
9.500000 105.774 -142.9898
9.620000 105.803 -143.5069
9.750000 105.830 -144.0734
9.880000 105.850 -144.6433
10.000000 105.862 -145.1689
10.150000 105.866 -145.8190
10.300000 105.861 -146.4528
10.440000 105.850 -147.0229
10.600000 105.832 -147.6421
10.750000 105.813 -148.1863
10.900000 105.794 -148.6942
11.060000 105.775 -149.1977
11.200000 105.760 -149.6101
11.380000 105.746 -150.1122
11.500000 105.740 -150.4361
11.720000 105.735 -151.0251
11.800000 105.735 -151.2421
12.060000 105.741 -151.9736
12.200000 105.746 -152.3889
12.410000 105.756 -153.0396
12.500000 105.761 -153.3267
12.650000 105.769 -153.8118
12.800000 105.777 -154.2982
13.150000 105.784 -155.3914
13.200000 105.783 -155.5384
13.400000 105.779 -156.0937
13.600000 105.771 -156.5907
13.800000 105.764 -157.0278
14.000000 105.761 -157.4126
14.300000 105.766 -157.9256
14.500000 105.779 -158.2537
14.750000 105.802 -158.6818
15.000000 105.829 -159.1537
15.250000 105.854 -159.6767
15.500000 105.872 -160.2379
15.750000 105.881 -160.8088
16.000000 105.879 -161.3532
16.250000 105.870 -161.8378
16.500000 105.859 -162.2417
16.750000 105.850 -162.5625
17.000000 105.851 -162.8193
17.250000 105.864 -163.0477
17.500000 105.889 -163.2914
17.750000 105.925 -163.5905
18.000000 105.965 -163.9721
18.250000 106.003 -164.4442
18.500000 106.034 -164.9957
18.750000 106.052 -165.6001
19.000000 106.055 -166.2230
19.250000 106.044 -166.8289
19.500000 106.021 -167.3885
19.750000 105.991 -167.8826
20.000000 105.957 -168.3030
20.299999 105.917 -168.7134
20.600000 105.882 -169.0363
20.900000 105.856 -169.2927
21.200001 105.839 -169.5041
21.400000 105.834 -169.6303
21.799999 105.839 -169.8781
22.000000 105.850 -170.0152
22.400000 105.882 -170.3528
22.700001 105.910 -170.6813
23.000000 105.937 -171.0739
23.299999 105.958 -171.5099
23.600000 105.970 -171.9564
24.000000 105.977 -172.5177
24.299999 105.981 -172.9029
24.700001 105.992 -173.4080
25.000000 106.003 -173.8253
25.400000 106.009 -174.4687
25.799999 105.987 -175.1568
26.200001 105.929 -175.7336
26.500000 105.869 -175.9881
26.900000 105.796 -176.0275
27.200001 105.766 -175.8765
27.600000 105.776 -175.6123
28.000000 105.833 -175.4994
28.500000 105.928 -175.7603
29.000000 105.995 -176.3788
29.500000 106.016 -177.0896
30.000000 106.007 -177.6947
30.400000 105.993 -178.0676
30.700001 105.984 -178.2946
31.100000 105.976 -178.5524
31.500000 105.973 -178.7838
32.000000 105.976 -179.0621
32.500000 105.981 -179.3361
33.000000 105.987 -179.6069
33.500000 105.995 -179.8900
34.000000 105.998 179.8039
34.500000 105.990 179.5163
35.000000 105.979 179.3117
35.500000 105.982 179.1552
36.000000 106.004 178.8789
36.500000 106.016 178.3679
37.000000 105.979 177.7680
37.500000 105.897 177.4120
38.200001 105.814 177.5750
38.700001 105.844 177.7429
39.500000 105.957 177.1092
40.000000 105.974 176.2578
40.599998 105.923 175.3160
41.200001 105.847 174.7366
41.799999 105.795 174.4269
42.500000 105.773 174.1497
43.099998 105.776 173.8558
43.700001 105.783 173.4672
44.400002 105.775 172.9561
45.000000 105.754 172.5630
45.500000 105.732 172.2830
46.200001 105.695 171.9380
46.799999 105.655 171.7097
47.500000 105.610 171.5663
48.200001 105.584 171.4835
48.700001 105.577 171.3864
49.400002 105.574 171.1483
50.000000 105.573 170.8508
50.799999 105.564 170.3405
51.500000 105.543 169.8357
52.200001 105.507 169.3644
53.000000 105.460 168.9500
53.799999 105.424 168.6528
54.500000 105.404 168.4210
55.200001 105.391 168.1722
56.000000 105.375 167.8773
57.000000 105.354 167.5613
58.000000 105.345 167.2824
59.000000 105.343 166.9012
60.000000 105.324 166.4508
60.799999 105.301 166.1259
61.500000 105.280 165.8611
62.200001 105.260 165.5911
63.000000 105.235 165.2755
64.000000 105.204 164.8802
65.000000 105.174 164.4739
66.000000 105.145 164.0566
67.000000 105.115 163.6392
68.000000 105.084 163.2464
69.000000 105.054 162.8994
70.000000 105.029 162.5645
71.000000 105.003 162.2175
72.000000 104.971 161.8815
73.000000 104.937 161.5796
74.000000 104.905 161.2966
75.000000 104.876 160.9992
76.199997 104.840 160.6485
77.500000 104.801 160.2919
78.800003 104.759 159.9480
80.000000 104.716 159.6600
81.199997 104.673 159.3938
82.500000 104.632 159.0749
83.800003 104.592 158.6616
85.000000 104.547 158.2397
86.199997 104.500 157.8838
87.500000 104.459 157.5585
88.500000 104.428 157.3110
90.000000 104.369 157.0244
91.199997 104.325 156.9526
92.500000 104.303 156.8706
93.800003 104.292 156.5485
95.000000 104.263 156.1038
96.199997 104.217 155.6992
97.500000 104.165 155.3790
98.800003 104.120 155.1552
100.000000 104.084 154.9870
101.500000 104.038 154.7798
103.000000 103.987 154.5695
104.400002 103.939 154.3649
106.000000 103.889 154.1055
107.500000 103.844 153.8302
109.000000 103.798 153.5622
110.599998 103.743 153.2870
112.000000 103.691 153.0283
113.800003 103.619 152.6353
115.000000 103.573 152.3359
117.199997 103.498 151.7777
118.000000 103.475 151.5873
120.599998 103.405 151.0824
122.000000 103.365 150.8717
124.099998 103.295 150.5809
125.000000 103.262 150.4490
126.500000 103.209 150.2093
128.000000 103.158 149.9478
131.500000 103.048 149.3655
132.000000 103.034 149.2937
134.000000 102.974 149.0350
136.000000 102.916 148.8311
138.000000 102.866 148.6673
140.000000 102.823 148.4609
143.000000 102.731 148.0397
145.000000 102.653 147.7866
147.500000 102.569 147.4968
150.000000 102.510 147.0651
152.500000 102.442 146.4999
155.000000 102.364 146.0539
157.500000 102.299 145.7766
160.000000 102.230 145.7138
162.500000 102.133 145.7844
165.000000 102.005 145.7056
167.500000 101.871 145.4366
170.000000 101.767 145.1771
172.500000 101.685 145.0457
175.000000 101.596 145.0046
177.500000 101.490 144.9381
180.000000 101.378 144.8232
182.500000 101.277 144.7253
185.000000 101.190 144.7358
187.500000 101.114 144.9261
190.000000 101.051 145.1754
192.500000 101.008 145.2938
195.000000 100.987 145.1928
197.500000 100.975 144.9573
200.000000 100.949 144.7063
203.000000 100.890 144.4345
206.000000 100.815 144.1590
209.000000 100.727 143.8650
212.000000 100.628 143.6831
214.000000 100.565 143.6479
218.000000 100.450 143.7062
220.000000 100.401 143.7731
224.000000 100.325 143.8690
227.000000 100.265 143.8709
230.000000 100.186 143.6650
233.000000 100.068 143.2357
236.000000 99.925 142.9189
240.000000 99.750 143.0270
243.000000 99.650 143.3581
247.000000 99.547 143.6351
250.000000 99.496 143.5722
254.000000 99.478 143.4148
258.000000 99.465 143.5158
262.000000 99.403 143.7131
265.000000 99.331 143.7670
269.000000 99.234 143.7385
272.000000 99.168 143.7428
276.000000 99.093 143.8076
280.000000 99.034 143.7558
285.000000 98.963 143.4167
290.000000 98.900 143.3136
295.000000 98.816 143.7192
300.000000 98.659 144.0430
304.000000 98.533 144.1290
307.000000 98.465 144.1384
311.000000 98.402 144.0276
315.000000 98.333 143.7906
320.000000 98.254 143.4329
325.000000 98.196 142.9857
330.000000 98.117 143.0277
335.000000 98.026 144.0987
340.000000 97.910 145.4239
345.000000 97.752 146.0652
350.000000 97.599 146.0651
355.000000 97.481 145.9493
360.000000 97.385 145.9683
365.000000 97.294 146.1472
370.000000 97.204 146.4008
375.000000 97.119 146.6050
382.000000 97.014 146.8304
387.000000 96.939 147.0170
395.000000 96.821 147.3798
400.000000 96.748 147.6668
406.000000 96.657 148.1060
412.000000 96.581 148.5732
418.000000 96.506 148.9454
425.000000 96.396 149.4527
431.000000 96.293 149.8880
437.000000 96.198 150.1620
444.000000 96.116 150.3098
450.000000 96.073 150.4844
455.000000 96.043 150.7634
462.000000 95.977 151.2452
468.000000 95.904 151.6774
475.000000 95.824 152.0684
482.000000 95.719 152.3867
487.000000 95.628 152.7758
494.000000 95.514 153.4367
500.000000 95.442 153.9005
508.000000 95.362 154.4019
515.000000 95.295 154.8827
522.000000 95.220 155.3467
530.000000 95.127 155.8578
538.000000 95.044 156.4315
545.000000 94.991 156.9819
552.000000 94.954 157.5992
560.000000 94.918 158.3820
570.000000 94.858 159.2980
580.000000 94.793 160.1151
590.000000 94.741 160.8919
600.000000 94.693 161.6027
608.000000 94.653 162.1459
615.000000 94.616 162.6157
622.000000 94.579 163.0931
630.000000 94.540 163.6477
640.000000 94.493 164.3309
650.000000 94.445 165.0029
660.000000 94.401 165.7169
670.000000 94.365 166.5153
680.000000 94.340 167.3320
690.000000 94.321 168.1248
700.000000 94.295 168.8992
710.000000 94.261 169.6541
720.000000 94.227 170.4117
730.000000 94.198 171.1685
740.000000 94.179 171.9123
750.000000 94.170 172.6612
762.000000 94.167 173.5565
775.000000 94.168 174.4906
788.000000 94.175 175.3635
800.000000 94.185 176.1677
812.000000 94.196 177.0448
825.000000 94.205 178.0220
838.000000 94.219 178.9652
850.000000 94.242 179.7593
862.000000 94.268 -179.5198
875.000000 94.294 -178.7461
885.000000 94.312 -178.1427
900.000000 94.338 -177.2229
912.000000 94.361 -176.4717
925.000000 94.387 -175.6439
938.000000 94.417 -174.7892
950.000000 94.451 -173.9646
962.000000 94.495 -173.1176
975.000000 94.552 -172.1973
988.000000 94.621 -171.2901
1000.000000 94.693 -170.4899
1015.000000 94.792 -169.5901
1030.000000 94.902 -168.8182
1044.000000 95.008 -168.1789
1060.000000 95.129 -167.5135
1075.000000 95.247 -166.9466
1090.000000 95.367 -166.4360
1106.000000 95.497 -165.9618
1120.000000 95.610 -165.6002
1138.000000 95.754 -165.2030
1150.000000 95.848 -164.9791
1172.000000 96.021 -164.6417
1180.000000 96.085 -164.5456
1206.000000 96.293 -164.3225
1220.000000 96.404 -164.2568
1241.000000 96.574 -164.2343
1250.000000 96.647 -164.2528
1265.000000 96.771 -164.3205
1280.000000 96.896 -164.4326
1315.000000 97.180 -164.8578
1320.000000 97.219 -164.9420
1340.000000 97.369 -165.3470
1360.000000 97.512 -165.8499
1380.000000 97.648 -166.4411
1400.000000 97.771 -167.1249
1430.000000 97.927 -168.2458
1450.000000 98.005 -169.0174
1475.000000 98.067 -170.0284
1500.000000 98.090 -171.0454
1525.000000 98.073 -171.9720
1550.000000 98.024 -172.6961
1575.000000 97.958 -173.0862
1600.000000 97.893 -173.1198
1625.000000 97.844 -172.8484
1650.000000 97.830 -172.3267
1675.000000 97.866 -171.6530
1700.000000 97.953 -170.9525
1725.000000 98.089 -170.3462
1750.000000 98.266 -169.9317
1775.000000 98.470 -169.7684
1800.000000 98.688 -169.8793
1825.000000 98.912 -170.2566
1850.000000 99.130 -170.8792
1875.000000 99.336 -171.7203
1900.000000 99.523 -172.7500
1925.000000 99.689 -173.9335
1950.000000 99.831 -175.2299
1975.000000 99.950 -176.6070
2000.000000 100.045 -178.0448
2030.000000 100.128 -179.8177
2060.000000 100.180 178.3928
2090.000000 100.204 176.6106
2120.000000 100.201 174.8564
2140.000000 100.185 173.7131
2180.000000 100.122 171.5192
2200.000000 100.079 170.4791
2240.000000 99.971 168.5149
2270.000000 99.875 167.1380
2300.000000 99.767 165.8415
2330.000000 99.649 164.6318
2360.000000 99.524 163.5120
2400.000000 99.348 162.1373
2430.000000 99.212 161.1815
2470.000000 99.028 159.9872
2500.000000 98.889 159.1480
2540.000000 98.704 158.1008
2580.000000 98.518 157.1184
2620.000000 98.329 156.1815
2650.000000 98.185 155.5019
2690.000000 97.988 154.6229
2720.000000 97.834 153.9843
2760.000000 97.622 153.1591
2800.000000 97.397 152.3611
2850.000000 97.095 151.4132
2900.000000 96.769 150.5684
2950.000000 96.419 149.8710
3000.000000 96.046 149.3649
3040.000000 95.734 149.1213
3070.000000 95.496 149.0346
3110.000000 95.173 149.0408
3150.000000 94.844 149.1736
3200.000000 94.424 149.5070
3250.000000 93.989 150.0521
3300.000000 93.540 150.8776
3350.000000 93.083 152.0540
3400.000000 92.632 153.6221
3450.000000 92.199 155.5812
3500.000000 91.796 157.8965
3550.000000 91.431 160.5181
3600.000000 91.110 163.3924
3650.000000 90.837 166.4695
3700.000000 90.615 169.7002
3750.000000 90.444 173.0312
3820.000000 90.291 177.7685
3870.000000 90.240 -178.8470
3950.000000 90.252 -173.5135
4000.000000 90.312 -170.2836
4060.000000 90.429 -166.5643
4120.000000 90.589 -163.0395
4180.000000 90.784 -159.7062
4250.000000 91.052 -156.0314
4310.000000 91.314 -153.0440
4370.000000 91.606 -150.1991
4440.000000 91.985 -147.0726
4500.000000 92.342 -144.5829
4550.000000 92.661 -142.6528
4620.000000 93.134 -140.1474
4680.000000 93.567 -138.1252
4750.000000 94.121 -135.8790
4820.000000 94.745 -133.8561
4870.000000 95.235 -132.6425
4940.000000 95.978 -131.3723
5000.000000 96.664 -130.7572
5080.000000 97.644 -130.7615
5150.000000 98.551 -131.6974
5220.000000 99.482 -133.6763
5300.000000 100.526 -137.4122
5380.000000 101.469 -142.8297
5450.000000 102.133 -148.8652
5520.000000 102.583 -155.8313
5600.000000 102.786 -164.3719
5700.000000 102.558 -174.7743
5800.000000 101.884 176.3643
5900.000000 100.928 169.7837
6000.000000 99.859 165.5973
6080.000000 99.010 163.7697
6150.000000 98.311 163.0761
6220.000000 97.670 163.0598
6300.000000 97.022 163.6844
6400.000000 96.344 165.1728
6500.000000 95.808 167.2040
6600.000000 95.402 169.5927
6700.000000 95.120 172.2003
6800.000000 94.958 174.9092
6900.000000 94.913 177.6102
7000.000000 94.986 -179.8049
7100.000000 95.179 -177.4548
7200.000000 95.496 -175.4901
7300.000000 95.939 -174.1126
7400.000000 96.503 -173.5827
7500.000000 97.167 -174.2127
7620.000000 98.029 -176.9446
7750.000000 98.893 177.2857
7880.000000 99.465 168.7320
8000.000000 99.549 159.1998
8120.000000 99.121 149.3931
8250.000000 98.119 139.9669
8380.000000 96.714 132.8724
8500.000000 95.228 128.7401
8620.000000 93.699 126.7904
8750.000000 92.098 126.7251
8850.000000 90.948 127.8098
9000.000000 89.389 130.7912
9120.000000 88.288 134.0175
9250.000000 87.237 138.0770
9380.000000 86.322 142.5356
9500.000000 85.588 146.8979
9620.000000 84.949 151.4315
9750.000000 84.360 156.4766
9880.000000 83.875 161.6095
10000.000000 83.521 166.3845
10150.000000 83.206 172.3446
10300.000000 83.034 178.2322
10440.000000 83.010 -176.3938
10600.000000 83.158 -170.4969
10750.000000 83.497 -165.4010
10900.000000 84.062 -161.1262
11060.000000 84.915 -158.2687
11200.000000 85.805 -157.9713
11380.000000 86.953 -161.2590
11500.000000 87.584 -165.7638
11720.000000 88.126 -177.8714
11800.000000 88.052 177.0309
12060.000000 86.727 161.4758
12200.000000 85.441 155.4370
12410.000000 83.095 150.9073
12500.000000 82.034 150.6576
12650.000000 80.305 152.2113
12800.000000 78.709 155.7245
13150.000000 75.723 168.2310
13200.000000 75.377 170.2914
13400.000000 74.162 178.9703
13600.000000 73.193 -171.7261
13800.000000 72.458 -161.9173
14000.000000 71.966 -151.8329
14300.000000 71.708 -136.9532
14500.000000 71.845 -127.7622
14750.000000 72.327 -117.6668
15000.000000 73.087 -109.7240
15250.000000 74.004 -104.7535
15500.000000 74.860 -103.2065
15750.000000 75.416 -104.3845
16000.000000 75.574 -106.7789
16250.000000 75.364 -109.2382
16500.000000 74.877 -111.2150
16750.000000 74.216 -112.6245
17000.000000 73.440 -113.7072
17250.000000 72.539 -114.7110
17500.000000 71.460 -115.5206
17750.000000 70.160 -115.5358
18000.000000 68.645 -113.9482
18250.000000 66.992 -110.1508
18500.000000 65.319 -103.9292
18750.000000 63.746 -95.5343
19000.000000 62.365 -85.6571
19250.000000 61.203 -75.2469
19500.000000 60.200 -65.1271
19750.000000 59.246 -55.6057
20000.000000 58.241 -46.4911
20300.000000 56.878 -35.5541
20600.000000 55.300 -24.2290
20900.000000 53.532 -13.0045
21200.000000 51.618 -3.4405
21400.000000 50.250 1.1343
21800.000000 47.229 5.4017
22000.000000 45.649 5.6960
22400.000000 43.124 4.7916
22700.000000 42.972 4.7901
23000.000000 44.815 13.4970
23300.000000 47.684 67.3580
23600.000000 50.405 113.9845
24000.000000 52.415 125.9317
