* Measurement data measured by REW V5.30.9
* Source: Headset (JA3 HIFI AUDIO(CX31993)), MICROPHONE (Master Volume), L, volume: 0.250
* Format: 512k Log Swept Sine, 1 sweep at -13.0 dBFS with no timing reference
* Dated: Feb 24, 2024 11:34:40 AM
* REW Settings:
*  C-weighting compensation: Off
*  Target level: 75.0 dB
* Note: ; 
* Measurement: Tanchjim Ola R
* Smoothing: 1/12 octave
* Frequency Step: 1/48 octave
* Start Frequency: 1.000 Hz
*
* Freq(Hz) SPL(dB) Phase(degrees)
1.000000 62.600 25.9579
1.015000 62.677 25.6047
1.030000 62.753 25.2531
1.044000 62.823 24.9265
1.060000 62.902 24.5552
1.075000 62.975 24.2086
1.090000 63.048 23.8624
1.106000 63.125 23.4910
1.120000 63.190 23.1615
1.138000 63.271 22.7294
1.150000 63.323 22.4358
1.172000 63.415 21.8867
1.180000 63.448 21.6839
1.206000 63.549 21.0160
1.220000 63.602 20.6518
1.241000 63.679 20.1017
1.250000 63.711 19.8651
1.265000 63.763 19.4704
1.280000 63.814 19.0762
1.315000 63.931 18.1631
1.320000 63.947 18.0340
1.340000 64.012 17.5224
1.360000 64.076 17.0201
1.380000 64.140 16.5296
1.400000 64.204 16.0530
1.430000 64.300 15.3688
1.450000 64.365 14.9352
1.475000 64.447 14.4186
1.500000 64.527 13.9269
1.525000 64.605 13.4557
1.550000 64.682 13.0015
1.575000 64.757 12.5611
1.600000 64.832 12.1319
1.625000 64.905 11.7114
1.650000 64.978 11.2975
1.675000 65.052 10.8879
1.700000 65.126 10.4807
1.725000 65.202 10.0742
1.750000 65.279 9.6669
1.775000 65.359 9.2577
1.800000 65.440 8.8466
1.825000 65.525 8.4355
1.850000 65.611 8.0285
1.875000 65.700 7.6295
1.900000 65.789 7.2396
1.925000 65.881 6.8576
1.950000 65.974 6.4809
1.975000 66.068 6.1066
2.000000 66.163 5.7316
2.030000 66.280 5.2767
2.060000 66.398 4.8119
2.090000 66.517 4.3328
2.120000 66.639 3.8358
2.140000 66.721 3.4932
2.180000 66.888 2.7808
2.200000 66.972 2.4130
2.240000 67.145 1.6632
2.270000 67.278 1.0941
2.300000 67.414 0.5206
2.330000 67.551 -0.0587
2.360000 67.690 -0.6457
2.400000 67.876 -1.4450
2.430000 68.016 -2.0601
2.470000 68.201 -2.9061
2.500000 68.340 -3.5629
2.540000 68.522 -4.4712
2.580000 68.703 -5.4168
2.620000 68.883 -6.3951
2.650000 69.018 -7.1461
2.690000 69.197 -8.1649
2.720000 69.330 -8.9392
2.760000 69.506 -9.9816
2.800000 69.680 -11.0327
2.850000 69.891 -12.3568
2.900000 70.094 -13.6944
2.950000 70.290 -15.0544
3.000000 70.479 -16.4450
3.040000 70.625 -17.5767
3.070000 70.733 -18.4316
3.110000 70.872 -19.5718
3.150000 71.006 -20.7037
3.200000 71.169 -22.0947
3.250000 71.323 -23.4505
3.300000 71.470 -24.7731
3.350000 71.608 -26.0751
3.400000 71.739 -27.3652
3.450000 71.862 -28.6387
3.500000 71.979 -29.8827
3.550000 72.091 -31.0819
3.600000 72.198 -32.2233
3.650000 72.301 -33.3010
3.700000 72.400 -34.3184
3.750000 72.493 -35.2840
3.820000 72.616 -36.5573
3.870000 72.701 -37.4088
3.950000 72.839 -38.6564
4.000000 72.927 -39.3554
4.060000 73.036 -40.1061
4.120000 73.147 -40.7642
4.180000 73.262 -41.3434
4.250000 73.403 -41.9442
4.310000 73.532 -42.4138
4.370000 73.670 -42.8509
4.440000 73.846 -43.3185
4.500000 74.008 -43.6828
4.550000 74.149 -43.9700
4.620000 74.357 -44.3741
4.680000 74.542 -44.7476
4.750000 74.765 -45.2352
4.820000 74.997 -45.7798
4.870000 75.167 -46.1994
4.940000 75.409 -46.8306
5.000000 75.617 -47.4198
5.080000 75.889 -48.2900
5.150000 76.121 -49.1390
5.220000 76.346 -50.0655
5.300000 76.594 -51.1998
5.380000 76.828 -52.3912
5.450000 77.017 -53.4695
5.520000 77.190 -54.5808
5.600000 77.367 -55.8897
5.700000 77.559 -57.5486
5.800000 77.715 -59.1657
5.900000 77.834 -60.6996
6.000000 77.915 -62.1424
6.080000 77.955 -63.2044
6.150000 77.974 -64.0344
6.220000 77.980 -64.7496
6.300000 77.969 -65.4157
6.400000 77.937 -66.0122
6.500000 77.894 -66.3181
6.600000 77.852 -66.2936
6.700000 77.818 -65.9214
6.800000 77.803 -65.2235
6.900000 77.822 -64.2458
7.000000 77.890 -63.0372
7.100000 78.012 -61.6593
7.200000 78.188 -60.2123
7.300000 78.419 -58.8109
7.400000 78.703 -57.5383
7.500000 79.032 -56.4518
7.620000 79.469 -55.4715
7.750000 79.972 -54.8700
7.880000 80.488 -54.7371
8.000000 80.959 -54.9960
8.120000 81.413 -55.5847
8.250000 81.877 -56.5362
8.380000 82.309 -57.7441
8.500000 82.674 -59.0369
8.620000 83.008 -60.4606
8.750000 83.334 -62.1026
8.850000 83.561 -63.4111
9.000000 83.862 -65.4160
9.120000 84.073 -67.0269
9.250000 84.273 -68.7537
9.380000 84.444 -70.4431
9.500000 84.579 -71.9504
9.620000 84.693 -73.3931
9.750000 84.793 -74.8694
9.880000 84.871 -76.2386
10.000000 84.923 -77.3944
10.150000 84.966 -78.6793
10.300000 84.993 -79.7705
10.440000 85.010 -80.6070
10.600000 85.030 -81.3513
10.750000 85.056 -81.8572
10.900000 85.098 -82.2065
11.060000 85.166 -82.4532
11.200000 85.246 -82.6063
11.380000 85.379 -82.7903
11.500000 85.483 -82.9418
11.720000 85.698 -83.3478
11.800000 85.780 -83.5484
12.060000 86.045 -84.4062
12.200000 86.180 -84.9848
12.410000 86.364 -85.9584
12.500000 86.436 -86.3978
12.650000 86.544 -87.1375
12.800000 86.640 -87.8631
13.150000 86.814 -89.3899
13.200000 86.834 -89.5825
13.400000 86.909 -90.2836
13.600000 86.974 -90.8804
13.800000 87.034 -91.3870
14.000000 87.089 -91.8175
14.300000 87.162 -92.3328
14.500000 87.205 -92.5846
14.750000 87.259 -92.7886
15.000000 87.322 -92.8874
15.250000 87.405 -92.9466
15.500000 87.512 -93.0795
15.750000 87.637 -93.4082
16.000000 87.758 -94.0101
16.250000 87.851 -94.8730
16.500000 87.890 -95.8826
16.750000 87.865 -96.8412
17.000000 87.782 -97.5129
17.250000 87.672 -97.6933
17.500000 87.585 -97.2936
17.750000 87.577 -96.4191
18.000000 87.687 -95.3768
18.250000 87.919 -94.5731
18.500000 88.237 -94.3457
18.750000 88.587 -94.8443
19.000000 88.916 -96.0222
19.250000 89.185 -97.6973
19.500000 89.379 -99.6346
19.750000 89.498 -101.6060
20.000000 89.556 -103.4263
20.299999 89.575 -105.2454
20.600000 89.578 -106.6079
20.900000 89.597 -107.5764
21.200001 89.647 -108.2874
21.400000 89.697 -108.6892
21.799999 89.828 -109.4575
22.000000 89.900 -109.8581
22.400000 90.045 -110.7237
22.700001 90.143 -111.4275
23.000000 90.222 -112.1566
23.299999 90.276 -112.8686
23.600000 90.305 -113.5032
24.000000 90.313 -114.1292
24.299999 90.315 -114.4126
24.700001 90.340 -114.6453
25.000000 90.383 -114.8503
25.400000 90.454 -115.3622
25.799999 90.504 -116.1885
26.200001 90.502 -117.1271
26.500000 90.473 -117.7121
26.900000 90.442 -118.1762
27.200001 90.465 -118.3466
27.600000 90.589 -118.6722
28.000000 90.797 -119.5375
28.500000 91.055 -121.6127
29.000000 91.191 -124.2713
29.500000 91.199 -126.5833
30.000000 91.188 -128.0220
30.400000 91.238 -128.6926
30.700001 91.316 -129.1257
31.100000 91.446 -129.7898
31.500000 91.565 -130.5655
32.000000 91.666 -131.4835
32.500000 91.721 -132.1149
33.000000 91.750 -132.3778
33.500000 91.770 -132.2705
34.000000 91.810 -131.8571
34.500000 91.897 -131.3980
35.000000 92.015 -131.2426
35.500000 92.110 -131.4493
36.000000 92.165 -131.7291
36.500000 92.232 -131.9077
37.000000 92.361 -132.2932
37.500000 92.511 -133.3227
38.200001 92.563 -135.4856
38.700001 92.465 -136.4657
39.500000 92.419 -135.9266
40.000000 92.621 -135.2926
40.599998 92.982 -135.6890
41.200001 93.242 -137.3066
41.799999 93.296 -139.0942
42.500000 93.187 -140.1403
43.099998 93.104 -140.0286
43.700001 93.111 -139.7379
44.400002 93.156 -140.0668
45.000000 93.126 -140.8596
45.500000 93.046 -141.5642
46.200001 92.906 -142.4119
46.799999 92.792 -143.0828
47.500000 92.668 -143.7207
48.200001 92.597 -144.0199
48.700001 92.605 -144.1169
49.400002 92.676 -144.2889
50.000000 92.753 -144.4140
50.799999 92.867 -144.3300
51.500000 92.978 -144.1234
52.200001 93.066 -143.9669
53.000000 93.110 -143.8907
53.799999 93.082 -144.0074
54.500000 92.986 -144.2608
55.200001 92.851 -144.5442
56.000000 92.715 -145.0902
57.000000 92.578 -146.4341
58.000000 92.509 -147.7065
59.000000 92.688 -148.8951
60.000000 92.979 -150.7125
60.799999 93.168 -151.9665
61.500000 93.319 -152.5727
62.200001 93.461 -152.8704
63.000000 93.587 -153.0198
64.000000 93.664 -152.9987
65.000000 93.672 -152.8737
66.000000 93.646 -152.9327
67.000000 93.591 -153.3912
68.000000 93.510 -154.0500
69.000000 93.442 -154.6178
70.000000 93.413 -154.9664
71.000000 93.441 -155.0394
72.000000 93.528 -155.0782
73.000000 93.625 -155.3243
74.000000 93.694 -155.7230
75.000000 93.734 -156.2193
76.199997 93.733 -156.8387
77.500000 93.698 -157.1541
78.800003 93.699 -157.0892
80.000000 93.729 -157.1597
81.199997 93.722 -157.5094
82.500000 93.664 -157.9642
83.800003 93.608 -158.4379
85.000000 93.603 -158.9409
86.199997 93.650 -159.5457
87.500000 93.724 -160.1925
88.500000 93.767 -160.5202
90.000000 93.798 -160.4602
91.199997 93.820 -160.1755
92.500000 93.835 -160.0404
93.800003 93.845 -160.1700
95.000000 93.865 -160.5732
96.199997 93.890 -161.1673
97.500000 93.924 -161.8701
98.800003 93.948 -162.6232
100.000000 93.936 -163.3130
101.500000 93.876 -163.9778
103.000000 93.800 -164.4228
104.400002 93.733 -164.6290
106.000000 93.683 -164.5308
107.500000 93.667 -164.2805
109.000000 93.669 -164.0112
110.599998 93.700 -164.0415
112.000000 93.722 -164.5150
113.800003 93.720 -165.3764
115.000000 93.696 -165.8211
117.199997 93.640 -165.9329
118.000000 93.626 -165.8392
120.599998 93.621 -165.6214
122.000000 93.650 -165.8089
124.099998 93.715 -166.3113
125.000000 93.747 -166.4942
126.500000 93.799 -166.7206
128.000000 93.840 -166.9873
131.500000 93.828 -168.2012
132.000000 93.822 -168.3557
134.000000 93.840 -168.7220
136.000000 93.919 -168.7555
138.000000 93.978 -168.7520
140.000000 93.944 -168.7819
143.000000 93.807 -168.8363
145.000000 93.752 -169.0627
147.500000 93.751 -169.4789
150.000000 93.798 -169.7123
152.500000 93.857 -169.7994
155.000000 93.876 -169.9912
157.500000 93.830 -170.4425
160.000000 93.787 -170.9012
162.500000 93.797 -171.3805
165.000000 93.787 -171.6359
167.500000 93.761 -171.3670
170.000000 93.799 -171.0782
172.500000 93.894 -171.2025
175.000000 93.971 -171.6190
177.500000 93.974 -172.1452
180.000000 93.928 -172.6839
182.500000 93.876 -172.9874
185.000000 93.824 -172.8409
187.500000 93.753 -172.6340
190.000000 93.677 -172.8027
192.500000 93.673 -173.0962
195.000000 93.744 -173.0270
197.500000 93.800 -172.6110
200.000000 93.775 -172.3427
203.000000 93.685 -172.5017
206.000000 93.611 -172.7607
209.000000 93.565 -172.9335
212.000000 93.529 -173.2381
214.000000 93.516 -173.4948
218.000000 93.472 -174.2775
220.000000 93.423 -174.6201
224.000000 93.364 -174.6455
227.000000 93.396 -174.4678
230.000000 93.463 -174.4212
233.000000 93.525 -174.3867
236.000000 93.544 -174.2553
240.000000 93.528 -174.2640
243.000000 93.529 -174.5994
247.000000 93.535 -175.1695
250.000000 93.524 -175.3524
254.000000 93.498 -175.3511
258.000000 93.454 -175.2222
262.000000 93.417 -174.9361
265.000000 93.395 -174.6968
269.000000 93.360 -174.6889
272.000000 93.321 -174.8744
276.000000 93.276 -174.9904
280.000000 93.261 -174.8449
285.000000 93.264 -174.5542
290.000000 93.250 -174.2485
295.000000 93.209 -173.8770
300.000000 93.172 -173.5710
304.000000 93.158 -173.5169
307.000000 93.148 -173.5871
311.000000 93.132 -173.7226
315.000000 93.122 -173.8081
320.000000 93.131 -173.7790
325.000000 93.124 -173.7196
330.000000 93.082 -173.6760
335.000000 93.029 -173.5221
340.000000 92.996 -173.2222
345.000000 92.981 -172.8667
350.000000 92.956 -172.5044
355.000000 92.903 -172.2144
360.000000 92.834 -172.1350
365.000000 92.805 -172.2588
370.000000 92.858 -172.4345
375.000000 92.950 -172.5476
382.000000 93.020 -172.3026
387.000000 92.988 -171.9247
395.000000 92.858 -171.8070
400.000000 92.806 -172.0974
406.000000 92.783 -172.3359
412.000000 92.755 -172.2090
418.000000 92.719 -171.8745
425.000000 92.680 -171.4673
431.000000 92.639 -171.0885
437.000000 92.599 -170.7113
444.000000 92.588 -170.2620
450.000000 92.601 -169.8289
455.000000 92.606 -169.5439
462.000000 92.592 -169.4733
468.000000 92.572 -169.6990
475.000000 92.549 -169.9786
482.000000 92.508 -170.0072
487.000000 92.468 -169.8639
494.000000 92.423 -169.4611
500.000000 92.416 -169.0930
508.000000 92.433 -168.7084
515.000000 92.441 -168.4621
522.000000 92.439 -168.2187
530.000000 92.439 -167.8214
538.000000 92.439 -167.4224
545.000000 92.444 -167.2150
552.000000 92.446 -167.1196
560.000000 92.433 -166.9159
570.000000 92.407 -166.3721
580.000000 92.395 -165.7116
590.000000 92.383 -165.1449
600.000000 92.362 -164.7822
608.000000 92.345 -164.5754
615.000000 92.331 -164.3333
622.000000 92.323 -164.0022
630.000000 92.325 -163.5721
640.000000 92.329 -163.0500
650.000000 92.319 -162.6054
660.000000 92.311 -162.1216
670.000000 92.326 -161.5314
680.000000 92.359 -160.9821
690.000000 92.386 -160.5483
700.000000 92.383 -160.1595
710.000000 92.357 -159.8660
720.000000 92.317 -159.7224
730.000000 92.250 -159.7463
740.000000 92.139 -159.8228
750.000000 91.966 -159.5927
762.000000 91.676 -158.0894
775.000000 91.455 -154.2270
788.000000 91.585 -149.6495
800.000000 91.936 -146.7986
812.000000 92.302 -145.5237
825.000000 92.599 -145.1733
838.000000 92.794 -145.1663
850.000000 92.917 -145.1007
862.000000 93.011 -144.8871
875.000000 93.098 -144.5103
885.000000 93.162 -144.1566
900.000000 93.267 -143.5769
912.000000 93.361 -143.0760
925.000000 93.469 -142.4967
938.000000 93.581 -141.8954
950.000000 93.687 -141.3535
962.000000 93.795 -140.8456
975.000000 93.916 -140.3469
988.000000 94.037 -139.8853
1000.000000 94.147 -139.4546
1015.000000 94.282 -138.9105
1030.000000 94.417 -138.4076
1044.000000 94.548 -137.9964
1060.000000 94.709 -137.5797
1075.000000 94.864 -137.2538
1090.000000 95.017 -137.0076
1106.000000 95.183 -136.8088
1120.000000 95.331 -136.6881
1138.000000 95.513 -136.6414
1150.000000 95.622 -136.6322
1172.000000 95.813 -136.5750
1180.000000 95.886 -136.5528
1206.000000 96.131 -136.5350
1220.000000 96.260 -136.5879
1241.000000 96.444 -136.7666
1250.000000 96.521 -136.8719
1265.000000 96.646 -137.0591
1280.000000 96.770 -137.2369
1315.000000 97.053 -137.6895
1320.000000 97.092 -137.7673
1340.000000 97.244 -138.1115
1360.000000 97.390 -138.4433
1380.000000 97.526 -138.7225
1400.000000 97.656 -139.0152
1430.000000 97.855 -139.4814
1450.000000 97.984 -139.7831
1475.000000 98.138 -140.1809
1500.000000 98.294 -140.5790
1525.000000 98.446 -140.9803
1550.000000 98.594 -141.4070
1575.000000 98.746 -141.8373
1600.000000 98.903 -142.2583
1625.000000 99.061 -142.6749
1650.000000 99.216 -143.1064
1675.000000 99.370 -143.5583
1700.000000 99.523 -144.0506
1725.000000 99.678 -144.6014
1750.000000 99.837 -145.1912
1775.000000 100.001 -145.8099
1800.000000 100.167 -146.4631
1825.000000 100.331 -147.1616
1850.000000 100.488 -147.9053
1875.000000 100.640 -148.6978
1900.000000 100.789 -149.5530
1925.000000 100.933 -150.4772
1950.000000 101.071 -151.4646
1975.000000 101.204 -152.5082
2000.000000 101.328 -153.6038
2030.000000 101.463 -154.9852
2060.000000 101.582 -156.4264
2090.000000 101.685 -157.9087
2120.000000 101.769 -159.4113
2140.000000 101.816 -160.4131
2180.000000 101.885 -162.3995
2200.000000 101.909 -163.3789
2240.000000 101.937 -165.2914
2270.000000 101.942 -166.6754
2300.000000 101.935 -168.0124
2330.000000 101.919 -169.2994
2360.000000 101.895 -170.5358
2400.000000 101.853 -172.1072
2430.000000 101.813 -173.2327
2470.000000 101.753 -174.6652
2500.000000 101.702 -175.6891
2540.000000 101.630 -176.9860
2580.000000 101.551 -178.2052
2620.000000 101.467 -179.3508
2650.000000 101.399 179.8362
2690.000000 101.304 178.8112
2720.000000 101.230 178.0848
2760.000000 101.129 177.1728
2800.000000 101.023 176.3259
2850.000000 100.887 175.3535
2900.000000 100.747 174.4728
2950.000000 100.606 173.6801
3000.000000 100.464 172.9731
3040.000000 100.351 172.4690
3070.000000 100.266 172.1257
3110.000000 100.152 171.7126
3150.000000 100.037 171.3490
3200.000000 99.894 170.9606
3250.000000 99.750 170.6402
3300.000000 99.606 170.3851
3350.000000 99.466 170.1927
3400.000000 99.330 170.0566
3450.000000 99.201 169.9722
3500.000000 99.077 169.9348
3550.000000 98.957 169.9406
3600.000000 98.843 169.9872
3650.000000 98.733 170.0706
3700.000000 98.629 170.1824
3750.000000 98.530 170.3184
3820.000000 98.399 170.5464
3870.000000 98.310 170.7327
3950.000000 98.174 171.0706
4000.000000 98.094 171.3070
4060.000000 98.000 171.6115
4120.000000 97.910 171.9332
4180.000000 97.824 172.2681
4250.000000 97.730 172.6737
4310.000000 97.655 173.0350
4370.000000 97.585 173.4059
4440.000000 97.512 173.8425
4500.000000 97.455 174.2155
4550.000000 97.413 174.5240
4620.000000 97.359 174.9492
4680.000000 97.320 175.3027
4750.000000 97.280 175.6966
4820.000000 97.245 176.0667
4870.000000 97.223 176.3146
4940.000000 97.196 176.6356
5000.000000 97.175 176.8848
5080.000000 97.146 177.1756
5150.000000 97.121 177.3890
5220.000000 97.096 177.5669
5300.000000 97.067 177.7330
5380.000000 97.038 177.8642
5450.000000 97.011 177.9543
5520.000000 96.983 178.0246
5600.000000 96.949 178.0846
5700.000000 96.902 178.1337
5800.000000 96.848 178.1560
5900.000000 96.788 178.1722
6000.000000 96.722 178.2032
6080.000000 96.667 178.2359
6150.000000 96.617 178.2716
6220.000000 96.567 178.3169
6300.000000 96.512 178.3826
6400.000000 96.448 178.4861
6500.000000 96.388 178.6110
6600.000000 96.327 178.7556
6700.000000 96.264 178.9185
6800.000000 96.199 179.0977
6900.000000 96.127 179.2894
7000.000000 96.047 179.4932
7100.000000 95.955 179.7258
7200.000000 95.844 -179.9746
7300.000000 95.711 -179.5407
7400.000000 95.555 -178.8697
7500.000000 95.382 -177.8441
7620.000000 95.176 -175.9791
7750.000000 94.999 -172.9939
7880.000000 94.946 -168.9051
8000.000000 95.094 -164.2470
8120.000000 95.531 -159.1586
8250.000000 96.418 -154.2138
8380.000000 97.705 -151.4390
8500.000000 99.074 -151.9757
8620.000000 100.392 -155.8027
8750.000000 101.547 -163.1406
8850.000000 102.149 -170.3837
9000.000000 102.518 177.5032
9120.000000 102.364 167.7536
9250.000000 101.807 158.0228
9380.000000 100.932 149.7209
9500.000000 99.928 143.5825
9620.000000 98.809 138.9673
9750.000000 97.536 135.6284
9880.000000 96.264 133.8731
10000.000000 95.139 133.4661
10150.000000 93.846 134.2317
10300.000000 92.700 135.9833
10440.000000 91.757 138.1815
10600.000000 90.805 141.1094
10750.000000 90.010 144.1397
10900.000000 89.293 147.4032
11060.000000 88.604 151.1152
11200.000000 88.061 154.5380
11380.000000 87.443 159.1411
11500.000000 87.080 162.3140
11720.000000 86.513 168.2974
11800.000000 86.338 170.5136
12060.000000 85.884 177.8170
12200.000000 85.713 -178.2007
12410.000000 85.562 -172.1824
12500.000000 85.540 -169.5983
12650.000000 85.560 -165.3034
12800.000000 85.654 -161.0458
13150.000000 86.159 -151.4598
13200.000000 86.266 -150.1541
13400.000000 86.788 -145.1640
13600.000000 87.482 -140.6933
13800.000000 88.371 -137.0465
14000.000000 89.464 -134.6797
14300.000000 91.407 -134.8393
14500.000000 92.754 -138.2920
14750.000000 94.190 -146.8408
15000.000000 94.992 -159.2540
15250.000000 94.905 -173.1499
15500.000000 93.950 174.4421
15750.000000 92.383 165.6377
16000.000000 90.529 161.1143
16250.000000 88.653 160.5540
16500.000000 86.958 163.1873
16750.000000 85.610 167.8579
17000.000000 84.709 172.7780
17250.000000 84.175 176.2210
17500.000000 83.782 177.6172
17750.000000 83.323 177.5449
18000.000000 82.706 176.8900
18250.000000 81.918 176.3451
18500.000000 80.976 176.4069
18750.000000 79.916 177.4488
19000.000000 78.782 179.6807
19250.000000 77.623 -176.9211
19500.000000 76.469 -172.6290
19750.000000 75.314 -167.8798
20000.000000 74.117 -163.1223
20300.000000 72.534 -157.8432
20600.000000 70.679 -153.3224
20900.000000 68.441 -149.6624
21200.000000 65.742 -146.7238
21400.000000 63.672 -145.0417
21800.000000 58.908 -142.1616
22000.000000 56.258 -140.9745
22400.000000 50.673 -139.3928
22700.000000 46.836 -139.2936
23000.000000 44.768 -140.3475
23300.000000 45.530 -142.6539
23600.000000 47.550 -149.0844
24000.000000 49.326 -159.7021
