* Measurement data measured by REW V5.30.9
* Source: Headset (JA3 HIFI AUDIO(CX31993)), MICROPHONE (Master Volume), L, volume: 0.250
* Format: 512k Log Swept Sine, 1 sweep at -13.0 dBFS with no timing reference
* Dated: Feb 24, 2024 2:35:40 PM
* REW Settings:
*  C-weighting compensation: Off
*  Target level: 75.0 dB
* Note: ; 
* Measurement: ThieAudio Oracle L
* Smoothing: 1/12 octave
* Frequency Step: 1/48 octave
* Start Frequency: 1.000 Hz
*
* Freq(Hz) SPL(dB) Phase(degrees)
1.000000 78.646 -16.7515
1.015000 78.850 -17.5718
1.030000 79.052 -18.3882
1.044000 79.239 -19.1481
1.060000 79.451 -20.0160
1.075000 79.648 -20.8309
1.090000 79.843 -21.6488
1.106000 80.049 -22.5263
1.120000 80.227 -23.2988
1.138000 80.451 -24.2976
1.150000 80.597 -24.9657
1.172000 80.860 -26.1918
1.180000 80.954 -26.6371
1.206000 81.252 -28.0786
1.220000 81.409 -28.8494
1.241000 81.640 -29.9956
1.250000 81.737 -30.4827
1.265000 81.896 -31.2882
1.280000 82.053 -32.0852
1.315000 82.410 -33.9088
1.320000 82.460 -34.1649
1.340000 82.658 -35.1780
1.360000 82.852 -36.1725
1.380000 83.044 -37.1481
1.400000 83.232 -38.1048
1.430000 83.509 -39.5058
1.450000 83.691 -40.4193
1.475000 83.914 -41.5440
1.500000 84.132 -42.6567
1.525000 84.343 -43.7618
1.550000 84.549 -44.8594
1.575000 84.749 -45.9482
1.600000 84.943 -47.0268
1.625000 85.132 -48.0939
1.650000 85.316 -49.1484
1.675000 85.496 -50.1898
1.700000 85.672 -51.2174
1.725000 85.843 -52.2312
1.750000 86.011 -53.2311
1.775000 86.176 -54.2178
1.800000 86.337 -55.1927
1.825000 86.496 -56.1591
1.850000 86.651 -57.1219
1.875000 86.801 -58.0852
1.900000 86.948 -59.0503
1.925000 87.090 -60.0160
1.950000 87.229 -60.9798
1.975000 87.364 -61.9390
2.000000 87.495 -62.8910
2.030000 87.648 -64.0206
2.060000 87.796 -65.1326
2.090000 87.941 -66.2238
2.120000 88.081 -67.2917
2.140000 88.173 -67.9901
2.180000 88.352 -69.3559
2.200000 88.439 -70.0260
2.240000 88.608 -71.3508
2.270000 88.730 -72.3365
2.300000 88.848 -73.3165
2.330000 88.962 -74.2891
2.360000 89.071 -75.2521
2.400000 89.213 -76.5162
2.430000 89.315 -77.4459
2.470000 89.447 -78.6565
2.500000 89.543 -79.5405
2.540000 89.668 -80.6863
2.580000 89.789 -81.7990
2.620000 89.904 -82.8870
2.650000 89.988 -83.6907
2.690000 90.094 -84.7470
2.720000 90.172 -85.5272
2.760000 90.271 -86.5493
2.800000 90.367 -87.5480
2.850000 90.483 -88.7592
2.900000 90.595 -89.9258
2.950000 90.704 -91.0489
3.000000 90.809 -92.1350
3.040000 90.889 -92.9813
3.070000 90.948 -93.6036
3.110000 91.024 -94.4172
3.150000 91.098 -95.2120
3.200000 91.189 -96.1781
3.250000 91.279 -97.1128
3.300000 91.367 -98.0151
3.350000 91.454 -98.8857
3.400000 91.540 -99.7274
3.450000 91.624 -100.5436
3.500000 91.707 -101.3383
3.550000 91.789 -102.1146
3.600000 91.871 -102.8751
3.650000 91.953 -103.6210
3.700000 92.035 -104.3521
3.750000 92.116 -105.0679
3.820000 92.230 -106.0471
3.870000 92.311 -106.7338
3.950000 92.440 -107.8185
4.000000 92.520 -108.4912
4.060000 92.615 -109.2946
4.120000 92.710 -110.0931
4.180000 92.805 -110.8867
4.250000 92.913 -111.8080
4.310000 93.004 -112.5961
4.370000 93.094 -113.3852
4.440000 93.195 -114.3091
4.500000 93.280 -115.1038
4.550000 93.349 -115.7668
4.620000 93.442 -116.6937
4.680000 93.519 -117.4850
4.750000 93.605 -118.4039
4.820000 93.686 -119.3195
4.870000 93.741 -119.9720
4.940000 93.815 -120.8807
5.000000 93.874 -121.6515
5.080000 93.949 -122.6619
5.150000 94.009 -123.5277
5.220000 94.064 -124.3775
5.300000 94.122 -125.3285
5.380000 94.175 -126.2525
5.450000 94.217 -127.0337
5.520000 94.257 -127.7872
5.600000 94.298 -128.6150
5.700000 94.345 -129.6006
5.800000 94.388 -130.5290
5.900000 94.430 -131.3966
6.000000 94.471 -132.2047
6.080000 94.503 -132.8122
6.150000 94.532 -133.3184
6.220000 94.562 -133.8024
6.300000 94.598 -134.3293
6.400000 94.646 -134.9532
6.500000 94.697 -135.5478
6.600000 94.752 -136.1231
6.700000 94.811 -136.6843
6.800000 94.874 -137.2371
6.900000 94.940 -137.7897
7.000000 95.007 -138.3491
7.100000 95.077 -138.9182
7.200000 95.148 -139.4988
7.300000 95.218 -140.0934
7.400000 95.288 -140.7036
7.500000 95.356 -141.3286
7.620000 95.434 -142.0946
7.750000 95.514 -142.9403
7.880000 95.588 -143.7979
8.000000 95.650 -144.5932
8.120000 95.707 -145.3857
8.250000 95.761 -146.2364
8.380000 95.809 -147.0728
8.500000 95.848 -147.8274
8.620000 95.883 -148.5627
8.750000 95.915 -149.3355
8.850000 95.937 -149.9117
9.000000 95.965 -150.7460
9.120000 95.985 -151.3879
9.250000 96.003 -152.0584
9.380000 96.018 -152.7038
9.500000 96.031 -153.2787
9.620000 96.040 -153.8345
9.750000 96.046 -154.4157
9.880000 96.047 -154.9761
10.000000 96.041 -155.4753
10.150000 96.026 -156.0750
10.300000 96.003 -156.6476
10.440000 95.978 -157.1572
10.600000 95.945 -157.7097
10.750000 95.913 -158.1986
10.900000 95.880 -158.6595
11.060000 95.845 -159.1215
11.200000 95.816 -159.5021
11.380000 95.779 -159.9631
11.500000 95.756 -160.2557
11.720000 95.719 -160.7706
11.800000 95.707 -160.9538
12.060000 95.674 -161.5480
12.200000 95.661 -161.8749
12.410000 95.648 -162.3841
12.500000 95.646 -162.6110
12.650000 95.645 -163.0017
12.800000 95.648 -163.4072
13.150000 95.654 -164.3946
13.200000 95.654 -164.5379
13.400000 95.654 -165.1093
13.600000 95.652 -165.6699
13.800000 95.651 -166.2136
14.000000 95.651 -166.7418
14.300000 95.661 -167.5268
14.500000 95.675 -168.0688
14.750000 95.697 -168.7958
15.000000 95.719 -169.5921
15.250000 95.734 -170.4457
15.500000 95.735 -171.3126
15.750000 95.722 -172.1272
16.000000 95.699 -172.8233
16.250000 95.680 -173.3611
16.500000 95.679 -173.7503
16.750000 95.707 -174.0587
17.000000 95.769 -174.3966
17.250000 95.858 -174.8786
17.500000 95.955 -175.5803
17.750000 96.040 -176.5093
18.000000 96.090 -177.5999
18.250000 96.095 -178.7307
18.500000 96.053 -179.7546
18.750000 95.975 179.4641
19.000000 95.882 179.0115
19.250000 95.801 178.8923
19.500000 95.756 179.0165
19.750000 95.760 179.2256
20.000000 95.809 179.3447
20.299999 95.901 179.1861
20.600000 95.991 178.6370
20.900000 96.040 177.7905
21.200001 96.031 176.8408
21.400000 95.994 176.2556
21.799999 95.872 175.4103
22.000000 95.805 175.1866
22.400000 95.701 175.0513
22.700001 95.667 175.0451
23.000000 95.666 174.9420
23.299999 95.681 174.6462
23.600000 95.691 174.1555
24.000000 95.671 173.3441
24.299999 95.632 172.7662
24.700001 95.572 172.1927
25.000000 95.547 171.9053
25.400000 95.566 171.5330
25.799999 95.638 170.8938
26.200001 95.717 169.8181
26.500000 95.747 168.7786
26.900000 95.723 167.3287
27.200001 95.661 166.3930
27.600000 95.552 165.5517
28.000000 95.465 165.1729
28.500000 95.437 164.9759
29.000000 95.470 164.5962
29.500000 95.489 163.9517
30.000000 95.460 163.3508
30.400000 95.424 163.0598
30.700001 95.404 162.9332
31.100000 95.391 162.7887
31.500000 95.382 162.5911
32.000000 95.358 162.2919
32.500000 95.319 162.0566
33.000000 95.292 161.8811
33.500000 95.283 161.5915
34.000000 95.264 161.1072
34.500000 95.211 160.6067
35.000000 95.150 160.3300
35.500000 95.135 160.2372
36.000000 95.191 159.9653
36.500000 95.276 159.1851
37.000000 95.322 157.9301
37.500000 95.293 156.5398
38.200001 95.161 155.0009
38.700001 95.055 154.3387
39.500000 94.929 153.8637
40.000000 94.895 153.8091
40.599998 94.911 153.7880
41.200001 94.977 153.5228
41.799999 95.036 152.8914
42.500000 95.039 151.9965
43.099998 95.000 151.4175
43.700001 94.962 151.0342
44.400002 94.931 150.6177
45.000000 94.900 150.2120
45.500000 94.868 149.8842
46.200001 94.829 149.4635
46.799999 94.813 149.0344
47.500000 94.797 148.3170
48.200001 94.751 147.4690
48.700001 94.700 146.9609
49.400002 94.642 146.5178
50.000000 94.639 146.2342
50.799999 94.680 145.5638
51.500000 94.689 144.7004
52.200001 94.651 143.9146
53.000000 94.585 143.3213
53.799999 94.522 142.9438
54.500000 94.472 142.7308
55.200001 94.445 142.5248
56.000000 94.438 141.9613
57.000000 94.364 140.6964
58.000000 94.197 139.7151
59.000000 94.095 139.3081
60.000000 94.105 138.7204
60.799999 94.134 137.9326
61.500000 94.141 137.1363
62.200001 94.121 136.3837
63.000000 94.066 135.7242
64.000000 93.980 135.3006
65.000000 93.919 135.1183
66.000000 93.886 134.7526
67.000000 93.842 134.0783
68.000000 93.783 133.3078
69.000000 93.727 132.5697
70.000000 93.688 131.9644
71.000000 93.680 131.4932
72.000000 93.694 131.0567
73.000000 93.718 130.5678
74.000000 93.738 129.9221
75.000000 93.757 129.1436
76.199997 93.820 127.7780
77.500000 93.896 125.6260
78.800003 93.982 123.2914
80.000000 94.033 121.2769
81.199997 94.030 120.1517
82.500000 94.020 119.9692
83.800003 93.951 120.4248
85.000000 93.825 121.4034
86.199997 93.688 122.3100
87.500000 93.470 122.5035
88.500000 93.230 122.5338
90.000000 92.962 122.9451
91.199997 92.935 122.4917
92.500000 92.930 120.7097
93.800003 92.812 118.6520
95.000000 92.612 117.4809
96.199997 92.416 117.1920
97.500000 92.267 117.4572
98.800003 92.211 117.9088
100.000000 92.232 118.0340
101.500000 92.265 117.6412
103.000000 92.250 117.0375
104.400002 92.185 116.3622
106.000000 92.058 115.4002
107.500000 91.935 114.0568
109.000000 91.828 112.0292
110.599998 91.702 109.5876
112.000000 91.591 108.1312
113.800003 91.542 107.8925
115.000000 91.589 108.3275
117.199997 91.683 108.6568
118.000000 91.673 108.5323
120.599998 91.504 107.6945
122.000000 91.380 107.0890
124.099998 91.204 106.2281
125.000000 91.140 105.9366
126.500000 91.066 105.5328
128.000000 91.041 105.0785
131.500000 91.046 103.6480
132.000000 91.033 103.4661
134.000000 90.918 102.9873
136.000000 90.726 102.9132
138.000000 90.565 102.8746
140.000000 90.513 102.4138
143.000000 90.558 101.0539
145.000000 90.565 100.1745
147.500000 90.502 99.4040
150.000000 90.443 98.9540
152.500000 90.438 98.3223
155.000000 90.448 97.5256
157.500000 90.460 97.1270
160.000000 90.473 97.0580
162.500000 90.401 96.7461
165.000000 90.229 96.1520
167.500000 90.048 95.4310
170.000000 89.910 94.8326
172.500000 89.803 94.4657
175.000000 89.711 94.1546
177.500000 89.626 93.7078
180.000000 89.533 93.1701
182.500000 89.444 92.6861
185.000000 89.381 92.2475
187.500000 89.338 91.8526
190.000000 89.309 91.4025
192.500000 89.289 90.7374
195.000000 89.275 90.0154
197.500000 89.251 89.6577
200.000000 89.209 89.9637
203.000000 89.145 90.7859
206.000000 89.079 91.2954
209.000000 89.028 90.7940
212.000000 89.006 89.5677
214.000000 89.013 88.8619
218.000000 89.041 88.3733
220.000000 89.044 88.4345
224.000000 89.029 88.2474
227.000000 88.972 87.6373
230.000000 88.885 86.8922
233.000000 88.819 86.0320
236.000000 88.786 85.0192
240.000000 88.763 83.9018
243.000000 88.765 83.4850
247.000000 88.811 83.1581
250.000000 88.887 82.9066
254.000000 88.955 82.6682
258.000000 88.922 82.6254
262.000000 88.881 82.4216
265.000000 88.880 82.1106
269.000000 88.905 81.6736
272.000000 88.912 81.4948
276.000000 88.853 81.3521
280.000000 88.747 81.0383
285.000000 88.670 80.3035
290.000000 88.644 79.3008
295.000000 88.631 78.7222
300.000000 88.650 78.7495
304.000000 88.678 78.8347
307.000000 88.703 78.7957
311.000000 88.738 78.4990
315.000000 88.756 78.0667
320.000000 88.743 77.7085
325.000000 88.722 77.1529
330.000000 88.706 76.2541
335.000000 88.707 75.3532
340.000000 88.748 74.7373
345.000000 88.792 74.3361
350.000000 88.803 73.8954
355.000000 88.795 73.3353
360.000000 88.818 72.7037
365.000000 88.883 72.3921
370.000000 88.925 72.4786
375.000000 88.919 72.6768
382.000000 88.954 72.7266
387.000000 89.038 72.3401
395.000000 89.159 71.6456
400.000000 89.216 71.0080
406.000000 89.149 70.0176
412.000000 89.031 69.9408
418.000000 89.003 70.0840
425.000000 89.022 69.5027
431.000000 89.035 68.7902
437.000000 89.041 68.2803
444.000000 89.052 67.8932
450.000000 89.079 67.6273
455.000000 89.115 67.4662
462.000000 89.173 67.1954
468.000000 89.221 66.8807
475.000000 89.251 66.5589
482.000000 89.253 66.2279
487.000000 89.252 65.9440
494.000000 89.260 65.5711
500.000000 89.271 65.3005
508.000000 89.292 64.8975
515.000000 89.325 64.5037
522.000000 89.362 64.0675
530.000000 89.392 63.5399
538.000000 89.405 63.1041
545.000000 89.398 62.8135
552.000000 89.382 62.5457
560.000000 89.380 62.1703
570.000000 89.424 61.5024
580.000000 89.521 60.8893
590.000000 89.603 60.5694
600.000000 89.641 60.3983
608.000000 89.647 60.2524
615.000000 89.646 60.0869
622.000000 89.653 59.8739
630.000000 89.671 59.6287
640.000000 89.696 59.4743
650.000000 89.705 59.3796
660.000000 89.696 59.2385
670.000000 89.702 58.8665
680.000000 89.740 58.2796
690.000000 89.792 57.7946
700.000000 89.818 57.5309
710.000000 89.821 57.4481
720.000000 89.837 57.3551
730.000000 89.873 57.1852
740.000000 89.903 57.1062
750.000000 89.920 57.1184
762.000000 89.941 57.2032
775.000000 89.964 57.2037
788.000000 89.989 57.1440
800.000000 90.026 57.1945
812.000000 90.075 57.2824
825.000000 90.132 57.3415
838.000000 90.183 57.3529
850.000000 90.224 57.3362
862.000000 90.267 57.3474
875.000000 90.319 57.4092
885.000000 90.359 57.4577
900.000000 90.425 57.4793
912.000000 90.489 57.4802
925.000000 90.563 57.5199
938.000000 90.634 57.5923
950.000000 90.705 57.6634
962.000000 90.781 57.7173
975.000000 90.863 57.7602
988.000000 90.944 57.7806
1000.000000 91.017 57.7861
1015.000000 91.108 57.7637
1030.000000 91.199 57.6743
1044.000000 91.284 57.5640
1060.000000 91.377 57.4473
1075.000000 91.461 57.3253
1090.000000 91.547 57.1503
1106.000000 91.645 56.8973
1120.000000 91.736 56.6322
1138.000000 91.850 56.2264
1150.000000 91.920 55.9275
1172.000000 92.033 55.3632
1180.000000 92.070 55.1570
1206.000000 92.190 54.4805
1220.000000 92.255 54.1049
1241.000000 92.351 53.5202
1250.000000 92.391 53.2722
1265.000000 92.458 52.8753
1280.000000 92.523 52.4929
1315.000000 92.664 51.6086
1320.000000 92.683 51.4819
1340.000000 92.749 50.9769
1360.000000 92.806 50.4824
1380.000000 92.858 49.9948
1400.000000 92.910 49.5184
1430.000000 92.989 48.8651
1450.000000 93.039 48.4705
1475.000000 93.093 48.0154
1500.000000 93.142 47.5871
1525.000000 93.189 47.1820
1550.000000 93.237 46.8087
1575.000000 93.284 46.4723
1600.000000 93.332 46.1711
1625.000000 93.381 45.9021
1650.000000 93.433 45.6612
1675.000000 93.486 45.4467
1700.000000 93.541 45.2566
1725.000000 93.597 45.0769
1750.000000 93.655 44.8962
1775.000000 93.716 44.7225
1800.000000 93.778 44.5633
1825.000000 93.842 44.4177
1850.000000 93.908 44.2794
1875.000000 93.976 44.1402
1900.000000 94.047 43.9959
1925.000000 94.120 43.8478
1950.000000 94.195 43.6990
1975.000000 94.271 43.5510
2000.000000 94.350 43.3998
2030.000000 94.449 43.2079
2060.000000 94.550 43.0074
2090.000000 94.653 42.8029
2120.000000 94.758 42.5899
2140.000000 94.829 42.4398
2180.000000 94.974 42.1175
2200.000000 95.048 41.9423
2240.000000 95.200 41.5600
2270.000000 95.316 41.2454
2300.000000 95.433 40.9048
2330.000000 95.550 40.5372
2360.000000 95.669 40.1406
2400.000000 95.827 39.5648
2430.000000 95.946 39.0944
2470.000000 96.104 38.4092
2500.000000 96.223 37.8549
2540.000000 96.381 37.0602
2580.000000 96.537 36.1978
2620.000000 96.690 35.2695
2650.000000 96.800 34.5294
2690.000000 96.942 33.4842
2720.000000 97.042 32.6606
2760.000000 97.167 31.5149
2800.000000 97.282 30.3198
2850.000000 97.410 28.7649
2900.000000 97.518 27.1573
2950.000000 97.606 25.5164
3000.000000 97.672 23.8612
3040.000000 97.711 22.5415
3070.000000 97.732 21.5635
3110.000000 97.749 20.2848
3150.000000 97.756 19.0423
3200.000000 97.754 17.5417
3250.000000 97.745 16.0928
3300.000000 97.730 14.6772
3350.000000 97.709 13.2750
3400.000000 97.679 11.8790
3450.000000 97.639 10.5020
3500.000000 97.588 9.1660
3550.000000 97.527 7.8892
3600.000000 97.459 6.6794
3650.000000 97.389 5.5372
3700.000000 97.319 4.4569
3750.000000 97.252 3.4229
3820.000000 97.164 2.0096
3870.000000 97.107 0.9933
3950.000000 97.019 -0.7178
4000.000000 96.960 -1.8776
4060.000000 96.877 -3.3861
4120.000000 96.769 -5.0219
4180.000000 96.625 -6.7511
4250.000000 96.395 -8.7811
4310.000000 96.139 -10.3998
4370.000000 95.830 -11.7582
4440.000000 95.420 -12.8357
4500.000000 95.049 -13.2213
4550.000000 94.747 -13.1415
4620.000000 94.364 -12.4762
4680.000000 94.095 -11.5153
4750.000000 93.864 -10.1432
4820.000000 93.722 -8.7170
4870.000000 93.668 -7.7637
4940.000000 93.645 -6.6074
5000.000000 93.662 -5.8203
5080.000000 93.719 -5.0870
5150.000000 93.788 -4.7391
5220.000000 93.864 -4.6472
5300.000000 93.951 -4.8197
5380.000000 94.032 -5.2422
5450.000000 94.091 -5.7769
5520.000000 94.135 -6.4287
5600.000000 94.167 -7.2756
5700.000000 94.177 -8.4192
5800.000000 94.155 -9.5797
5900.000000 94.108 -10.6878
6000.000000 94.039 -11.6894
6080.000000 93.976 -12.3889
6150.000000 93.920 -12.9176
6220.000000 93.866 -13.3654
6300.000000 93.815 -13.7797
6400.000000 93.773 -14.1628
6500.000000 93.758 -14.4172
6600.000000 93.775 -14.5765
6700.000000 93.825 -14.6817
6800.000000 93.913 -14.7770
6900.000000 94.041 -14.9120
7000.000000 94.213 -15.1462
7100.000000 94.430 -15.5483
7200.000000 94.691 -16.2009
7300.000000 94.990 -17.2017
7400.000000 95.317 -18.6516
7500.000000 95.655 -20.6356
7620.000000 96.045 -23.7928
7750.000000 96.401 -28.1848
7880.000000 96.623 -33.5046
8000.000000 96.649 -39.0091
8120.000000 96.467 -44.7120
8250.000000 96.033 -50.6182
8380.000000 95.385 -55.7603
8500.000000 94.648 -59.5176
8620.000000 93.830 -62.1849
8750.000000 92.910 -63.8395
8850.000000 92.209 -64.3024
9000.000000 91.209 -63.8595
9120.000000 90.473 -62.6942
9250.000000 89.753 -60.8038
9380.000000 89.117 -58.4146
9500.000000 88.603 -55.8749
9620.000000 88.157 -53.0974
9750.000000 87.749 -49.9012
9880.000000 87.416 -46.5834
10000.000000 87.174 -43.4636
10150.000000 86.955 -39.5538
10300.000000 86.821 -35.7077
10440.000000 86.760 -32.2430
10600.000000 86.757 -28.5190
10750.000000 86.804 -25.3389
10900.000000 86.877 -22.5338
11060.000000 86.955 -19.9906
11200.000000 86.992 -18.0966
11380.000000 86.959 -15.8564
11500.000000 86.877 -14.2128
11720.000000 86.646 -10.0853
11800.000000 86.568 -8.0676
12060.000000 86.535 0.2493
12200.000000 86.738 5.2173
12410.000000 87.341 12.0077
12500.000000 87.685 14.4066
12650.000000 88.321 17.5382
12800.000000 88.985 19.5445
13150.000000 90.344 20.4410
13200.000000 90.496 20.2581
13400.000000 90.972 19.1732
13600.000000 91.253 18.0856
13800.000000 91.400 17.5745
14000.000000 91.505 17.9005
14300.000000 91.788 19.6062
14500.000000 92.145 20.7898
14750.000000 92.765 21.0834
15000.000000 93.431 19.0265
15250.000000 93.901 14.3478
15500.000000 93.945 7.8644
15750.000000 93.442 1.2184
16000.000000 92.426 -3.8468
16250.000000 91.050 -6.1957
16500.000000 89.518 -5.5393
16750.000000 88.017 -2.2721
17000.000000 86.680 2.8203
17250.000000 85.575 8.8239
17500.000000 84.713 14.8588
17750.000000 84.053 20.1373
18000.000000 83.507 24.0490
18250.000000 82.942 26.3498
18500.000000 82.202 27.3680
18750.000000 81.154 28.1002
19000.000000 79.736 30.1143
19250.000000 77.989 35.3228
19500.000000 76.079 45.5913
19750.000000 74.288 61.3088
20000.000000 72.882 78.8970
20300.000000 71.631 95.7386
20600.000000 70.351 107.1754
20900.000000 68.646 116.0549
21200.000000 66.412 124.0865
21400.000000 64.638 129.0745
21800.000000 60.466 137.6141
22000.000000 58.093 140.9346
22400.000000 52.888 145.5879
22700.000000 48.894 148.0147
23000.000000 45.734 151.3771
23300.000000 44.901 157.2294
23600.000000 46.114 161.7161
24000.000000 47.621 162.4426
