* Measurement data measured by REW V5.30.2
* Source: Headset (USB-C to 3.5mm Headphone Jack Adapter), MICROPHONE (Master Volume), L, volume: 0.250
* Format: 512k Log Swept Sine, 1 sweep at -12.0 dBFS with no timing reference
* Dated: Feb 6, 2024 12:59:07 PM
* REW Settings:
*  C-weighting compensation: Off
*  Target level: 75.0 dB
* Note: ; 
* Measurement: Truthear Zero R
* Smoothing: 1/24 octave
* Frequency Step: 1/48 octave
* Start Frequency: 20.300 Hz
*
* Freq(Hz) SPL(dB) Phase(degrees)
20.299999 95.273 -78.5855
20.600000 95.361 -79.5009
20.900000 95.542 -80.8967
21.200001 95.723 -81.5795
21.400000 95.828 -81.6816
21.799999 95.964 -81.5376
22.000000 95.976 -81.5565
22.400000 95.871 -82.2270
22.700001 95.717 -83.4195
23.000000 95.581 -85.0880
23.299999 95.552 -86.8717
23.600000 95.666 -88.4438
24.000000 96.002 -89.8945
24.299999 96.288 -90.5464
24.700001 96.569 -91.2019
25.000000 96.654 -91.8229
25.400000 96.621 -93.0158
25.799999 96.533 -94.5154
26.200001 96.517 -96.0124
26.500000 96.573 -96.9974
26.900000 96.698 -98.1437
27.200001 96.782 -98.9970
27.600000 96.852 -100.2815
28.000000 96.905 -101.7238
28.500000 97.021 -103.3562
29.000000 97.188 -104.2791
29.500000 97.303 -104.4809
30.000000 97.309 -104.5463
30.400000 97.286 -104.9414
30.700001 97.295 -105.5334
31.100000 97.363 -106.6210
31.500000 97.468 -107.8296
32.000000 97.572 -109.2120
32.500000 97.619 -110.4211
33.000000 97.667 -111.6760
33.500000 97.766 -113.0835
34.000000 97.885 -114.4557
34.500000 97.954 -115.5139
35.000000 97.967 -116.2276
35.500000 97.969 -116.8720
36.000000 97.993 -117.7329
36.500000 98.024 -118.8062
37.000000 98.038 -119.8370
37.500000 98.051 -120.6466
38.200001 98.144 -121.6005
38.700001 98.262 -122.4259
39.500000 98.409 -124.0969
40.000000 98.427 -125.2028
40.599998 98.396 -126.4378
41.200001 98.362 -127.4719
41.799999 98.354 -128.3352
42.500000 98.378 -129.4017
43.099998 98.431 -130.5257
43.700001 98.511 -131.6550
44.400002 98.599 -132.6848
45.000000 98.635 -133.3671
45.500000 98.650 -133.9632
46.200001 98.694 -134.9790
46.799999 98.755 -135.9932
47.500000 98.803 -137.1841
48.200001 98.813 -138.2081
48.700001 98.815 -138.8241
49.400002 98.815 -139.6726
50.000000 98.806 -140.5204
50.799999 98.808 -141.7901
51.500000 98.845 -142.8223
52.200001 98.886 -143.6683
53.000000 98.917 -144.5491
53.799999 98.953 -145.5218
54.500000 98.973 -146.3866
55.200001 98.961 -147.2157
56.000000 98.926 -148.2592
57.000000 98.923 -149.7162
58.000000 98.973 -150.9531
59.000000 99.025 -151.8430
60.000000 99.042 -152.7072
60.799999 99.014 -153.6502
61.500000 98.976 -154.5521
62.200001 98.961 -155.3700
63.000000 98.976 -156.2352
64.000000 99.009 -157.3282
65.000000 99.043 -158.4539
66.000000 99.063 -159.5267
67.000000 99.029 -160.4727
68.000000 98.960 -161.5971
69.000000 98.934 -162.6872
70.000000 98.945 -163.3732
71.000000 98.937 -163.9624
72.000000 98.881 -164.7369
73.000000 98.815 -165.6297
74.000000 98.792 -166.5691
75.000000 98.788 -167.5318
76.199997 98.772 -168.5267
77.500000 98.718 -169.4646
78.800003 98.675 -170.3967
80.000000 98.669 -171.3001
81.199997 98.639 -172.4807
82.500000 98.578 -173.5882
83.800003 98.525 -174.4520
85.000000 98.503 -175.2755
86.199997 98.491 -175.9630
87.500000 98.453 -176.4748
88.500000 98.376 -176.7185
90.000000 98.246 -177.3286
91.199997 98.228 -178.5707
92.500000 98.226 -179.8465
93.800003 98.193 179.2921
95.000000 98.149 178.5768
96.199997 98.097 177.9307
97.500000 98.042 177.2728
98.800003 97.981 176.6040
100.000000 97.917 175.9678
101.500000 97.825 175.0155
103.000000 97.756 174.2075
104.400002 97.691 173.6746
106.000000 97.631 173.0099
107.500000 97.560 172.2733
109.000000 97.482 171.5734
110.599998 97.389 170.9747
112.000000 97.298 170.4131
113.800003 97.216 169.5413
115.000000 97.164 169.1054
117.199997 97.038 168.3519
118.000000 96.978 168.0502
120.599998 96.815 167.2083
122.000000 96.744 166.6747
124.099998 96.625 166.1132
125.000000 96.583 165.8300
126.500000 96.505 165.2705
128.000000 96.407 164.8381
131.500000 96.223 164.1781
132.000000 96.201 164.0627
134.000000 96.099 163.5630
136.000000 95.990 162.9675
138.000000 95.868 162.3444
140.000000 95.716 161.9739
143.000000 95.493 161.7167
145.000000 95.373 161.5898
147.500000 95.251 161.3847
150.000000 95.113 161.1223
152.500000 94.948 160.9019
155.000000 94.773 160.7663
157.500000 94.626 160.6351
160.000000 94.484 160.6381
162.500000 94.338 160.6706
165.000000 94.205 160.7050
167.500000 94.085 160.9444
170.000000 93.925 161.3743
172.500000 93.775 161.4734
175.000000 93.608 161.3045
177.500000 93.385 161.3734
180.000000 93.231 161.6221
182.500000 93.173 162.1011
185.000000 93.088 162.9131
187.500000 92.889 163.9166
190.000000 92.683 164.9374
192.500000 92.487 165.8495
195.000000 92.349 166.7171
197.500000 92.386 167.4641
200.000000 92.494 168.2690
203.000000 92.611 169.0024
206.000000 92.604 170.5029
209.000000 92.419 170.8567
212.000000 92.342 169.7717
214.000000 92.346 169.4333
218.000000 92.340 169.9479
220.000000 92.310 170.4192
224.000000 92.250 171.1584
227.000000 92.201 171.5543
230.000000 92.159 172.0586
233.000000 92.149 172.4793
236.000000 92.167 172.5819
240.000000 92.204 172.6521
243.000000 92.195 172.5545
247.000000 92.126 172.7546
250.000000 92.118 173.7485
254.000000 92.092 175.1472
258.000000 91.994 175.5610
262.000000 91.977 175.6894
265.000000 91.983 175.9829
269.000000 91.975 176.4222
272.000000 91.970 176.7792
276.000000 91.972 177.2484
280.000000 91.952 177.5735
285.000000 91.923 177.8266
290.000000 91.945 178.1628
295.000000 91.933 178.6835
300.000000 91.914 179.0905
304.000000 91.904 179.5068
307.000000 91.903 179.8120
311.000000 91.913 -179.9680
315.000000 91.922 -179.8284
320.000000 91.908 -179.5548
325.000000 91.871 -179.3463
330.000000 91.871 -179.0239
335.000000 91.880 -178.7235
340.000000 91.876 -178.5195
345.000000 91.870 -178.2917
350.000000 91.864 -178.0082
355.000000 91.850 -177.7164
360.000000 91.834 -177.4557
365.000000 91.815 -177.2280
370.000000 91.800 -177.0377
375.000000 91.786 -176.8038
382.000000 91.762 -176.4156
387.000000 91.748 -176.1424
395.000000 91.722 -175.6764
400.000000 91.703 -175.3922
406.000000 91.689 -175.0692
412.000000 91.679 -174.7857
418.000000 91.662 -174.4996
425.000000 91.643 -174.1161
431.000000 91.629 -173.7412
437.000000 91.606 -173.3621
444.000000 91.577 -172.9699
450.000000 91.558 -172.6264
455.000000 91.545 -172.3518
462.000000 91.522 -171.9854
468.000000 91.499 -171.6200
475.000000 91.479 -171.1644
482.000000 91.464 -170.7599
487.000000 91.451 -170.4855
494.000000 91.430 -170.0791
500.000000 91.419 -169.7035
508.000000 91.401 -169.1860
515.000000 91.379 -168.7370
522.000000 91.364 -168.3074
530.000000 91.350 -167.7993
538.000000 91.335 -167.2734
545.000000 91.318 -166.8157
552.000000 91.302 -166.3351
560.000000 91.296 -165.7666
570.000000 91.291 -165.0579
580.000000 91.275 -164.3671
590.000000 91.255 -163.7065
600.000000 91.245 -163.0012
608.000000 91.244 -162.4400
615.000000 91.241 -161.9512
622.000000 91.238 -161.4520
630.000000 91.239 -160.8577
640.000000 91.241 -160.1129
650.000000 91.241 -159.4144
660.000000 91.243 -158.7111
670.000000 91.250 -157.9808
680.000000 91.263 -157.2433
690.000000 91.279 -156.4980
700.000000 91.296 -155.7513
710.000000 91.307 -155.0034
720.000000 91.319 -154.2467
730.000000 91.340 -153.4904
740.000000 91.368 -152.7398
750.000000 91.400 -151.9849
762.000000 91.438 -151.0737
775.000000 91.480 -150.0968
788.000000 91.528 -149.1159
800.000000 91.576 -148.2184
812.000000 91.627 -147.3398
825.000000 91.681 -146.4010
838.000000 91.739 -145.4556
850.000000 91.797 -144.5810
862.000000 91.862 -143.7522
875.000000 91.937 -142.8942
885.000000 91.997 -142.2340
900.000000 92.093 -141.2575
912.000000 92.174 -140.5048
925.000000 92.264 -139.7124
938.000000 92.357 -138.9530
950.000000 92.447 -138.2906
962.000000 92.541 -137.6568
975.000000 92.647 -137.0001
988.000000 92.754 -136.3722
1000.000000 92.851 -135.8253
1015.000000 92.969 -135.1869
1030.000000 93.085 -134.6081
1044.000000 93.196 -134.1297
1060.000000 93.324 -133.6306
1075.000000 93.443 -133.1956
1090.000000 93.560 -132.7998
1106.000000 93.682 -132.4282
1120.000000 93.786 -132.1441
1138.000000 93.913 -131.8299
1150.000000 93.995 -131.6458
1172.000000 94.144 -131.3497
1180.000000 94.196 -131.2524
1206.000000 94.355 -130.9802
1220.000000 94.433 -130.8575
1241.000000 94.545 -130.6888
1250.000000 94.593 -130.6176
1265.000000 94.675 -130.4967
1280.000000 94.758 -130.3730
1315.000000 94.942 -130.0646
1320.000000 94.966 -130.0175
1340.000000 95.063 -129.8213
1360.000000 95.157 -129.6116
1380.000000 95.250 -129.3911
1400.000000 95.342 -129.1631
1430.000000 95.478 -128.7994
1450.000000 95.570 -128.5545
1475.000000 95.684 -128.2438
1500.000000 95.796 -127.9206
1525.000000 95.908 -127.5955
1550.000000 96.022 -127.2717
1575.000000 96.136 -126.9438
1600.000000 96.252 -126.6157
1625.000000 96.372 -126.2884
1650.000000 96.494 -125.9695
1675.000000 96.620 -125.6555
1700.000000 96.749 -125.3424
1725.000000 96.881 -125.0433
1750.000000 97.013 -124.7633
1775.000000 97.147 -124.5038
1800.000000 97.283 -124.2633
1825.000000 97.420 -124.0423
1850.000000 97.557 -123.8382
1875.000000 97.695 -123.6526
1900.000000 97.834 -123.4868
1925.000000 97.974 -123.3429
1950.000000 98.117 -123.2247
1975.000000 98.261 -123.1308
2000.000000 98.405 -123.0594
2030.000000 98.581 -123.0087
2060.000000 98.759 -123.0060
2090.000000 98.936 -123.0447
2120.000000 99.111 -123.1219
2140.000000 99.228 -123.1996
2180.000000 99.465 -123.4218
2200.000000 99.583 -123.5645
2240.000000 99.815 -123.9102
2270.000000 99.987 -124.2306
2300.000000 100.156 -124.6020
2330.000000 100.319 -125.0195
2360.000000 100.477 -125.4863
2400.000000 100.681 -126.1892
2430.000000 100.827 -126.7672
2470.000000 101.011 -127.5957
2500.000000 101.139 -128.2508
2540.000000 101.299 -129.1570
2580.000000 101.448 -130.0959
2620.000000 101.585 -131.0471
2650.000000 101.680 -131.7533
2690.000000 101.797 -132.6837
2720.000000 101.880 -133.3784
2760.000000 101.987 -134.3019
2800.000000 102.090 -135.2411
2850.000000 102.217 -136.5155
2900.000000 102.327 -137.9478
2950.000000 102.398 -139.4677
3000.000000 102.427 -140.9686
3040.000000 102.426 -142.1026
3070.000000 102.414 -142.8954
3110.000000 102.387 -143.8613
3150.000000 102.349 -144.7221
3200.000000 102.294 -145.6617
3250.000000 102.233 -146.4743
3300.000000 102.170 -147.1767
3350.000000 102.104 -147.7844
3400.000000 102.035 -148.3103
3450.000000 101.968 -148.7598
3500.000000 101.903 -149.1363
3550.000000 101.842 -149.4409
3600.000000 101.784 -149.6739
3650.000000 101.726 -149.8355
3700.000000 101.670 -149.9288
3750.000000 101.618 -149.9571
3820.000000 101.567 -149.9148
3870.000000 101.545 -149.8477
3950.000000 101.525 -149.7152
4000.000000 101.520 -149.6353
4060.000000 101.519 -149.5574
4120.000000 101.526 -149.5147
4180.000000 101.541 -149.5186
4250.000000 101.568 -149.5804
4310.000000 101.594 -149.6682
4370.000000 101.619 -149.7726
4440.000000 101.651 -149.9093
4500.000000 101.686 -150.0587
4550.000000 101.723 -150.2330
4620.000000 101.786 -150.5820
4680.000000 101.843 -150.9865
4750.000000 101.904 -151.5889
4820.000000 101.955 -152.3282
4870.000000 101.984 -152.9323
4940.000000 102.009 -153.8730
5000.000000 102.013 -154.7578
5080.000000 101.990 -156.0232
5150.000000 101.945 -157.1792
5220.000000 101.875 -158.3533
5300.000000 101.760 -159.6842
5380.000000 101.609 -160.9583
5450.000000 101.454 -161.9933
5520.000000 101.282 -162.9267
5600.000000 101.067 -163.8450
5700.000000 100.771 -164.7434
5800.000000 100.457 -165.3519
5900.000000 100.136 -165.6696
6000.000000 99.816 -165.6873
6080.000000 99.568 -165.4846
6150.000000 99.362 -165.1584
6220.000000 99.170 -164.7052
6300.000000 98.976 -164.0534
6400.000000 98.781 -163.0856
6500.000000 98.635 -162.0063
6600.000000 98.534 -160.8662
6700.000000 98.480 -159.7107
6800.000000 98.474 -158.5781
6900.000000 98.518 -157.5114
7000.000000 98.613 -156.5594
7100.000000 98.761 -155.7862
7200.000000 98.965 -155.2650
7300.000000 99.226 -155.0849
7400.000000 99.542 -155.3451
7500.000000 99.905 -156.1593
7620.000000 100.385 -158.0542
7750.000000 100.923 -161.5039
7880.000000 101.398 -166.6586
8000.000000 101.673 -172.9628
8120.000000 101.693 179.5559
8250.000000 101.372 170.8973
8380.000000 100.701 162.7089
8500.000000 99.832 156.3275
8620.000000 98.811 151.4120
8750.000000 97.631 147.7289
8850.000000 96.720 145.9148
9000.000000 95.404 144.5370
9120.000000 94.422 144.3431
9250.000000 93.444 144.8230
9380.000000 92.560 145.8410
9500.000000 91.824 147.1339
9620.000000 91.162 148.6955
9750.000000 90.527 150.6291
9880.000000 89.976 152.7465
10000.000000 89.542 154.8045
10150.000000 89.102 157.4525
10300.000000 88.769 160.1321
10440.000000 88.547 162.6138
10600.000000 88.393 165.3420
10750.000000 88.349 167.7139
10900.000000 88.397 169.7881
11060.000000 88.542 171.4965
11200.000000 88.732 172.3745
11380.000000 89.008 172.3657
11500.000000 89.154 171.5977
11720.000000 89.179 169.3925
11800.000000 89.093 168.8031
12060.000000 88.715 169.8845
12200.000000 88.732 172.3853
12410.000000 89.429 176.6421
12500.000000 89.998 177.9283
12650.000000 91.263 178.4099
12800.000000 92.797 175.7107
13150.000000 95.764 150.4927
13200.000000 95.924 144.8574
13400.000000 95.646 121.7541
13600.000000 94.206 103.2917
13800.000000 92.269 91.2193
14000.000000 90.366 83.5556
14300.000000 88.035 75.6933
14500.000000 86.826 71.1092
14750.000000 85.620 65.2554
15000.000000 84.726 58.9391
15250.000000 84.180 51.8494
15500.000000 84.027 43.3994
15750.000000 84.256 32.9300
16000.000000 84.815 19.8915
16250.000000 85.635 3.6057
16500.000000 86.590 -16.9580
16750.000000 87.367 -42.6593
17000.000000 87.564 -72.6177
17250.000000 86.963 -103.4689
17500.000000 85.694 -131.6998
17750.000000 84.105 -156.2841
18000.000000 82.529 -178.2682
18250.000000 81.150 160.7719
18500.000000 80.014 139.4308
18750.000000 79.098 116.4929
19000.000000 78.330 90.8678
19250.000000 77.579 61.7442
19500.000000 76.702 29.2348
19750.000000 75.657 -2.8375
