* Measurement data measured by REW V5.31.1
* Source: Headset (DS by VECLAN.COM), MICROPHONE (Master Volume), L, volume: 0.710. Timing signal peak level -6.7 dBFS, measurement signal peak level -6.6 dBFS
* Format: 2M Log Swept Sine, 1 sweep at -3.0 dBFS using an acoustic timing reference
* Dated: May 25, 2024 5:18:04 PM
* REW Settings:
*  C-weighting compensation: Off
*  Target level: 85.0 dB
* Note: ; Fosi DS1 Delay -0.0665 ms (-23 mm, -0.9 in) using estimated IR delay relative to Acoustic reference played from SPEAKER L with no timing offset Clock adjustment: -25.5 ppm
* Measurement: AKG K240 L3
* Smoothing: 1/24 octave
* Frequency Step: 1/48 octave
* Start Frequency: 1.000 Hz
*
* Freq(Hz), SPL(dB), Phase(degrees)
1.000000, 54.529, -43.0466
1.015000, 54.450, -43.3469
1.030000, 54.356, -43.6185
1.044000, 54.253, -43.8440
1.060000, 54.116, -44.0662
1.075000, 53.969, -44.2378
1.090000, 53.801, -44.3731
1.106000, 53.593, -44.4879
1.120000, 53.380, -44.5853
1.138000, 53.061, -44.7222
1.150000, 52.821, -44.8220
1.172000, 52.334, -45.0252
1.180000, 52.143, -45.1084
1.206000, 51.481, -45.3927
1.220000, 51.103, -45.5533
1.241000, 50.516, -45.8013
1.250000, 50.259, -45.9092
1.265000, 49.827, -46.0898
1.280000, 49.393, -46.2696
1.315000, 48.394, -46.6730
1.320000, 48.255, -46.7272
1.340000, 47.712, -46.9301
1.360000, 47.198, -47.1017
1.380000, 46.723, -47.2668
1.400000, 46.296, -47.3847
1.430000, 45.762, -47.3901
1.450000, 45.489, -47.2286
1.475000, 45.246, -46.8055
1.500000, 45.084, -46.2028
1.525000, 44.987, -45.3822
1.550000, 44.947, -44.0655
1.575000, 44.962, -41.3084
1.600000, 45.028, -31.5284
1.625000, 45.140, 87.8132
1.650000, 45.296, 120.6524
1.675000, 45.490, 124.6239
1.700000, 45.719, 126.0497
1.725000, 45.979, 126.6397
1.750000, 46.267, 126.8441
1.775000, 46.578, 126.8160
1.800000, 46.909, 126.6205
1.825000, 47.262, 126.3386
1.850000, 47.654, 126.0418
1.875000, 48.107, 125.7932
1.900000, 48.620, 125.5962
1.925000, 49.184, 125.4359
1.950000, 49.789, 125.2998
1.975000, 50.425, 125.1672
2.000000, 51.079, 125.0202
2.030000, 51.876, 124.8463
2.060000, 52.668, 124.6671
2.090000, 53.436, 124.4769
2.120000, 54.163, 124.2714
2.140000, 54.617, 124.1243
2.180000, 55.428, 123.7843
2.200000, 55.783, 123.5859
2.240000, 56.410, 123.1968
2.270000, 56.827, 122.9245
2.300000, 57.205, 122.6698
2.330000, 57.551, 122.4310
2.360000, 57.869, 122.2058
2.400000, 58.258, 121.8853
2.430000, 58.531, 121.6504
2.470000, 58.878, 121.3479
2.500000, 59.132, 121.1266
2.540000, 59.471, 120.8360
2.580000, 59.811, 120.5348
2.620000, 60.139, 120.2125
2.650000, 60.371, 119.9804
2.690000, 60.663, 119.6847
2.720000, 60.872, 119.4739
2.760000, 61.138, 119.2092
2.800000, 61.392, 118.9251
2.850000, 61.697, 118.5877
2.900000, 61.994, 118.2747
2.950000, 62.284, 117.9836
3.000000, 62.560, 117.6843
3.040000, 62.771, 117.4486
3.070000, 62.923, 117.2802
3.110000, 63.119, 117.0669
3.150000, 63.308, 116.8667
3.200000, 63.538, 116.6049
3.250000, 63.762, 116.3487
3.300000, 63.981, 116.1120
3.350000, 64.194, 115.8952
3.400000, 64.399, 115.6710
3.450000, 64.596, 115.4522
3.500000, 64.787, 115.2471
3.550000, 64.973, 115.0547
3.600000, 65.156, 114.8464
3.650000, 65.335, 114.6365
3.700000, 65.512, 114.4379
3.750000, 65.685, 114.2527
3.820000, 65.920, 113.9836
3.870000, 66.083, 113.7935
3.950000, 66.338, 113.4948
4.000000, 66.495, 113.2837
4.060000, 66.679, 113.0173
4.120000, 66.859, 112.7560
4.180000, 67.035, 112.4936
4.250000, 67.235, 112.1607
4.310000, 67.402, 111.8735
4.370000, 67.565, 111.5767
4.440000, 67.751, 111.1922
4.500000, 67.905, 110.8566
4.550000, 68.031, 110.5757
4.620000, 68.201, 110.1578
4.680000, 68.343, 109.7937
4.750000, 68.502, 109.3674
4.820000, 68.655, 108.9124
4.870000, 68.760, 108.5780
4.940000, 68.902, 108.1087
5.000000, 69.019, 107.6961
5.080000, 69.168, 107.1461
5.150000, 69.291, 106.6765
5.220000, 69.408, 106.1886
5.300000, 69.533, 105.6271
5.380000, 69.651, 105.0798
5.450000, 69.749, 104.6047
5.520000, 69.840, 104.1561
5.600000, 69.937, 103.6518
5.700000, 70.049, 103.0323
5.800000, 70.152, 102.4577
5.900000, 70.250, 101.9303
6.000000, 70.341, 101.4501
6.080000, 70.410, 101.0889
6.150000, 70.469, 100.8050
6.220000, 70.527, 100.5347
6.300000, 70.592, 100.2596
6.400000, 70.672, 99.9573
6.500000, 70.753, 99.6846
6.600000, 70.836, 99.4458
6.700000, 70.923, 99.2304
6.800000, 71.013, 99.0459
6.900000, 71.106, 98.8680
7.000000, 71.202, 98.6999
7.100000, 71.301, 98.5358
7.200000, 71.403, 98.3775
7.300000, 71.508, 98.2046
7.400000, 71.617, 98.0225
7.500000, 71.728, 97.8273
7.620000, 71.864, 97.5762
7.750000, 72.011, 97.2731
7.880000, 72.157, 96.9316
8.000000, 72.291, 96.5987
8.120000, 72.422, 96.2401
8.250000, 72.561, 95.8284
8.380000, 72.694, 95.4097
8.500000, 72.812, 95.0169
8.620000, 72.925, 94.6245
8.750000, 73.042, 94.2134
8.850000, 73.127, 93.9116
9.000000, 73.250, 93.4891
9.120000, 73.344, 93.1828
9.250000, 73.443, 92.8933
9.380000, 73.539, 92.6510
9.500000, 73.627, 92.4635
9.620000, 73.715, 92.3247
9.750000, 73.811, 92.2197
9.880000, 73.904, 92.1568
10.000000, 73.986, 92.1409
10.150000, 74.085, 92.1286
10.300000, 74.186, 92.1410
10.440000, 74.284, 92.1656
10.600000, 74.402, 92.1822
10.750000, 74.520, 92.1648
10.900000, 74.642, 92.1113
11.060000, 74.775, 91.9693
11.200000, 74.889, 91.7558
11.380000, 75.027, 91.4406
11.500000, 75.110, 91.2106
11.720000, 75.245, 90.7879
11.800000, 75.289, 90.6445
12.060000, 75.416, 90.2262
12.200000, 75.479, 90.0324
12.410000, 75.568, 89.8391
12.500000, 75.605, 89.7935
12.650000, 75.666, 89.7641
12.800000, 75.729, 89.7780
13.150000, 75.894, 89.8586
13.200000, 75.920, 89.8632
13.400000, 76.025, 89.8734
13.600000, 76.132, 89.8617
13.800000, 76.236, 89.8257
14.000000, 76.333, 89.7783
14.300000, 76.465, 89.6609
14.500000, 76.546, 89.6199
14.750000, 76.646, 89.6157
15.000000, 76.750, 89.6419
15.250000, 76.865, 89.6104
15.500000, 76.981, 89.5424
15.750000, 77.091, 89.4412
16.000000, 77.188, 89.3367
16.250000, 77.276, 89.2370
16.500000, 77.361, 89.2202
16.750000, 77.455, 89.2846
17.000000, 77.571, 89.3601
17.250000, 77.708, 89.3200
17.500000, 77.855, 89.1039
17.750000, 77.990, 88.6848
18.000000, 78.091, 88.1231
18.250000, 78.143, 87.5312
18.500000, 78.146, 87.1384
18.750000, 78.122, 87.1248
19.000000, 78.109, 87.5799
19.250000, 78.156, 88.3941
19.500000, 78.294, 89.3281
19.750000, 78.522, 90.0400
20.000000, 78.806, 90.2304
20.299999, 79.143, 89.6009
20.600000, 79.392, 88.2613
20.900000, 79.501, 86.6675
21.200001, 79.471, 85.3597
21.400000, 79.398, 84.8947
21.799999, 79.251, 85.2162
22.000000, 79.236, 85.8903
22.400000, 79.396, 87.4207
22.700001, 79.643, 88.0510
23.000000, 79.906, 87.9565
23.299999, 80.109, 87.2982
23.600000, 80.219, 86.4835
24.000000, 80.258, 85.8272
24.299999, 80.278, 85.8686
24.700001, 80.392, 86.4066
25.000000, 80.561, 86.7490
25.400000, 80.835, 86.6265
25.799999, 81.066, 85.8905
26.200001, 81.205, 84.9927
26.500000, 81.265, 84.5049
26.900000, 81.344, 84.2461
27.200001, 81.432, 84.2276
27.600000, 81.591, 84.1563
28.000000, 81.762, 83.8582
28.500000, 81.930, 83.2829
29.000000, 82.048, 82.9234
29.500000, 82.177, 82.9279
30.000000, 82.355, 83.0149
30.400000, 82.516, 82.9106
30.700001, 82.631, 82.7216
31.100000, 82.765, 82.3921
31.500000, 82.878, 82.0684
32.000000, 83.008, 81.7576
32.500000, 83.140, 81.4839
33.000000, 83.271, 81.1543
33.500000, 83.388, 80.7415
34.000000, 83.487, 80.3548
34.500000, 83.579, 80.0597
35.000000, 83.672, 79.8321
35.500000, 83.766, 79.6291
36.000000, 83.858, 79.4955
36.500000, 83.961, 79.4612
37.000000, 84.092, 79.4421
37.500000, 84.248, 79.2405
38.200001, 84.445, 78.5517
38.700001, 84.542, 77.9638
39.500000, 84.660, 77.2264
40.000000, 84.734, 76.8378
40.599998, 84.813, 76.3458
41.200001, 84.880, 75.9627
41.799999, 84.967, 75.7031
42.500000, 85.109, 75.2400
43.099998, 85.222, 74.5628
43.700001, 85.296, 73.8223
44.400002, 85.347, 73.1305
45.000000, 85.386, 72.7246
45.500000, 85.419, 72.4973
46.200001, 85.470, 72.2835
46.799999, 85.516, 72.1467
47.500000, 85.568, 72.0406
48.200001, 85.621, 71.9762
48.700001, 85.664, 71.8854
49.400002, 85.720, 71.5467
50.000000, 85.731, 71.0749
50.799999, 85.672, 70.5505
51.500000, 85.590, 70.4345
52.200001, 85.514, 70.6117
53.000000, 85.434, 71.2393
53.799999, 85.402, 72.4083
54.500000, 85.437, 73.7390
55.200001, 85.520, 75.4150
56.000000, 85.753, 77.7502
57.000000, 86.250, 79.5980
58.000000, 86.610, 80.2217
59.000000, 86.968, 81.6499
60.000000, 87.476, 82.0843
60.799999, 87.797, 81.3345
61.500000, 88.013, 80.5627
62.200001, 88.209, 79.6924
63.000000, 88.402, 78.4578
64.000000, 88.586, 76.8215
65.000000, 88.720, 75.0730
66.000000, 88.784, 73.3970
67.000000, 88.773, 72.1888
68.000000, 88.738, 71.5815
69.000000, 88.715, 71.4138
70.000000, 88.694, 71.5966
71.000000, 88.703, 72.1919
72.000000, 88.783, 73.0393
73.000000, 88.939, 73.8586
74.000000, 89.152, 74.3491
75.000000, 89.371, 74.4640
76.199997, 89.615, 74.4521
77.500000, 89.892, 74.4005
78.800003, 90.186, 74.0763
80.000000, 90.442, 73.4413
81.199997, 90.675, 72.6623
82.500000, 90.906, 71.6981
83.800003, 91.111, 70.6814
85.000000, 91.276, 69.6977
86.199997, 91.420, 68.6762
87.500000, 91.555, 67.5712
88.500000, 91.639, 66.6987
90.000000, 91.735, 65.4891
91.199997, 91.797, 64.6309
92.500000, 91.852, 63.8889
93.800003, 91.897, 63.2221
95.000000, 91.927, 62.5811
96.199997, 91.937, 61.9783
97.500000, 91.925, 61.5127
98.800003, 91.924, 61.4598
100.000000, 91.981, 61.6055
101.500000, 92.093, 61.7031
103.000000, 92.242, 61.9008
104.400002, 92.416, 61.9242
106.000000, 92.630, 61.6369
107.500000, 92.833, 61.1005
109.000000, 93.026, 60.3586
110.599998, 93.197, 59.3717
112.000000, 93.313, 58.5568
113.800003, 93.436, 57.5661
115.000000, 93.506, 56.8904
117.199997, 93.634, 55.6350
118.000000, 93.683, 55.1742
120.599998, 93.819, 53.6288
122.000000, 93.880, 52.9416
124.099998, 93.978, 51.9162
125.000000, 94.018, 51.4629
126.500000, 94.082, 50.7886
128.000000, 94.145, 50.0670
131.500000, 94.265, 48.4483
132.000000, 94.282, 48.2208
134.000000, 94.346, 47.2617
136.000000, 94.397, 46.3152
138.000000, 94.449, 45.4687
140.000000, 94.506, 44.6098
143.000000, 94.574, 43.2966
145.000000, 94.612, 42.4814
147.500000, 94.651, 41.4676
150.000000, 94.683, 40.4985
152.500000, 94.715, 39.5468
155.000000, 94.742, 38.6065
157.500000, 94.753, 37.6728
160.000000, 94.752, 36.7572
162.500000, 94.741, 35.8662
165.000000, 94.708, 35.0408
167.500000, 94.650, 34.2484
170.000000, 94.582, 33.6045
172.500000, 94.515, 33.1664
175.000000, 94.451, 32.9228
177.500000, 94.397, 32.8654
180.000000, 94.358, 32.7856
182.500000, 94.340, 32.8032
185.000000, 94.353, 32.8533
187.500000, 94.386, 32.8979
190.000000, 94.421, 32.7753
192.500000, 94.452, 32.4781
195.000000, 94.481, 32.1669
197.500000, 94.505, 31.8929
200.000000, 94.532, 31.7552
203.000000, 94.581, 31.5017
206.000000, 94.621, 31.1322
209.000000, 94.652, 30.8061
212.000000, 94.678, 30.3801
214.000000, 94.694, 30.1169
218.000000, 94.744, 29.7413
220.000000, 94.768, 29.4876
224.000000, 94.791, 29.0255
227.000000, 94.808, 28.7400
230.000000, 94.826, 28.4304
233.000000, 94.844, 28.1533
236.000000, 94.861, 27.9291
240.000000, 94.881, 27.6370
243.000000, 94.909, 27.3145
247.000000, 94.948, 26.8497
250.000000, 94.966, 26.4638
254.000000, 94.978, 25.9519
258.000000, 94.989, 25.5321
262.000000, 94.986, 24.9988
265.000000, 94.982, 24.6393
269.000000, 94.993, 24.3340
272.000000, 95.004, 24.0948
276.000000, 95.008, 23.7344
280.000000, 95.005, 23.3864
285.000000, 94.987, 22.9681
290.000000, 94.965, 22.5094
295.000000, 94.957, 22.1203
300.000000, 94.944, 21.8886
304.000000, 94.947, 21.7253
307.000000, 94.957, 21.5951
311.000000, 94.960, 21.3387
315.000000, 94.954, 21.0336
320.000000, 94.946, 20.6848
325.000000, 94.939, 20.3381
330.000000, 94.924, 19.9534
335.000000, 94.896, 19.6048
340.000000, 94.861, 19.3170
345.000000, 94.820, 19.0361
350.000000, 94.777, 18.7371
355.000000, 94.728, 18.4897
360.000000, 94.664, 18.3133
365.000000, 94.581, 18.2198
370.000000, 94.496, 18.2058
375.000000, 94.420, 18.2789
382.000000, 94.320, 18.6436
387.000000, 94.257, 19.0403
395.000000, 94.195, 19.7666
400.000000, 94.180, 20.2088
406.000000, 94.172, 20.7530
412.000000, 94.173, 21.2781
418.000000, 94.186, 21.8468
425.000000, 94.236, 22.5392
431.000000, 94.304, 23.0539
437.000000, 94.389, 23.3976
444.000000, 94.509, 23.5638
450.000000, 94.618, 23.4835
455.000000, 94.693, 23.2185
462.000000, 94.759, 22.6398
468.000000, 94.781, 22.1897
475.000000, 94.804, 21.8996
482.000000, 94.857, 21.5886
487.000000, 94.905, 21.2095
494.000000, 94.967, 20.4387
500.000000, 94.997, 19.4294
508.000000, 94.929, 17.5315
515.000000, 94.690, 15.8682
522.000000, 94.284, 15.3304
530.000000, 93.845, 17.0503
538.000000, 93.703, 19.8615
545.000000, 93.787, 21.5543
552.000000, 93.916, 22.3167
560.000000, 94.014, 22.5584
570.000000, 94.060, 22.6317
580.000000, 94.061, 22.7480
590.000000, 94.048, 22.9388
600.000000, 94.036, 23.2074
608.000000, 94.027, 23.4312
615.000000, 94.014, 23.5682
622.000000, 93.992, 23.6672
630.000000, 93.956, 23.8334
640.000000, 93.907, 24.2064
650.000000, 93.865, 24.6438
660.000000, 93.830, 25.1397
670.000000, 93.806, 25.6704
680.000000, 93.787, 26.1286
690.000000, 93.763, 26.5650
700.000000, 93.733, 27.0544
710.000000, 93.717, 27.6047
720.000000, 93.702, 28.0708
730.000000, 93.678, 28.5798
740.000000, 93.664, 29.2050
750.000000, 93.662, 29.8892
762.000000, 93.670, 30.6855
775.000000, 93.690, 31.4767
788.000000, 93.729, 32.2450
800.000000, 93.769, 32.8851
812.000000, 93.811, 33.4964
825.000000, 93.873, 34.0550
838.000000, 93.947, 34.3533
850.000000, 94.002, 34.4052
862.000000, 94.017, 34.3679
875.000000, 93.997, 34.5032
885.000000, 93.979, 34.7590
900.000000, 93.965, 35.1883
912.000000, 93.964, 35.5176
925.000000, 93.969, 35.8301
938.000000, 93.971, 36.0622
950.000000, 93.965, 36.2308
962.000000, 93.945, 36.3329
975.000000, 93.905, 36.4915
988.000000, 93.859, 36.7927
1000.000000, 93.823, 37.0815
1015.000000, 93.786, 37.3262
1030.000000, 93.733, 37.3811
1044.000000, 93.645, 37.4060
1060.000000, 93.512, 37.7196
1075.000000, 93.394, 38.2638
1090.000000, 93.282, 38.7591
1106.000000, 93.154, 39.3292
1120.000000, 93.036, 39.9463
1138.000000, 92.880, 40.9693
1150.000000, 92.780, 41.6876
1172.000000, 92.583, 43.3130
1180.000000, 92.517, 43.9559
1206.000000, 92.299, 46.3102
1220.000000, 92.209, 47.9296
1241.000000, 92.114, 50.3524
1250.000000, 92.085, 51.4470
1265.000000, 92.062, 53.3715
1280.000000, 92.068, 55.2541
1315.000000, 92.141, 59.3063
1320.000000, 92.154, 59.8807
1340.000000, 92.220, 62.1766
1360.000000, 92.283, 64.4119
1380.000000, 92.362, 66.5308
1400.000000, 92.449, 68.5185
1430.000000, 92.582, 71.7637
1450.000000, 92.721, 74.0637
1475.000000, 92.917, 76.6841
1500.000000, 93.133, 79.4612
1525.000000, 93.419, 82.1788
1550.000000, 93.738, 84.5085
1575.000000, 94.062, 86.6434
1600.000000, 94.418, 88.5677
1625.000000, 94.774, 90.0796
1650.000000, 95.128, 91.5603
1675.000000, 95.500, 92.7642
1700.000000, 95.860, 93.6534
1725.000000, 96.208, 94.3311
1750.000000, 96.529, 94.8172
1775.000000, 96.833, 95.2567
1800.000000, 97.134, 95.6034
1825.000000, 97.426, 95.8112
1850.000000, 97.702, 95.8395
1875.000000, 97.947, 95.7733
1900.000000, 98.171, 95.7446
1925.000000, 98.399, 95.7644
1950.000000, 98.636, 95.5731
1975.000000, 98.836, 95.0642
2000.000000, 98.974, 94.5022
2030.000000, 99.068, 93.9750
2060.000000, 99.069, 93.9601
2090.000000, 99.120, 95.3085
2120.000000, 99.404, 96.8684
2140.000000, 99.662, 97.1538
2180.000000, 100.047, 96.2856
2200.000000, 100.145, 95.7595
2240.000000, 100.205, 95.4388
2270.000000, 100.253, 96.5444
2300.000000, 100.528, 98.5665
2330.000000, 101.081, 99.6375
2360.000000, 101.676, 98.5757
2400.000000, 102.213, 95.1823
2430.000000, 102.417, 92.2983
2470.000000, 102.510, 88.7141
2500.000000, 102.488, 86.2176
2540.000000, 102.332, 83.3103
2580.000000, 102.082, 81.1889
2620.000000, 101.808, 79.8223
2650.000000, 101.609, 79.1557
2690.000000, 101.366, 78.6548
2720.000000, 101.217, 78.4153
2760.000000, 101.036, 77.9237
2800.000000, 100.816, 77.3323
2850.000000, 100.500, 76.8175
2900.000000, 100.142, 76.4438
2950.000000, 99.718, 76.4046
3000.000000, 99.243, 76.8619
3040.000000, 98.822, 77.6619
3070.000000, 98.488, 78.6736
3110.000000, 98.046, 80.6913
3150.000000, 97.647, 83.4912
3200.000000, 97.287, 88.0710
3250.000000, 97.198, 93.2686
3300.000000, 97.386, 97.7812
3350.000000, 97.715, 100.8208
3400.000000, 98.073, 102.6097
3450.000000, 98.436, 103.3148
3500.000000, 98.766, 102.7299
3550.000000, 98.985, 100.7704
3600.000000, 98.987, 97.4259
3650.000000, 98.614, 93.1400
3700.000000, 97.734, 89.1013
3750.000000, 96.261, 87.3378
3820.000000, 93.497, 96.2766
3870.000000, 92.283, 114.8929
3950.000000, 93.529, 141.2936
4000.000000, 94.869, 148.4268
4060.000000, 96.274, 153.0247
4120.000000, 97.517, 155.8594
4180.000000, 98.731, 157.4817
4250.000000, 100.172, 157.1286
4310.000000, 101.271, 154.0396
4370.000000, 102.034, 148.9465
4440.000000, 102.450, 141.9969
4500.000000, 102.421, 136.0247
4550.000000, 102.141, 131.5270
4620.000000, 101.395, 126.7989
4680.000000, 100.525, 125.1952
4750.000000, 99.589, 126.5832
4820.000000, 98.919, 128.6324
4870.000000, 98.420, 130.2124
4940.000000, 97.696, 134.1341
5000.000000, 97.234, 139.0752
5080.000000, 97.003, 146.4279
5150.000000, 97.130, 152.2128
5220.000000, 97.431, 156.5645
5300.000000, 97.798, 159.7093
5380.000000, 98.056, 161.5676
5450.000000, 98.152, 162.8164
5520.000000, 98.152, 164.2948
5600.000000, 98.113, 166.5061
5700.000000, 98.096, 169.7411
5800.000000, 98.106, 172.9510
5900.000000, 98.094, 176.1691
6000.000000, 98.050, 179.7093
6080.000000, 98.006, -177.0747
6150.000000, 97.970, -173.8495
6220.000000, 97.961, -170.0280
6300.000000, 98.066, -164.8020
6400.000000, 98.514, -157.6907
6500.000000, 99.335, -151.4585
6600.000000, 100.378, -147.2831
6700.000000, 101.478, -145.1022
6800.000000, 102.620, -144.4007
6900.000000, 103.849, -145.4563
7000.000000, 105.087, -148.9811
7100.000000, 106.140, -155.3098
7200.000000, 106.803, -163.9510
7300.000000, 106.940, -173.6816
7400.000000, 106.551, 177.0400
7500.000000, 105.773, 169.3072
7620.000000, 104.573, 162.2481
7750.000000, 103.088, 156.4118
7880.000000, 101.199, 151.9812
8000.000000, 98.879, 150.7290
8120.000000, 96.044, 156.4865
8250.000000, 93.450, 177.4653
8380.000000, 93.561, -156.8225
8500.000000, 94.885, -148.1508
8620.000000, 95.266, -147.0611
8750.000000, 95.017, -140.3950
8850.000000, 95.470, -132.5524
9000.000000, 96.981, -126.8020
9120.000000, 98.271, -127.9222
9250.000000, 99.399, -134.3173
9380.000000, 99.868, -145.3034
9500.000000, 99.438, -157.3701
9620.000000, 98.166, -168.6300
9750.000000, 96.104, -178.1778
9880.000000, 93.678, 174.5012
10000.000000, 91.274, 167.4844
10150.000000, 88.047, 152.7987
10300.000000, 85.457, 114.6960
10440.000000, 86.250, 53.5289
10600.000000, 89.370, 14.9478
10750.000000, 91.664, -4.6236
10900.000000, 93.019, -18.7312
11060.000000, 93.722, -30.6001
11200.000000, 93.821, -39.7065
11380.000000, 93.168, -50.0608
11500.000000, 92.221, -55.5457
11720.000000, 89.472, -60.9892
11800.000000, 88.147, -61.0240
12060.000000, 82.894, -46.8909
12200.000000, 82.593, 15.7294
12410.000000, 88.445, 69.4311
12500.000000, 90.722, 68.2885
12650.000000, 93.645, 60.7828
12800.000000, 95.691, 50.6973
13150.000000, 97.032, 22.9645
13200.000000, 96.824, 19.7409
13400.000000, 95.534, 11.5596
13600.000000, 94.295, 8.4448
13800.000000, 93.092, 6.8540
14000.000000, 91.749, 7.5352
14300.000000, 89.769, 13.6057
14500.000000, 89.052, 20.5168
14750.000000, 89.079, 22.6304
15000.000000, 88.546, 13.9148
15250.000000, 86.573, -2.4556
15500.000000, 83.721, -38.6546
15750.000000, 83.079, -139.7136
16000.000000, 86.149, 177.5115
16250.000000, 89.037, 159.0815
16500.000000, 90.835, 143.4721
16750.000000, 91.555, 127.2925
17000.000000, 91.013, 110.8416
17250.000000, 89.001, 96.0070
17500.000000, 85.278, 90.4460
17750.000000, 80.852, 100.9290
18000.000000, 77.247, 126.1632
18250.000000, 75.883, 163.2838
18500.000000, 77.593, -164.6846
18750.000000, 80.382, -150.5717
19000.000000, 82.816, -145.2944
19250.000000, 85.163, -143.4841
