* Measurement data measured by REW V5.31
* Source: Headset (DS by VECLAN.COM), MICROPHONE (Master Volume), L, volume: 0.720. Timing signal peak level -19.1 dBFS, measurement signal peak level -12.1 dBFS
* Format: 2M Log Swept Sine, 1 sweep at -12.0 dBFS using an acoustic timing reference
* Dated: Apr 24, 2024 4:13:47 PM
* REW Settings:
*  C-weighting compensation: Off
*  Target level: 85.0 dB
* Note: ; Delay -0.0661 ms (-23 mm, -0.89 in) using estimated IR delay relative to Acoustic reference played from HEADPHONE L with no timing offset
* Measurement: Audeze MM-100 L1
* Smoothing: 1/24 octave
* Frequency Step: 1/48 octave
* Start Frequency: 1.000 Hz
*
* Freq(Hz), SPL(dB), Phase(degrees)
1.000000, 65.724, 96.0824
1.015000, 65.862, 90.1985
1.030000, 66.023, 85.5611
1.044000, 66.194, 82.0728
1.060000, 66.415, 78.8255
1.075000, 66.649, 76.3213
1.090000, 66.911, 74.2196
1.106000, 67.227, 72.3572
1.120000, 67.545, 71.0392
1.138000, 68.012, 69.7130
1.150000, 68.357, 69.0135
1.172000, 69.053, 68.0153
1.180000, 69.324, 67.7201
1.206000, 70.259, 66.9646
1.220000, 70.793, 66.6577
1.241000, 71.623, 66.2913
1.250000, 71.986, 66.1612
1.265000, 72.600, 65.9717
1.280000, 73.221, 65.8093
1.315000, 74.667, 65.4975
1.320000, 74.871, 65.4577
1.340000, 75.676, 65.3046
1.360000, 76.453, 65.1563
1.380000, 77.195, 64.9673
1.400000, 77.889, 64.7562
1.430000, 78.823, 64.4176
1.450000, 79.360, 64.1747
1.475000, 79.933, 63.8685
1.500000, 80.420, 63.6049
1.525000, 80.838, 63.3978
1.550000, 81.197, 63.2374
1.575000, 81.503, 63.0914
1.600000, 81.763, 62.9330
1.625000, 81.986, 62.7931
1.650000, 82.178, 62.6646
1.675000, 82.347, 62.5417
1.700000, 82.499, 62.4191
1.725000, 82.643, 62.2925
1.750000, 82.786, 62.1582
1.775000, 82.934, 61.9959
1.800000, 83.095, 61.7870
1.825000, 83.273, 61.5653
1.850000, 83.462, 61.3392
1.875000, 83.648, 61.1227
1.900000, 83.827, 60.9194
1.925000, 83.998, 60.7289
1.950000, 84.161, 60.5498
1.975000, 84.319, 60.3634
2.000000, 84.470, 60.1520
2.030000, 84.645, 59.9072
2.060000, 84.814, 59.6671
2.090000, 84.977, 59.4290
2.120000, 85.136, 59.1895
2.140000, 85.240, 59.0278
2.180000, 85.445, 58.6753
2.200000, 85.546, 58.4750
2.240000, 85.742, 58.0718
2.270000, 85.882, 57.7724
2.300000, 86.017, 57.4781
2.330000, 86.147, 57.1899
2.360000, 86.272, 56.9082
2.400000, 86.432, 56.4950
2.430000, 86.548, 56.1862
2.470000, 86.697, 55.7841
2.500000, 86.806, 55.4886
2.540000, 86.948, 55.1009
2.580000, 87.085, 54.6978
2.620000, 87.217, 54.2556
2.650000, 87.312, 53.9250
2.690000, 87.434, 53.4879
2.720000, 87.521, 53.1654
2.760000, 87.634, 52.7466
2.800000, 87.742, 52.3010
2.850000, 87.870, 51.7589
2.900000, 87.994, 51.2411
2.950000, 88.111, 50.7419
3.000000, 88.222, 50.2153
3.040000, 88.305, 49.7848
3.070000, 88.365, 49.4656
3.110000, 88.441, 49.0480
3.150000, 88.514, 48.6422
3.200000, 88.601, 48.1249
3.250000, 88.685, 47.6194
3.300000, 88.765, 47.1400
3.350000, 88.841, 46.6771
3.400000, 88.912, 46.1885
3.450000, 88.979, 45.6964
3.500000, 89.043, 45.2193
3.550000, 89.103, 44.7620
3.600000, 89.160, 44.3011
3.650000, 89.216, 43.8535
3.700000, 89.269, 43.4259
3.750000, 89.319, 43.0107
3.820000, 89.384, 42.4123
3.870000, 89.428, 41.9919
3.950000, 89.495, 41.3498
4.000000, 89.536, 40.9476
4.060000, 89.584, 40.4740
4.120000, 89.631, 40.0173
4.180000, 89.676, 39.5670
4.250000, 89.727, 39.0233
4.310000, 89.769, 38.5702
4.370000, 89.810, 38.1232
4.440000, 89.857, 37.5790
4.500000, 89.896, 37.1193
4.550000, 89.928, 36.7414
4.620000, 89.971, 36.1898
4.680000, 90.007, 35.7140
4.750000, 90.047, 35.1609
4.820000, 90.086, 34.5831
4.870000, 90.113, 34.1639
4.940000, 90.149, 33.5769
5.000000, 90.178, 33.0591
5.080000, 90.214, 32.3577
5.150000, 90.240, 31.7430
5.220000, 90.264, 31.0975
5.300000, 90.286, 30.3438
5.380000, 90.304, 29.5906
5.450000, 90.314, 28.9229
5.520000, 90.319, 28.2659
5.600000, 90.319, 27.5017
5.700000, 90.310, 26.5319
5.800000, 90.290, 25.5922
5.900000, 90.260, 24.6882
6.000000, 90.217, 23.8080
6.080000, 90.176, 23.1172
6.150000, 90.135, 22.5552
6.220000, 90.090, 22.0261
6.300000, 90.033, 21.4731
6.400000, 89.954, 20.8431
6.500000, 89.871, 20.2875
6.600000, 89.786, 19.8438
6.700000, 89.699, 19.5081
6.800000, 89.612, 19.2789
6.900000, 89.530, 19.1419
7.000000, 89.459, 19.1127
7.100000, 89.398, 19.1897
7.200000, 89.348, 19.3550
7.300000, 89.315, 19.5670
7.400000, 89.300, 19.8271
7.500000, 89.303, 20.1271
7.620000, 89.328, 20.4965
7.750000, 89.384, 20.8420
7.880000, 89.469, 21.1268
8.000000, 89.565, 21.3069
8.120000, 89.674, 21.3600
8.250000, 89.804, 21.2877
8.380000, 89.938, 21.0879
8.500000, 90.059, 20.7767
8.620000, 90.177, 20.3606
8.750000, 90.297, 19.8235
8.850000, 90.380, 19.3593
9.000000, 90.491, 18.5925
9.120000, 90.568, 17.9504
9.250000, 90.637, 17.2491
9.380000, 90.693, 16.5494
9.500000, 90.735, 15.9260
9.620000, 90.769, 15.3455
9.750000, 90.797, 14.7591
9.880000, 90.813, 14.2206
10.000000, 90.816, 13.7811
10.150000, 90.808, 13.2606
10.300000, 90.793, 12.8066
10.440000, 90.778, 12.4378
10.600000, 90.760, 12.0577
10.750000, 90.749, 11.7228
10.900000, 90.741, 11.4004
11.060000, 90.735, 11.0255
11.200000, 90.729, 10.6517
11.380000, 90.715, 10.1686
11.500000, 90.698, 9.8456
11.720000, 90.654, 9.2806
11.800000, 90.634, 9.0917
12.060000, 90.552, 8.5451
12.200000, 90.502, 8.2928
12.410000, 90.419, 8.0444
12.500000, 90.381, 7.9926
12.650000, 90.318, 7.9794
12.800000, 90.258, 8.0497
13.150000, 90.145, 8.4266
13.200000, 90.134, 8.4894
13.400000, 90.099, 8.7643
13.600000, 90.081, 9.0363
13.800000, 90.075, 9.2712
14.000000, 90.074, 9.4490
14.300000, 90.070, 9.5508
14.500000, 90.059, 9.5961
14.750000, 90.036, 9.6898
15.000000, 90.012, 9.8638
15.250000, 90.004, 10.0767
15.500000, 90.018, 10.3365
15.750000, 90.058, 10.5665
16.000000, 90.121, 10.6685
16.250000, 90.195, 10.5288
16.500000, 90.265, 10.1781
16.750000, 90.315, 9.6555
17.000000, 90.337, 9.0438
17.250000, 90.330, 8.4098
17.500000, 90.300, 7.8649
17.750000, 90.258, 7.4555
18.000000, 90.219, 7.1697
18.250000, 90.190, 6.9377
18.500000, 90.173, 6.7089
18.750000, 90.161, 6.4326
19.000000, 90.143, 6.0905
19.250000, 90.108, 5.6907
19.500000, 90.049, 5.3309
19.750000, 89.966, 5.0973
20.000000, 89.867, 5.0685
20.299999, 89.751, 5.3251
20.600000, 89.663, 5.8962
20.900000, 89.624, 6.6418
21.200001, 89.637, 7.3447
21.400000, 89.669, 7.7032
21.799999, 89.751, 8.0483
22.000000, 89.785, 8.0353
22.400000, 89.805, 7.7567
22.700001, 89.768, 7.5546
23.000000, 89.698, 7.5509
23.299999, 89.621, 7.8370
23.600000, 89.573, 8.4146
24.000000, 89.606, 9.3129
24.299999, 89.704, 9.7025
24.700001, 89.867, 9.4717
25.000000, 89.950, 8.7437
25.400000, 89.937, 7.4309
25.799999, 89.777, 6.4742
26.200001, 89.558, 6.4959
26.500000, 89.446, 7.1747
26.900000, 89.450, 8.4043
27.200001, 89.561, 9.0287
27.600000, 89.752, 9.0306
28.000000, 89.879, 8.2690
28.500000, 89.876, 7.1661
29.000000, 89.784, 6.8068
29.500000, 89.752, 7.1333
30.000000, 89.813, 7.4261
30.400000, 89.873, 7.3400
30.700001, 89.899, 7.1488
31.100000, 89.902, 6.8789
31.500000, 89.882, 6.7023
32.000000, 89.851, 6.6583
32.500000, 89.824, 6.7236
33.000000, 89.809, 6.8400
33.500000, 89.810, 6.8979
34.000000, 89.816, 6.8162
34.500000, 89.806, 6.6394
35.000000, 89.779, 6.5466
35.500000, 89.765, 6.5660
36.000000, 89.779, 6.5146
36.500000, 89.785, 6.2622
37.000000, 89.743, 6.0206
37.500000, 89.669, 6.1548
38.200001, 89.637, 7.0615
38.700001, 89.704, 7.6871
39.500000, 89.840, 7.9530
40.000000, 89.879, 7.8944
40.599998, 89.891, 7.9061
41.200001, 89.888, 8.0360
41.799999, 89.875, 8.2714
42.500000, 89.874, 8.6964
43.099998, 89.913, 8.9537
43.700001, 89.956, 8.8801
44.400002, 89.957, 8.6065
45.000000, 89.943, 8.5297
45.500000, 89.956, 8.5145
46.200001, 90.005, 8.2533
46.799999, 90.027, 7.8229
47.500000, 90.025, 7.4105
48.200001, 90.030, 7.1913
48.700001, 90.044, 7.0663
49.400002, 90.066, 6.8816
50.000000, 90.077, 6.7582
50.799999, 90.089, 6.7366
51.500000, 90.123, 6.7561
52.200001, 90.168, 6.5198
53.000000, 90.160, 5.9807
53.799999, 90.087, 5.6633
54.500000, 90.025, 5.6127
55.200001, 89.961, 5.6323
56.000000, 89.889, 5.9544
57.000000, 89.898, 6.5612
58.000000, 89.954, 6.6489
59.000000, 89.982, 6.5374
60.000000, 89.979, 6.3451
60.799999, 89.937, 6.3889
61.500000, 89.912, 6.7147
62.200001, 89.925, 7.0786
63.000000, 89.959, 7.2622
64.000000, 89.966, 7.3532
65.000000, 89.980, 7.7086
66.000000, 90.053, 7.9232
67.000000, 90.117, 7.7736
68.000000, 90.155, 7.5703
69.000000, 90.180, 7.3828
70.000000, 90.186, 7.2057
71.000000, 90.170, 7.1834
72.000000, 90.175, 7.3363
73.000000, 90.206, 7.2637
74.000000, 90.203, 6.9867
75.000000, 90.176, 6.8538
76.199997, 90.162, 6.9196
77.500000, 90.206, 6.9222
78.800003, 90.205, 6.6960
80.000000, 90.226, 7.0973
81.199997, 90.308, 6.9745
82.500000, 90.291, 6.6539
83.800003, 90.268, 6.6017
85.000000, 90.226, 6.5046
86.199997, 90.184, 6.6296
87.500000, 90.180, 6.8370
88.500000, 90.193, 6.8364
90.000000, 90.180, 6.7552
91.199997, 90.167, 6.8065
92.500000, 90.162, 6.9314
93.800003, 90.193, 6.9019
95.000000, 90.194, 6.6179
96.199997, 90.167, 6.5566
97.500000, 90.154, 6.7367
98.800003, 90.156, 6.9475
100.000000, 90.162, 7.0674
101.500000, 90.141, 7.1208
103.000000, 90.119, 7.3223
104.400002, 90.137, 7.6149
106.000000, 90.219, 7.8507
107.500000, 90.306, 7.7855
109.000000, 90.337, 7.6371
110.599998, 90.335, 7.7339
112.000000, 90.342, 7.7295
113.800003, 90.291, 7.3452
115.000000, 90.236, 7.3782
117.199997, 90.220, 7.5601
118.000000, 90.221, 7.5211
120.599998, 90.252, 7.7314
122.000000, 90.311, 7.5587
124.099998, 90.330, 7.2239
125.000000, 90.325, 7.2618
126.500000, 90.321, 7.4701
128.000000, 90.312, 7.6831
131.500000, 90.288, 7.8679
132.000000, 90.284, 7.8354
134.000000, 90.272, 7.8354
136.000000, 90.303, 7.9841
138.000000, 90.347, 8.0172
140.000000, 90.351, 7.9534
143.000000, 90.348, 8.0258
145.000000, 90.363, 7.9146
147.500000, 90.388, 8.1107
150.000000, 90.426, 8.4639
152.500000, 90.379, 8.7473
155.000000, 90.317, 9.0411
157.500000, 90.358, 8.8090
160.000000, 90.446, 8.3628
162.500000, 90.512, 8.3467
165.000000, 90.492, 8.5186
167.500000, 90.441, 8.9065
170.000000, 90.419, 9.2466
172.500000, 90.443, 9.4397
175.000000, 90.459, 9.3035
177.500000, 90.467, 9.1849
180.000000, 90.474, 9.1542
182.500000, 90.454, 9.1934
185.000000, 90.409, 9.2209
187.500000, 90.402, 9.3562
190.000000, 90.471, 9.4778
192.500000, 90.521, 9.5369
195.000000, 90.512, 9.7419
197.500000, 90.494, 9.9089
200.000000, 90.495, 9.7919
203.000000, 90.510, 9.8844
206.000000, 90.523, 10.1891
209.000000, 90.502, 10.4418
212.000000, 90.471, 10.5356
214.000000, 90.461, 10.5797
218.000000, 90.467, 10.6183
220.000000, 90.475, 10.6620
224.000000, 90.496, 10.9036
227.000000, 90.504, 11.0953
230.000000, 90.500, 11.1426
233.000000, 90.494, 11.1943
236.000000, 90.505, 11.4639
240.000000, 90.521, 11.7462
243.000000, 90.524, 12.0443
247.000000, 90.530, 12.4548
250.000000, 90.557, 12.5626
254.000000, 90.628, 12.9441
258.000000, 90.662, 13.5007
262.000000, 90.654, 13.6924
265.000000, 90.656, 13.8143
269.000000, 90.672, 14.3251
272.000000, 90.685, 15.1262
276.000000, 90.703, 15.7429
280.000000, 90.750, 15.0500
285.000000, 90.789, 13.9922
290.000000, 90.788, 14.0825
295.000000, 90.860, 14.4589
300.000000, 90.915, 14.3832
304.000000, 90.928, 14.6292
307.000000, 90.944, 14.8600
311.000000, 90.969, 14.9410
315.000000, 90.976, 15.0373
320.000000, 90.996, 15.0222
325.000000, 91.009, 15.1311
330.000000, 91.027, 15.3475
335.000000, 91.058, 15.4441
340.000000, 91.085, 15.4072
345.000000, 91.103, 15.3104
350.000000, 91.093, 15.4542
355.000000, 91.083, 15.6138
360.000000, 91.091, 15.8454
365.000000, 91.093, 16.0026
370.000000, 91.097, 16.0886
375.000000, 91.092, 16.2031
382.000000, 91.071, 16.5332
387.000000, 91.064, 16.8411
395.000000, 91.050, 17.3403
400.000000, 91.043, 17.7169
406.000000, 91.022, 18.0984
412.000000, 91.021, 18.4089
418.000000, 91.065, 18.8345
425.000000, 91.132, 19.3781
431.000000, 91.181, 19.8257
437.000000, 91.221, 20.2286
444.000000, 91.250, 20.6802
450.000000, 91.292, 21.0150
455.000000, 91.344, 21.2244
462.000000, 91.399, 21.4620
468.000000, 91.412, 21.5537
475.000000, 91.432, 21.7216
482.000000, 91.489, 22.1736
487.000000, 91.529, 22.4830
494.000000, 91.570, 22.7505
500.000000, 91.605, 22.9509
508.000000, 91.672, 23.1219
515.000000, 91.734, 23.1138
522.000000, 91.773, 23.1450
530.000000, 91.805, 23.2348
538.000000, 91.825, 23.3182
545.000000, 91.821, 23.3873
552.000000, 91.804, 23.5576
560.000000, 91.785, 23.9609
570.000000, 91.789, 24.7235
580.000000, 91.819, 25.6752
590.000000, 91.878, 26.6122
600.000000, 91.977, 27.4064
608.000000, 92.070, 27.9349
615.000000, 92.150, 28.3178
622.000000, 92.234, 28.7019
630.000000, 92.333, 29.1106
640.000000, 92.460, 29.4401
650.000000, 92.584, 29.7392
660.000000, 92.704, 29.9730
670.000000, 92.828, 30.1170
680.000000, 92.952, 30.1376
690.000000, 93.061, 30.0287
700.000000, 93.164, 29.8482
710.000000, 93.260, 29.6129
720.000000, 93.336, 29.3203
730.000000, 93.389, 28.9912
740.000000, 93.420, 28.7455
750.000000, 93.428, 28.6436
762.000000, 93.435, 28.8229
775.000000, 93.486, 29.3224
788.000000, 93.557, 29.5757
800.000000, 93.630, 29.6631
812.000000, 93.706, 29.6890
825.000000, 93.782, 29.7907
838.000000, 93.860, 29.9817
850.000000, 93.945, 30.1500
862.000000, 94.039, 30.2774
875.000000, 94.142, 30.3472
885.000000, 94.218, 30.2496
900.000000, 94.327, 30.0048
912.000000, 94.410, 29.7350
925.000000, 94.487, 29.3419
938.000000, 94.548, 28.9297
950.000000, 94.601, 28.6766
962.000000, 94.652, 28.4693
975.000000, 94.708, 28.2446
988.000000, 94.762, 27.9246
1000.000000, 94.798, 27.5487
1015.000000, 94.820, 27.1374
1030.000000, 94.848, 26.8554
1044.000000, 94.917, 26.5588
1060.000000, 95.007, 25.7587
1075.000000, 95.015, 24.6672
1090.000000, 94.945, 23.8192
1106.000000, 94.884, 23.4982
1120.000000, 94.872, 23.1942
1138.000000, 94.819, 22.6796
1150.000000, 94.773, 22.5022
1172.000000, 94.617, 21.9890
1180.000000, 94.578, 21.9167
1206.000000, 94.630, 21.6696
1220.000000, 94.607, 21.4695
1241.000000, 94.427, 20.7555
1250.000000, 94.322, 20.6978
1265.000000, 94.174, 20.8657
1280.000000, 94.102, 21.2358
1315.000000, 94.076, 23.2239
1320.000000, 94.087, 23.4489
1340.000000, 94.134, 24.1923
1360.000000, 94.117, 24.6926
1380.000000, 94.100, 24.6969
1400.000000, 94.091, 24.9316
1430.000000, 94.067, 25.9283
1450.000000, 94.109, 26.3029
1475.000000, 94.092, 25.6992
1500.000000, 93.973, 25.5184
1525.000000, 93.836, 26.1868
1550.000000, 93.730, 26.5036
1575.000000, 93.496, 27.0000
1600.000000, 93.211, 28.6630
1625.000000, 92.998, 31.7337
1650.000000, 93.048, 35.5882
1675.000000, 93.305, 38.4823
1700.000000, 93.694, 40.5642
1725.000000, 94.104, 40.7035
1750.000000, 94.315, 39.9227
1775.000000, 94.334, 39.2650
1800.000000, 94.227, 39.1723
1825.000000, 94.156, 39.7442
1850.000000, 94.182, 40.5402
1875.000000, 94.175, 41.1996
1900.000000, 94.097, 41.8733
1925.000000, 93.977, 43.5287
1950.000000, 93.946, 45.9124
1975.000000, 93.996, 48.5464
2000.000000, 94.169, 51.4151
2030.000000, 94.577, 54.3546
2060.000000, 95.065, 55.8536
2090.000000, 95.447, 56.4429
2120.000000, 95.744, 57.3926
2140.000000, 95.983, 58.3420
2180.000000, 96.565, 59.1453
2200.000000, 96.779, 58.9510
2240.000000, 97.129, 59.8734
2270.000000, 97.609, 61.3474
2300.000000, 98.223, 61.1924
2330.000000, 98.768, 59.7126
2360.000000, 99.193, 57.6749
2400.000000, 99.554, 54.4556
2430.000000, 99.643, 52.3141
2470.000000, 99.690, 51.2108
2500.000000, 99.876, 51.4221
2540.000000, 100.358, 50.7767
2580.000000, 100.842, 48.6581
2620.000000, 101.252, 45.6275
2650.000000, 101.456, 43.0349
2690.000000, 101.650, 39.7402
2720.000000, 101.766, 37.0769
2760.000000, 101.800, 33.3303
2800.000000, 101.743, 29.9613
2850.000000, 101.566, 25.8258
2900.000000, 101.309, 22.7046
2950.000000, 101.124, 19.6334
3000.000000, 100.804, 15.9750
3040.000000, 100.346, 13.5931
3070.000000, 99.933, 12.8300
3110.000000, 99.472, 13.2587
3150.000000, 99.210, 14.1375
3200.000000, 99.050, 14.9524
3250.000000, 99.060, 15.2148
3300.000000, 99.124, 14.2190
3350.000000, 99.102, 12.1205
3400.000000, 98.913, 9.5817
3450.000000, 98.579, 7.5753
3500.000000, 98.198, 6.2015
3550.000000, 97.808, 5.4258
3600.000000, 97.446, 4.9298
3650.000000, 97.089, 4.5220
3700.000000, 96.724, 4.2747
3750.000000, 96.330, 4.1685
3820.000000, 95.750, 4.7316
3870.000000, 95.349, 5.5622
3950.000000, 94.776, 7.8538
4000.000000, 94.521, 9.6869
4060.000000, 94.309, 11.6898
4120.000000, 94.121, 13.5042
4180.000000, 93.994, 15.6403
4250.000000, 94.005, 17.6593
4310.000000, 94.053, 18.3916
4370.000000, 94.043, 18.4734
4440.000000, 93.961, 18.4110
4500.000000, 93.853, 18.3694
4550.000000, 93.770, 18.4690
4620.000000, 93.694, 18.4950
4680.000000, 93.677, 18.2532
4750.000000, 93.739, 17.2021
4820.000000, 93.842, 14.4213
4870.000000, 93.838, 10.9892
4940.000000, 93.542, 4.3600
5000.000000, 92.879, -2.3965
5080.000000, 91.214, -11.0875
5150.000000, 88.921, -15.8417
5220.000000, 85.868, -13.7354
5300.000000, 82.336, 8.9421
5380.000000, 81.770, 43.2639
5450.000000, 82.995, 58.2318
5520.000000, 84.321, 66.3278
5600.000000, 85.681, 70.8741
5700.000000, 86.725, 72.8311
5800.000000, 87.490, 76.3500
5900.000000, 88.599, 79.2735
6000.000000, 89.751, 78.1703
6080.000000, 90.400, 74.9959
6150.000000, 90.743, 71.4304
6220.000000, 90.871, 67.3487
6300.000000, 90.726, 62.6299
6400.000000, 90.138, 57.6554
6500.000000, 89.201, 54.6567
6600.000000, 88.048, 54.1932
6700.000000, 86.833, 57.1234
6800.000000, 85.900, 63.2409
6900.000000, 85.447, 70.2911
7000.000000, 85.355, 76.5783
7100.000000, 85.446, 81.5867
7200.000000, 85.522, 85.3477
7300.000000, 85.490, 89.4505
7400.000000, 85.568, 94.9621
7500.000000, 85.965, 100.8934
7620.000000, 86.929, 106.0462
7750.000000, 88.071, 106.6801
7880.000000, 88.790, 103.9811
8000.000000, 88.973, 100.2124
8120.000000, 88.714, 97.4837
8250.000000, 88.331, 97.4965
8380.000000, 88.345, 98.7469
8500.000000, 88.592, 97.8846
8620.000000, 88.817, 95.0025
8750.000000, 88.912, 89.1196
8850.000000, 88.648, 82.5710
9000.000000, 87.346, 72.3656
9120.000000, 85.647, 66.7978
9250.000000, 83.700, 63.4471
9380.000000, 81.704, 59.1588
9500.000000, 79.040, 55.1379
9620.000000, 75.529, 55.3434
9750.000000, 71.913, 52.4976
9880.000000, 71.000, -108.8253
10000.000000, 73.536, -137.4381
10150.000000, 76.365, -149.1311
10300.000000, 77.659, -155.7676
10440.000000, 77.908, -156.7672
10600.000000, 77.829, -148.8514
10750.000000, 78.824, -133.8029
10900.000000, 81.567, -119.9902
11060.000000, 84.876, -120.6119
11200.000000, 86.491, -131.6223
11380.000000, 86.435, -147.2977
11500.000000, 85.398, -153.5496
11720.000000, 82.816, -151.5852
11800.000000, 81.998, -146.9137
12060.000000, 80.997, -121.3484
12200.000000, 81.707, -107.4783
12410.000000, 83.764, -90.9872
12500.000000, 85.047, -84.8506
12650.000000, 87.750, -78.0085
12800.000000, 90.427, -79.9974
13150.000000, 93.893, -102.9180
13200.000000, 94.140, -106.8058
13400.000000, 94.502, -123.2416
13600.000000, 93.722, -138.7535
13800.000000, 91.959, -149.8285
14000.000000, 89.698, -154.1198
14300.000000, 86.925, -148.5760
14500.000000, 86.121, -146.3628
14750.000000, 84.348, -150.1226
15000.000000, 80.594, -135.1315
15250.000000, 80.084, -88.8012
15500.000000, 83.321, -71.2380
15750.000000, 86.011, -72.9407
16000.000000, 87.049, -81.3499
16250.000000, 86.782, -88.6786
16500.000000, 85.506, -89.5579
16750.000000, 84.927, -79.3970
17000.000000, 86.046, -75.4232
17250.000000, 86.215, -83.4915
17500.000000, 84.640, -90.9745
17750.000000, 81.948, -91.6903
18000.000000, 78.608, -80.5971
18250.000000, 76.476, -41.7163
18500.000000, 78.849, 0.9607
18750.000000, 83.057, 18.6339
19000.000000, 86.860, 21.6819
19250.000000, 89.645, 16.9927
19500.000000, 91.316, 8.6135
19750.000000, 91.843, -1.2446
20000.000000, 91.241, -9.5475
20300.000000, 89.650, -14.2498
20600.000000, 87.868, -14.4715
20900.000000, 85.875, -11.8304
21200.000000, 83.909, -4.3577
21400.000000, 82.948, 1.5256
21800.000000, 80.580, 7.1785
22000.000000, 78.365, 8.7692
22400.000000, 71.230, 12.7358
22700.000000, 63.935, 15.2757
23000.000000, 55.500, 13.5291
23300.000000, 46.370, 60.6157
