* Measurement data measured by REW V5.31
* Source: Headset (DS by VECLAN.COM), MICROPHONE (Master Volume), L, volume: 0.720. Timing signal peak level -21.8 dBFS, measurement signal peak level -21.9 dBFS
* Format: 2M Log Swept Sine, 1 sweep at -12.0 dBFS using an acoustic timing reference
* Dated: Apr 20, 2024 1:22:21 PM
* REW Settings:
*  C-weighting compensation: Off
*  Target level: 75.0 dB
* Note: ; Delay -0.0596 ms (-20 mm, -0.8 in) using estimated IR delay relative to Acoustic reference played from HEADPHONE L with no timing offset
* Measurement: Centrance Cerene dB L5
* Smoothing: 1/24 octave
* Frequency Step: 1/48 octave
* Start Frequency: 1.000 Hz
*
* Freq(Hz), SPL(dB), Phase(degrees)
1.000000, 86.627, -116.3338
1.015000, 86.651, -116.5366
1.030000, 86.671, -116.7170
1.044000, 86.687, -116.8640
1.060000, 86.701, -117.0054
1.075000, 86.710, -117.1113
1.090000, 86.717, -117.1921
1.106000, 86.721, -117.2618
1.120000, 86.723, -117.3297
1.138000, 86.725, -117.4400
1.150000, 86.725, -117.5280
1.172000, 86.721, -117.7219
1.180000, 86.718, -117.8062
1.206000, 86.703, -118.1002
1.220000, 86.691, -118.2679
1.241000, 86.664, -118.5257
1.250000, 86.650, -118.6367
1.265000, 86.622, -118.8198
1.280000, 86.588, -118.9975
1.315000, 86.483, -119.3708
1.320000, 86.464, -119.4172
1.340000, 86.383, -119.5794
1.360000, 86.286, -119.6946
1.380000, 86.173, -119.7903
1.400000, 86.043, -119.8306
1.430000, 85.813, -119.7308
1.450000, 85.633, -119.5393
1.475000, 85.372, -119.1591
1.500000, 85.052, -118.6703
1.525000, 84.674, -118.0964
1.550000, 84.245, -117.4322
1.575000, 83.776, -116.6890
1.600000, 83.278, -115.8717
1.625000, 82.762, -114.9268
1.650000, 82.239, -113.8383
1.675000, 81.719, -112.5889
1.700000, 81.212, -111.1602
1.725000, 80.731, -109.5344
1.750000, 80.285, -107.6950
1.775000, 79.886, -105.6461
1.800000, 79.544, -103.3963
1.825000, 79.267, -100.9063
1.850000, 79.050, -98.1540
1.875000, 78.877, -95.1093
1.900000, 78.741, -91.7817
1.925000, 78.638, -88.2102
1.950000, 78.566, -84.4512
1.975000, 78.523, -80.5917
2.000000, 78.508, -76.7276
2.030000, 78.524, -72.1587
2.060000, 78.574, -67.7974
2.090000, 78.655, -63.7623
2.120000, 78.763, -60.1419
2.140000, 78.848, -57.9868
2.180000, 79.051, -54.3411
2.200000, 79.170, -52.8311
2.240000, 79.470, -50.1928
2.270000, 79.756, -48.4591
2.300000, 80.086, -46.9281
2.330000, 80.450, -45.6012
2.360000, 80.840, -44.4756
2.400000, 81.381, -43.3239
2.430000, 81.791, -42.6821
2.470000, 82.324, -42.0979
2.500000, 82.701, -41.8541
2.540000, 83.158, -41.7745
2.580000, 83.559, -41.9603
2.620000, 83.923, -42.3541
2.650000, 84.181, -42.7235
2.690000, 84.508, -43.2898
2.720000, 84.741, -43.7580
2.760000, 85.038, -44.4269
2.800000, 85.319, -45.1809
2.850000, 85.650, -46.1881
2.900000, 85.962, -47.2642
2.950000, 86.254, -48.4308
3.000000, 86.522, -49.7406
3.040000, 86.719, -50.8585
3.070000, 86.857, -51.7142
3.110000, 87.030, -52.8606
3.150000, 87.191, -53.9988
3.200000, 87.379, -55.4227
3.250000, 87.553, -56.8176
3.300000, 87.716, -58.1803
3.350000, 87.866, -59.5663
3.400000, 87.999, -61.0345
3.450000, 88.118, -62.5345
3.500000, 88.223, -64.0145
3.550000, 88.317, -65.4414
3.600000, 88.401, -66.8168
3.650000, 88.476, -68.1160
3.700000, 88.540, -69.3630
3.750000, 88.594, -70.6087
3.820000, 88.649, -72.3797
3.870000, 88.678, -73.6117
3.950000, 88.711, -75.4371
4.000000, 88.725, -76.4735
4.060000, 88.736, -77.6026
4.120000, 88.737, -78.6486
4.180000, 88.728, -79.6388
4.250000, 88.710, -80.7301
4.310000, 88.695, -81.5559
4.370000, 88.682, -82.2616
4.440000, 88.670, -82.9492
4.500000, 88.658, -83.4126
4.550000, 88.648, -83.7251
4.620000, 88.640, -84.0980
4.680000, 88.641, -84.3518
4.750000, 88.658, -84.5690
4.820000, 88.692, -84.7029
4.870000, 88.726, -84.7304
4.940000, 88.784, -84.6980
5.000000, 88.845, -84.6592
5.080000, 88.941, -84.6413
5.150000, 89.041, -84.6650
5.220000, 89.158, -84.7147
5.300000, 89.308, -84.7802
5.380000, 89.470, -84.8963
5.450000, 89.613, -85.0974
5.520000, 89.755, -85.3895
5.600000, 89.922, -85.8259
5.700000, 90.133, -86.4856
5.800000, 90.331, -87.2407
5.900000, 90.505, -88.1198
6.000000, 90.658, -89.1325
6.080000, 90.765, -90.0010
6.150000, 90.844, -90.7445
6.220000, 90.907, -91.4734
6.300000, 90.959, -92.2984
6.400000, 90.996, -93.3395
6.500000, 91.005, -94.3055
6.600000, 90.987, -95.0826
6.700000, 90.939, -95.6941
6.800000, 90.867, -96.1468
6.900000, 90.783, -96.3756
7.000000, 90.697, -96.2986
7.100000, 90.604, -95.9263
7.200000, 90.517, -95.2853
7.300000, 90.459, -94.4020
7.400000, 90.440, -93.2565
7.500000, 90.457, -91.8812
7.620000, 90.535, -90.0961
7.750000, 90.709, -88.1950
7.880000, 90.978, -86.3773
8.000000, 91.283, -84.9617
8.120000, 91.626, -83.9524
8.250000, 92.040, -83.2674
8.380000, 92.465, -83.0256
8.500000, 92.845, -83.2249
8.620000, 93.212, -83.7581
8.750000, 93.584, -84.6312
8.850000, 93.843, -85.4920
9.000000, 94.190, -87.0445
9.120000, 94.429, -88.4225
9.250000, 94.649, -90.0093
9.380000, 94.828, -91.6785
9.500000, 94.962, -93.2236
9.620000, 95.066, -94.7391
9.750000, 95.146, -96.3548
9.880000, 95.193, -97.8929
10.000000, 95.206, -99.2133
10.150000, 95.187, -100.7758
10.300000, 95.144, -102.1528
10.440000, 95.087, -103.2632
10.600000, 95.015, -104.3386
10.750000, 94.952, -105.1548
10.900000, 94.898, -105.8094
11.060000, 94.860, -106.3983
11.200000, 94.845, -106.8555
11.380000, 94.851, -107.3888
11.500000, 94.871, -107.7365
11.720000, 94.936, -108.4284
11.800000, 94.967, -108.7187
12.060000, 95.086, -109.8457
12.200000, 95.151, -110.6108
12.410000, 95.235, -111.8720
12.500000, 95.261, -112.4351
12.650000, 95.288, -113.3865
12.800000, 95.293, -114.2941
13.150000, 95.224, -116.0228
13.200000, 95.208, -116.1984
13.400000, 95.136, -116.6442
13.600000, 95.077, -116.6459
13.800000, 95.058, -116.2105
14.000000, 95.109, -115.4887
14.300000, 95.344, -114.3710
14.500000, 95.595, -113.9083
14.750000, 95.966, -113.9426
15.000000, 96.339, -114.7377
15.250000, 96.651, -116.2299
15.500000, 96.857, -118.0568
15.750000, 96.937, -119.8674
16.000000, 96.902, -121.2761
16.250000, 96.796, -122.0085
16.500000, 96.683, -121.8602
16.750000, 96.640, -120.8996
17.000000, 96.732, -119.5240
17.250000, 96.968, -118.2954
17.500000, 97.309, -117.6707
17.750000, 97.681, -117.8753
18.000000, 98.018, -118.8589
18.250000, 98.272, -120.4306
18.500000, 98.419, -122.2675
18.750000, 98.462, -124.0783
19.000000, 98.420, -125.6227
19.250000, 98.326, -126.7579
19.500000, 98.217, -127.4145
19.750000, 98.125, -127.6458
20.000000, 98.073, -127.5956
20.299999, 98.071, -127.4320
20.600000, 98.122, -127.3361
20.900000, 98.203, -127.4156
21.200001, 98.295, -127.6982
21.400000, 98.359, -127.9843
21.799999, 98.486, -128.7690
22.000000, 98.546, -129.2738
22.400000, 98.638, -130.5161
22.700001, 98.665, -131.5265
23.000000, 98.648, -132.4464
23.299999, 98.598, -133.1326
23.600000, 98.540, -133.4623
24.000000, 98.510, -133.4003
24.299999, 98.550, -133.2127
24.700001, 98.674, -133.1447
25.000000, 98.785, -133.3660
25.400000, 98.904, -133.9592
25.799999, 98.973, -134.5728
26.200001, 99.022, -134.9825
26.500000, 99.073, -135.1781
26.900000, 99.172, -135.4743
27.200001, 99.257, -135.8495
27.600000, 99.349, -136.5602
28.000000, 99.398, -137.3312
28.500000, 99.424, -138.0843
29.000000, 99.476, -138.5710
29.500000, 99.584, -139.1638
30.000000, 99.709, -140.1239
30.400000, 99.790, -141.1286
30.700001, 99.835, -141.9383
31.100000, 99.879, -143.0277
31.500000, 99.909, -144.1034
32.000000, 99.931, -145.3748
32.500000, 99.935, -146.5088
33.000000, 99.931, -147.4097
33.500000, 99.938, -148.0693
34.000000, 99.968, -148.5183
34.500000, 100.033, -148.8688
35.000000, 100.129, -149.2956
35.500000, 100.227, -149.9559
36.000000, 100.278, -150.7529
36.500000, 100.270, -151.3471
37.000000, 100.254, -151.4873
37.500000, 100.300, -151.3898
38.200001, 100.451, -151.7751
38.700001, 100.520, -152.5780
39.500000, 100.500, -153.7573
40.000000, 100.490, -154.1394
40.599998, 100.534, -154.6748
41.200001, 100.580, -155.5945
41.799999, 100.578, -156.6298
42.500000, 100.559, -157.5839
43.099998, 100.573, -158.2934
43.700001, 100.608, -159.0873
44.400002, 100.652, -160.1471
45.000000, 100.678, -161.1476
45.500000, 100.682, -161.9778
46.200001, 100.672, -162.9398
46.799999, 100.689, -163.6555
47.500000, 100.725, -164.7900
48.200001, 100.680, -166.1368
48.700001, 100.590, -166.7776
49.400002, 100.486, -166.9561
50.000000, 100.481, -166.8550
50.799999, 100.535, -166.9493
51.500000, 100.606, -167.0604
52.200001, 100.738, -167.3255
53.000000, 100.895, -168.3101
53.799999, 100.954, -169.5760
54.500000, 100.969, -170.4875
55.200001, 100.974, -171.4532
56.000000, 100.903, -172.5261
57.000000, 100.772, -173.0513
58.000000, 100.729, -173.3988
59.000000, 100.665, -173.8487
60.000000, 100.656, -174.0537
60.799999, 100.680, -174.5428
61.500000, 100.675, -175.0656
62.200001, 100.671, -175.5076
63.000000, 100.681, -176.1478
64.000000, 100.635, -177.2196
65.000000, 100.511, -178.0578
66.000000, 100.377, -178.4623
67.000000, 100.287, -178.8340
68.000000, 100.191, -179.4985
69.000000, 100.079, 179.9786
70.000000, 100.013, 179.4438
71.000000, 99.940, 178.8162
72.000000, 99.887, 178.5391
73.000000, 99.896, 178.2212
74.000000, 99.884, 177.6917
75.000000, 99.838, 177.3585
76.199997, 99.787, 177.2006
77.500000, 99.747, 176.9240
78.800003, 99.680, 176.5121
80.000000, 99.629, 176.1417
81.199997, 99.541, 175.5742
82.500000, 99.409, 175.8624
83.800003, 99.450, 176.4909
85.000000, 99.517, 176.1520
86.199997, 99.508, 175.7357
87.500000, 99.533, 175.4713
88.500000, 99.573, 174.9033
90.000000, 99.585, 173.8298
91.199997, 99.571, 173.0218
92.500000, 99.532, 172.3016
93.800003, 99.456, 171.6284
95.000000, 99.321, 171.2200
96.199997, 99.147, 171.0952
97.500000, 98.936, 171.3341
98.800003, 98.763, 171.8630
100.000000, 98.661, 172.4322
101.500000, 98.651, 173.1806
103.000000, 98.747, 173.5937
104.400002, 98.855, 173.7835
106.000000, 98.955, 173.9330
107.500000, 98.974, 173.8415
109.000000, 98.900, 173.6500
110.599998, 98.787, 173.4573
112.000000, 98.728, 173.2518
113.800003, 98.777, 172.8529
115.000000, 98.839, 172.2426
117.199997, 98.812, 171.2354
118.000000, 98.748, 171.1511
120.599998, 98.591, 172.0305
122.000000, 98.606, 172.2607
124.099998, 98.768, 171.9701
125.000000, 98.824, 171.5211
126.500000, 98.854, 171.1516
128.000000, 98.860, 171.2935
131.500000, 98.876, 170.7220
132.000000, 98.859, 170.4600
134.000000, 98.820, 169.9818
136.000000, 98.948, 169.7720
138.000000, 99.078, 169.3099
140.000000, 99.090, 168.8950
143.000000, 98.996, 168.1294
145.000000, 98.957, 167.3095
147.500000, 98.957, 166.0518
150.000000, 98.903, 165.5324
152.500000, 98.861, 165.4275
155.000000, 98.824, 164.9152
157.500000, 98.741, 164.3536
160.000000, 98.627, 164.2802
162.500000, 98.551, 164.4218
165.000000, 98.556, 163.7834
167.500000, 98.542, 162.9747
170.000000, 98.527, 162.6495
172.500000, 98.479, 162.6536
175.000000, 98.439, 162.5302
177.500000, 98.413, 162.1212
180.000000, 98.386, 161.7275
182.500000, 98.328, 161.4122
185.000000, 98.248, 161.2189
187.500000, 98.213, 161.0392
190.000000, 98.227, 160.5961
192.500000, 98.214, 160.3284
195.000000, 98.192, 160.1917
197.500000, 98.143, 159.7501
200.000000, 98.080, 159.2917
203.000000, 98.009, 158.9765
206.000000, 97.943, 158.7983
209.000000, 97.878, 158.3728
212.000000, 97.805, 157.8772
214.000000, 97.767, 157.5526
218.000000, 97.699, 156.5904
220.000000, 97.668, 156.2165
224.000000, 97.596, 156.0718
227.000000, 97.518, 156.2420
230.000000, 97.433, 156.2923
233.000000, 97.364, 156.1058
236.000000, 97.313, 155.9241
240.000000, 97.260, 155.6498
243.000000, 97.199, 155.2341
247.000000, 97.080, 154.4771
250.000000, 96.960, 154.0823
254.000000, 96.798, 153.9662
258.000000, 96.640, 154.0184
262.000000, 96.482, 154.0407
265.000000, 96.352, 153.9865
269.000000, 96.163, 154.1965
272.000000, 96.015, 154.4388
276.000000, 95.853, 155.0670
280.000000, 95.774, 155.7699
285.000000, 95.751, 156.7900
290.000000, 95.790, 157.6870
295.000000, 95.849, 158.5402
300.000000, 95.964, 158.5958
304.000000, 96.126, 158.5056
307.000000, 96.265, 158.4916
311.000000, 96.402, 158.1656
315.000000, 96.488, 156.7661
320.000000, 96.477, 154.7045
325.000000, 96.334, 153.5198
330.000000, 96.051, 152.0217
335.000000, 95.765, 150.5881
340.000000, 95.516, 150.5175
345.000000, 95.334, 150.8840
350.000000, 95.202, 150.8184
355.000000, 95.054, 150.6935
360.000000, 94.935, 150.5696
365.000000, 94.772, 150.0957
370.000000, 94.580, 150.1723
375.000000, 94.435, 150.2031
382.000000, 94.216, 150.0380
387.000000, 94.006, 150.1517
395.000000, 93.732, 150.3528
400.000000, 93.564, 150.7742
406.000000, 93.335, 151.6087
412.000000, 93.175, 152.2459
418.000000, 93.026, 152.7261
425.000000, 92.838, 153.1813
431.000000, 92.716, 153.6685
437.000000, 92.584, 153.7038
444.000000, 92.376, 154.0799
450.000000, 92.185, 154.9283
455.000000, 92.060, 155.4964
462.000000, 91.872, 155.8894
468.000000, 91.674, 156.3125
475.000000, 91.436, 157.1781
482.000000, 91.226, 158.5038
487.000000, 91.097, 159.6469
494.000000, 90.930, 161.0412
500.000000, 90.783, 161.7997
508.000000, 90.544, 163.2739
515.000000, 90.389, 165.0592
522.000000, 90.227, 166.6780
530.000000, 90.047, 168.6772
538.000000, 89.899, 170.6266
545.000000, 89.772, 172.5645
552.000000, 89.673, 174.7300
560.000000, 89.628, 176.6584
570.000000, 89.690, 179.2260
580.000000, 89.651, -178.5335
590.000000, 89.645, -175.7822
600.000000, 89.680, -173.1559
608.000000, 89.734, -171.6131
615.000000, 89.799, -170.0667
622.000000, 89.886, -168.1790
630.000000, 90.016, -165.9557
640.000000, 90.170, -163.6003
650.000000, 90.366, -160.8753
660.000000, 90.582, -158.5518
670.000000, 90.610, -156.3535
680.000000, 90.776, -154.0074
690.000000, 91.117, -151.8227
700.000000, 91.238, -151.4060
710.000000, 91.456, -151.0440
720.000000, 91.752, -149.9307
730.000000, 92.079, -148.7808
740.000000, 92.357, -147.9805
750.000000, 92.592, -147.5637
762.000000, 93.088, -147.2895
775.000000, 94.289, -147.2152
788.000000, 95.048, -146.9852
800.000000, 94.424, -147.3980
812.000000, 94.108, -147.9078
825.000000, 94.232, -148.2343
838.000000, 94.432, -148.4984
850.000000, 94.591, -148.8268
862.000000, 94.760, -149.1768
875.000000, 94.940, -149.6168
885.000000, 95.059, -150.1312
900.000000, 95.216, -151.1301
912.000000, 95.294, -152.0532
925.000000, 95.335, -153.0069
938.000000, 95.348, -153.7527
950.000000, 95.334, -154.3059
962.000000, 95.295, -154.7976
975.000000, 95.229, -155.1559
988.000000, 95.136, -155.2159
1000.000000, 95.039, -154.9307
1015.000000, 94.957, -153.9816
1030.000000, 94.966, -152.6790
1044.000000, 95.070, -151.5582
1060.000000, 95.238, -150.6666
1075.000000, 95.421, -150.0846
1090.000000, 95.615, -149.8626
1106.000000, 95.804, -150.1766
1120.000000, 95.968, -150.7784
1138.000000, 96.154, -151.5094
1150.000000, 96.259, -152.1548
1172.000000, 96.406, -153.2580
1180.000000, 96.436, -153.5468
1206.000000, 96.510, -154.6225
1220.000000, 96.534, -155.2526
1241.000000, 96.550, -156.0548
1250.000000, 96.546, -156.3344
1265.000000, 96.533, -156.7657
1280.000000, 96.519, -157.1480
1315.000000, 96.473, -157.7137
1320.000000, 96.465, -157.7834
1340.000000, 96.424, -158.0796
1360.000000, 96.361, -158.2745
1380.000000, 96.291, -158.3505
1400.000000, 96.233, -158.3217
1430.000000, 96.161, -158.0915
1450.000000, 96.125, -157.8342
1475.000000, 96.096, -157.4945
1500.000000, 96.079, -157.0197
1525.000000, 96.070, -156.5860
1550.000000, 96.070, -156.2205
1575.000000, 96.075, -155.8528
1600.000000, 96.078, -155.4840
1625.000000, 96.083, -155.1458
1650.000000, 96.086, -154.8557
1675.000000, 96.088, -154.6114
1700.000000, 96.094, -154.3636
1725.000000, 96.092, -154.1330
1750.000000, 96.080, -153.8649
1775.000000, 96.063, -153.6038
1800.000000, 96.043, -153.3138
1825.000000, 96.024, -152.9987
1850.000000, 96.001, -152.6428
1875.000000, 95.973, -152.2277
1900.000000, 95.944, -151.7147
1925.000000, 95.922, -151.0768
1950.000000, 95.928, -150.3871
1975.000000, 95.962, -149.8635
2000.000000, 95.997, -149.5567
2030.000000, 96.013, -149.3446
2060.000000, 95.988, -149.0909
2090.000000, 95.927, -148.6366
2120.000000, 95.844, -147.8923
2140.000000, 95.786, -147.1716
2180.000000, 95.731, -144.8831
2200.000000, 95.801, -143.4575
2240.000000, 96.131, -141.7879
2270.000000, 96.328, -141.6431
2300.000000, 96.451, -141.5287
2330.000000, 96.565, -141.3549
2360.000000, 96.668, -141.3569
2400.000000, 96.751, -141.3354
2430.000000, 96.819, -141.0837
2470.000000, 96.956, -140.7927
2500.000000, 97.080, -140.7988
2540.000000, 97.249, -141.1764
2580.000000, 97.378, -142.0215
2620.000000, 97.409, -143.2872
2650.000000, 97.352, -144.1950
2690.000000, 97.203, -144.8660
2720.000000, 97.074, -144.9364
2760.000000, 96.924, -144.5084
2800.000000, 96.826, -143.6986
2850.000000, 96.806, -142.5164
2900.000000, 96.884, -141.6160
2950.000000, 97.003, -141.2734
3000.000000, 97.103, -141.3616
3040.000000, 97.170, -141.5582
3070.000000, 97.223, -141.8164
3110.000000, 97.301, -142.4219
3150.000000, 97.367, -143.3753
3200.000000, 97.394, -145.0432
3250.000000, 97.325, -147.2504
3300.000000, 97.109, -149.7501
3350.000000, 96.703, -152.1517
3400.000000, 96.114, -153.8474
3450.000000, 95.400, -154.3787
3500.000000, 94.638, -153.4889
3550.000000, 93.897, -151.1544
3600.000000, 93.231, -147.6465
3650.000000, 92.663, -143.0412
3700.000000, 92.240, -137.3635
3750.000000, 92.033, -130.9538
3820.000000, 92.160, -121.7774
3870.000000, 92.535, -115.7571
3950.000000, 93.511, -108.3536
4000.000000, 94.231, -105.5678
4060.000000, 95.071, -104.0237
4120.000000, 95.806, -103.8563
4180.000000, 96.425, -104.5299
4250.000000, 97.003, -106.0934
4310.000000, 97.350, -107.7972
4370.000000, 97.575, -109.3991
4440.000000, 97.780, -110.9016
4500.000000, 97.941, -112.2465
4550.000000, 98.057, -113.4217
4620.000000, 98.186, -115.2692
4680.000000, 98.252, -117.1445
4750.000000, 98.214, -119.7846
4820.000000, 97.967, -122.4014
4870.000000, 97.663, -123.6790
4940.000000, 97.151, -123.9991
5000.000000, 96.737, -122.8303
5080.000000, 96.372, -119.5683
5150.000000, 96.337, -115.8061
5220.000000, 96.606, -112.2139
5300.000000, 97.200, -109.3117
5380.000000, 98.026, -108.0131
5450.000000, 98.930, -108.5621
5520.000000, 99.977, -111.4510
5600.000000, 101.147, -118.6058
5700.000000, 102.003, -133.2445
5800.000000, 101.626, -150.9700
5900.000000, 99.976, -166.5742
6000.000000, 97.519, -176.7293
6080.000000, 95.359, 179.3778
6150.000000, 93.483, 178.4184
6220.000000, 91.658, 179.2524
6300.000000, 89.650, -177.8179
6400.000000, 87.278, -171.7000
6500.000000, 85.050, -163.4315
6600.000000, 82.846, -152.4735
6700.000000, 80.718, -136.5203
6800.000000, 79.192, -111.8714
6900.000000, 79.586, -79.6527
7000.000000, 81.900, -56.5088
7100.000000, 84.551, -45.8288
7200.000000, 86.953, -41.7260
7300.000000, 89.034, -41.7884
7400.000000, 90.697, -45.1302
7500.000000, 91.869, -50.3542
7620.000000, 92.705, -56.9617
7750.000000, 93.200, -62.9701
7880.000000, 93.453, -68.0598
8000.000000, 93.597, -72.6636
8120.000000, 93.713, -77.8851
8250.000000, 93.770, -85.6459
8380.000000, 93.445, -96.6498
8500.000000, 92.390, -108.5828
8620.000000, 90.450, -119.6186
8750.000000, 87.447, -129.2714
8850.000000, 84.467, -135.3129
9000.000000, 78.871, -129.0306
9120.000000, 77.719, -3.3194
9250.000000, 81.116, 0.2968
9380.000000, 83.576, -6.1098
9500.000000, 84.695, -12.6900
9620.000000, 85.049, -18.2860
9750.000000, 84.785, -23.0496
9880.000000, 83.836, -25.7466
10000.000000, 82.362, -23.9581
10150.000000, 80.284, -9.2647
10300.000000, 80.685, 27.2663
10440.000000, 84.525, 53.4432
10600.000000, 89.410, 56.0867
10750.000000, 92.723, 42.7483
10900.000000, 94.194, 22.3011
11060.000000, 93.831, 1.3109
11200.000000, 92.474, -12.2641
11380.000000, 90.119, -22.6446
11500.000000, 88.512, -26.1266
11720.000000, 86.097, -33.8052
11800.000000, 85.254, -40.4265
12060.000000, 83.205, -129.6925
12200.000000, 85.366, 148.5540
12410.000000, 89.909, 114.0838
12500.000000, 91.561, 104.0683
12650.000000, 93.996, 88.0812
12800.000000, 95.770, 69.5762
13150.000000, 94.886, 23.3658
13200.000000, 94.221, 18.5767
