* Measurement data measured by REW V5.31
* Source: Headset (DS by VECLAN.COM), MICROPHONE (Master Volume), L, volume: 0.720. Timing signal peak level -25.6 dBFS, measurement signal peak level -22.0 dBFS
* Format: 2M Log Swept Sine, 1 sweep at -12.0 dBFS using an acoustic timing reference
* Dated: Apr 20, 2024 1:29:40 PM
* REW Settings:
*  C-weighting compensation: Off
*  Target level: 75.0 dB
* Note: ; Delay -0.0578 ms (-20 mm, -0.78 in) using estimated IR delay relative to Acoustic reference played from HEADPHONE R with no timing offset
* Measurement: Centrance Cerene dB R2
* Smoothing: 1/24 octave
* Frequency Step: 1/48 octave
* Start Frequency: 1.000 Hz
*
* Freq(Hz), SPL(dB), Phase(degrees)
1.000000, 75.719, 26.9394
1.015000, 75.694, 29.1643
1.030000, 75.686, 31.3189
1.044000, 75.696, 33.2429
1.060000, 75.728, 35.3127
1.075000, 75.781, 37.1069
1.090000, 75.857, 38.7493
1.106000, 75.967, 40.3693
1.120000, 76.092, 41.7492
1.138000, 76.294, 43.5072
1.150000, 76.451, 44.6580
1.172000, 76.784, 46.6829
1.180000, 76.917, 47.3798
1.206000, 77.391, 49.4968
1.220000, 77.668, 50.5321
1.241000, 78.106, 51.9361
1.250000, 78.300, 52.4814
1.265000, 78.630, 53.3139
1.280000, 78.967, 54.0505
1.315000, 79.761, 55.3987
1.320000, 79.874, 55.5494
1.340000, 80.321, 56.0491
1.360000, 80.754, 56.3869
1.380000, 81.168, 56.5256
1.400000, 81.557, 56.4901
1.430000, 82.078, 56.1386
1.450000, 82.377, 55.7071
1.475000, 82.692, 54.9756
1.500000, 82.960, 54.1199
1.525000, 83.193, 53.2000
1.550000, 83.395, 52.2387
1.575000, 83.571, 51.2271
1.600000, 83.724, 50.1554
1.625000, 83.858, 49.0661
1.650000, 83.978, 47.9591
1.675000, 84.086, 46.8320
1.700000, 84.188, 45.6797
1.725000, 84.287, 44.4958
1.750000, 84.386, 43.2726
1.775000, 84.491, 41.9839
1.800000, 84.604, 40.6037
1.825000, 84.729, 39.1566
1.850000, 84.861, 37.6412
1.875000, 84.994, 36.0757
1.900000, 85.126, 34.4838
1.925000, 85.256, 32.8849
1.950000, 85.384, 31.2937
1.975000, 85.510, 29.7030
2.000000, 85.635, 28.1024
2.030000, 85.783, 26.2160
2.060000, 85.929, 24.3637
2.090000, 86.073, 22.5393
2.120000, 86.216, 20.7332
2.140000, 86.311, 19.5332
2.180000, 86.499, 17.1006
2.200000, 86.592, 15.8466
2.240000, 86.778, 13.2775
2.270000, 86.916, 11.3120
2.300000, 87.053, 9.3412
2.330000, 87.189, 7.3865
2.360000, 87.322, 5.4630
2.400000, 87.498, 2.9156
2.430000, 87.628, 1.0531
2.470000, 87.796, -1.3578
2.500000, 87.920, -3.1172
2.540000, 88.080, -5.4144
2.580000, 88.236, -7.7176
2.620000, 88.388, -10.1037
2.650000, 88.499, -11.9172
2.690000, 88.645, -14.3345
2.720000, 88.751, -16.1261
2.760000, 88.889, -18.4615
2.800000, 89.021, -20.7601
2.850000, 89.177, -23.5163
2.900000, 89.323, -26.1376
2.950000, 89.459, -28.6815
3.000000, 89.584, -31.2937
3.040000, 89.678, -33.4245
3.070000, 89.745, -35.0198
3.110000, 89.828, -37.1188
3.150000, 89.904, -39.1627
3.200000, 89.991, -41.6402
3.250000, 90.066, -43.9895
3.300000, 90.131, -46.2100
3.350000, 90.184, -48.3988
3.400000, 90.227, -50.6518
3.450000, 90.259, -52.9190
3.500000, 90.280, -55.1378
3.550000, 90.291, -57.2603
3.600000, 90.291, -59.2729
3.650000, 90.280, -61.1411
3.700000, 90.257, -62.9030
3.750000, 90.221, -64.6404
3.820000, 90.152, -67.0767
3.870000, 90.091, -68.7584
3.950000, 89.976, -71.2240
4.000000, 89.895, -72.5870
4.060000, 89.786, -74.0226
4.120000, 89.662, -75.3057
4.180000, 89.524, -76.4788
4.250000, 89.354, -77.7109
4.310000, 89.210, -78.5799
4.370000, 89.073, -79.2354
4.440000, 88.919, -79.7151
4.500000, 88.786, -79.8637
4.550000, 88.676, -79.8295
4.620000, 88.537, -79.6161
4.680000, 88.442, -79.2997
4.750000, 88.376, -78.7961
4.820000, 88.359, -78.1190
4.870000, 88.373, -77.4951
4.940000, 88.426, -76.5000
5.000000, 88.500, -75.6568
5.080000, 88.640, -74.7005
5.150000, 88.803, -74.0680
5.220000, 89.012, -73.5636
5.300000, 89.297, -73.1090
5.380000, 89.608, -72.8831
5.450000, 89.882, -72.9726
5.520000, 90.150, -73.3363
5.600000, 90.459, -74.0293
5.700000, 90.846, -75.1959
5.800000, 91.207, -76.6299
5.900000, 91.522, -78.3719
6.000000, 91.795, -80.4354
6.080000, 91.985, -82.2262
6.150000, 92.125, -83.8023
6.220000, 92.239, -85.3842
6.300000, 92.337, -87.2427
6.400000, 92.413, -89.6829
6.500000, 92.438, -92.0880
6.600000, 92.412, -94.2771
6.700000, 92.331, -96.3271
6.800000, 92.199, -98.2687
6.900000, 92.028, -99.9358
7.000000, 91.819, -101.1634
7.100000, 91.568, -101.9868
7.200000, 91.297, -102.4024
7.300000, 91.040, -102.3216
7.400000, 90.808, -101.6232
7.500000, 90.599, -100.3215
7.620000, 90.432, -98.1846
7.750000, 90.431, -95.4421
7.880000, 90.622, -92.4070
8.000000, 90.928, -89.8826
8.120000, 91.342, -88.0400
8.250000, 91.905, -86.7598
8.380000, 92.506, -86.3089
8.500000, 93.037, -86.6892
8.620000, 93.547, -87.6635
8.750000, 94.049, -89.1894
8.850000, 94.384, -90.6574
9.000000, 94.805, -93.2588
9.120000, 95.070, -95.4719
9.250000, 95.284, -97.9186
9.380000, 95.424, -100.4123
9.500000, 95.495, -102.5900
9.620000, 95.512, -104.5716
9.750000, 95.474, -106.5222
9.880000, 95.388, -108.1483
10.000000, 95.271, -109.2759
10.150000, 95.088, -110.2464
10.300000, 94.908, -110.6459
10.440000, 94.758, -110.4819
10.600000, 94.640, -109.8331
10.750000, 94.610, -108.9171
10.900000, 94.658, -107.8499
11.060000, 94.788, -106.8556
11.200000, 94.962, -106.2032
11.380000, 95.225, -105.7378
11.500000, 95.411, -105.6934
11.720000, 95.743, -106.0623
11.800000, 95.853, -106.3209
12.060000, 96.164, -107.4836
12.200000, 96.297, -108.2348
12.410000, 96.454, -109.3660
12.500000, 96.508, -109.8143
12.650000, 96.580, -110.4988
12.800000, 96.640, -111.0882
13.150000, 96.761, -112.1044
13.200000, 96.780, -112.2192
13.400000, 96.861, -112.5958
13.600000, 96.957, -112.8896
13.800000, 97.068, -113.1502
14.000000, 97.194, -113.4381
14.300000, 97.402, -114.0770
14.500000, 97.544, -114.6355
14.750000, 97.713, -115.5007
15.000000, 97.862, -116.5401
15.250000, 97.979, -117.7488
15.500000, 98.052, -118.9598
15.750000, 98.076, -120.0398
16.000000, 98.065, -120.8513
16.250000, 98.046, -121.3583
16.500000, 98.047, -121.5331
16.750000, 98.099, -121.5063
17.000000, 98.212, -121.5170
17.250000, 98.373, -121.8127
17.500000, 98.546, -122.5078
17.750000, 98.688, -123.5862
18.000000, 98.767, -124.8995
18.250000, 98.768, -126.2343
18.500000, 98.695, -127.2940
18.750000, 98.581, -127.8622
19.000000, 98.472, -127.8381
19.250000, 98.425, -127.3439
19.500000, 98.471, -126.6376
19.750000, 98.610, -126.0632
20.000000, 98.810, -125.9049
20.299999, 99.062, -126.4117
20.600000, 99.260, -127.4817
20.900000, 99.374, -128.7643
21.200001, 99.416, -129.9234
21.400000, 99.425, -130.5160
21.799999, 99.462, -131.2720
22.000000, 99.509, -131.5494
22.400000, 99.659, -132.2967
22.700001, 99.783, -133.1620
23.000000, 99.881, -134.2589
23.299999, 99.934, -135.4504
23.600000, 99.948, -136.5459
24.000000, 99.940, -137.6862
24.299999, 99.939, -138.3293
24.700001, 99.959, -139.0064
25.000000, 99.984, -139.4340
25.400000, 100.023, -139.8931
25.799999, 100.084, -140.1469
26.200001, 100.198, -140.3090
26.500000, 100.323, -140.5429
26.900000, 100.513, -141.2032
27.200001, 100.640, -141.9868
27.600000, 100.752, -143.2342
28.000000, 100.793, -144.4013
28.500000, 100.796, -145.4306
29.000000, 100.816, -146.0392
29.500000, 100.868, -146.5984
30.000000, 100.916, -147.2492
30.400000, 100.935, -147.7668
30.700001, 100.945, -148.0986
31.100000, 100.962, -148.4739
31.500000, 100.988, -148.8327
32.000000, 101.033, -149.3071
32.500000, 101.087, -149.8512
33.000000, 101.155, -150.5053
33.500000, 101.228, -151.3932
34.000000, 101.278, -152.5255
34.500000, 101.276, -153.7321
35.000000, 101.225, -154.7168
35.500000, 101.167, -155.3157
36.000000, 101.146, -155.6137
36.500000, 101.177, -155.8992
37.000000, 101.235, -156.3967
37.500000, 101.276, -157.0986
38.200001, 101.281, -158.0086
38.700001, 101.287, -158.4485
39.500000, 101.356, -159.2480
40.000000, 101.393, -160.0550
40.599998, 101.377, -161.0993
41.200001, 101.328, -161.8354
41.799999, 101.312, -162.3420
42.500000, 101.333, -163.0993
43.099998, 101.338, -163.8736
43.700001, 101.343, -164.5821
44.400002, 101.377, -165.4987
45.000000, 101.388, -166.5045
45.500000, 101.358, -167.2981
46.200001, 101.305, -167.9796
46.799999, 101.314, -168.3714
47.500000, 101.360, -169.1980
48.200001, 101.335, -170.3326
48.700001, 101.263, -170.9338
49.400002, 101.161, -171.2155
50.000000, 101.128, -171.2191
50.799999, 101.126, -171.4754
51.500000, 101.103, -171.8347
52.200001, 101.081, -172.1129
53.000000, 101.072, -172.6220
53.799999, 101.006, -173.2927
54.500000, 100.918, -173.4439
55.200001, 100.910, -173.2684
56.000000, 101.008, -173.6153
57.000000, 101.069, -175.1653
58.000000, 100.991, -176.5838
59.000000, 100.911, -177.4454
60.000000, 100.842, -178.0450
60.799999, 100.805, -178.2009
61.500000, 100.814, -178.2826
62.200001, 100.836, -178.5215
63.000000, 100.839, -178.8777
64.000000, 100.836, -179.2549
65.000000, 100.831, -179.7929
66.000000, 100.797, 179.5496
67.000000, 100.748, 178.8989
68.000000, 100.698, 178.2412
69.000000, 100.645, 177.5812
70.000000, 100.585, 177.0234
71.000000, 100.532, 176.6820
72.000000, 100.509, 176.4211
73.000000, 100.487, 175.9926
74.000000, 100.422, 175.5536
75.000000, 100.344, 175.3502
76.199997, 100.276, 175.0982
77.500000, 100.215, 174.6187
78.800003, 100.149, 173.7409
80.000000, 100.035, 172.9271
81.199997, 99.920, 172.2371
82.500000, 99.752, 171.9119
83.800003, 99.694, 172.2554
85.000000, 99.711, 172.1370
86.199997, 99.716, 171.8820
87.500000, 99.697, 171.5639
88.500000, 99.653, 171.5321
90.000000, 99.613, 171.7742
91.199997, 99.575, 171.8134
92.500000, 99.523, 171.9016
93.800003, 99.491, 171.8446
95.000000, 99.471, 171.6346
96.199997, 99.468, 171.3815
97.500000, 99.482, 171.0090
98.800003, 99.484, 170.7325
100.000000, 99.492, 170.6040
101.500000, 99.464, 170.4232
103.000000, 99.402, 170.4869
104.400002, 99.346, 170.4285
106.000000, 99.250, 170.1858
107.500000, 99.161, 170.1339
109.000000, 99.122, 170.2820
110.599998, 99.147, 170.3965
112.000000, 99.172, 170.3959
113.800003, 99.190, 170.2389
115.000000, 99.162, 170.1598
117.199997, 99.142, 170.0896
118.000000, 99.140, 169.8940
120.599998, 99.001, 169.4565
122.000000, 98.964, 170.2918
124.099998, 99.042, 170.9048
125.000000, 99.048, 170.8014
126.500000, 99.022, 170.7622
128.000000, 99.061, 170.7415
131.500000, 99.193, 168.7337
132.000000, 99.192, 168.5493
134.000000, 99.182, 168.3745
136.000000, 99.170, 168.3124
138.000000, 99.117, 168.0562
140.000000, 99.074, 167.5897
143.000000, 99.017, 166.9497
145.000000, 99.026, 166.8578
147.500000, 99.053, 166.3487
150.000000, 99.069, 165.9692
152.500000, 99.077, 165.9478
155.000000, 99.057, 165.9308
157.500000, 98.999, 165.1927
160.000000, 98.966, 164.0577
162.500000, 98.977, 163.7166
165.000000, 99.043, 164.1466
167.500000, 99.051, 163.7483
170.000000, 98.944, 162.8632
172.500000, 98.822, 162.2460
175.000000, 98.739, 162.2738
177.500000, 98.695, 162.2645
180.000000, 98.638, 161.8609
182.500000, 98.564, 161.3624
185.000000, 98.492, 161.0162
187.500000, 98.440, 160.7976
190.000000, 98.399, 160.5489
192.500000, 98.345, 160.3784
195.000000, 98.291, 160.2246
197.500000, 98.233, 159.9843
200.000000, 98.157, 159.7129
203.000000, 98.050, 159.3691
206.000000, 97.956, 159.2356
209.000000, 97.902, 159.4064
212.000000, 97.818, 159.3770
214.000000, 97.747, 159.2169
218.000000, 97.633, 158.9104
220.000000, 97.581, 158.9424
224.000000, 97.506, 159.1782
227.000000, 97.450, 159.1809
230.000000, 97.372, 159.2067
233.000000, 97.331, 159.0402
236.000000, 97.323, 158.8890
240.000000, 97.247, 159.2914
243.000000, 97.171, 159.5005
247.000000, 97.062, 159.7452
250.000000, 96.983, 160.2719
254.000000, 96.910, 160.7366
258.000000, 96.880, 161.0582
262.000000, 96.878, 161.6340
265.000000, 96.921, 162.0825
269.000000, 96.984, 162.5769
272.000000, 97.016, 162.9159
276.000000, 97.067, 163.3203
280.000000, 97.139, 163.6629
285.000000, 97.338, 163.7023
290.000000, 97.666, 162.7999
295.000000, 97.951, 160.9760
300.000000, 98.022, 158.3363
304.000000, 97.912, 156.0476
307.000000, 97.768, 154.6956
311.000000, 97.537, 153.5528
315.000000, 97.295, 152.9487
320.000000, 97.036, 152.4337
325.000000, 96.854, 152.1470
330.000000, 96.708, 151.7992
335.000000, 96.557, 151.7688
340.000000, 96.412, 152.0016
345.000000, 96.293, 152.0668
350.000000, 96.155, 151.8473
355.000000, 96.018, 151.6490
360.000000, 95.913, 151.7821
365.000000, 95.799, 151.5091
370.000000, 95.671, 151.0598
375.000000, 95.551, 150.9904
382.000000, 95.383, 151.0763
387.000000, 95.229, 151.0190
395.000000, 95.032, 150.9338
400.000000, 94.921, 150.7883
406.000000, 94.740, 150.8494
412.000000, 94.543, 151.3222
418.000000, 94.343, 151.5506
425.000000, 94.126, 151.7123
431.000000, 93.970, 151.9432
437.000000, 93.797, 152.2340
444.000000, 93.605, 152.3582
450.000000, 93.451, 152.6780
455.000000, 93.304, 153.0639
462.000000, 93.086, 153.8886
468.000000, 92.903, 154.5241
475.000000, 92.691, 155.0668
482.000000, 92.532, 155.5986
487.000000, 92.434, 156.1305
494.000000, 92.275, 156.7512
500.000000, 92.109, 157.3989
508.000000, 91.863, 158.7679
515.000000, 91.653, 159.7632
522.000000, 91.446, 160.6945
530.000000, 91.208, 161.9066
538.000000, 91.010, 163.8351
545.000000, 90.825, 165.6079
552.000000, 90.673, 167.1093
560.000000, 90.551, 168.8374
570.000000, 90.411, 171.4445
580.000000, 90.289, 174.1863
590.000000, 90.210, 176.9052
600.000000, 90.203, 179.7671
608.000000, 90.248, -177.8001
615.000000, 90.281, -175.9705
622.000000, 90.330, -174.3324
630.000000, 90.419, -172.3884
640.000000, 90.558, -169.8776
650.000000, 90.737, -167.7466
660.000000, 90.921, -165.9595
670.000000, 91.113, -164.3139
680.000000, 91.331, -162.9396
690.000000, 91.551, -161.6227
700.000000, 91.761, -160.2533
710.000000, 91.982, -159.2725
720.000000, 92.194, -158.5608
730.000000, 92.389, -157.9322
740.000000, 92.585, -157.4645
750.000000, 92.778, -157.0915
762.000000, 92.988, -156.7411
775.000000, 93.194, -156.5849
788.000000, 93.395, -156.6260
800.000000, 93.559, -156.7210
812.000000, 93.677, -156.8249
825.000000, 93.770, -156.8611
838.000000, 93.856, -156.8577
850.000000, 93.923, -156.9762
862.000000, 93.973, -157.1735
875.000000, 93.999, -157.3123
885.000000, 93.993, -157.3556
900.000000, 93.945, -157.1656
912.000000, 93.889, -156.6062
925.000000, 93.843, -155.5256
938.000000, 93.871, -154.0886
950.000000, 93.985, -152.7258
962.000000, 94.158, -151.6475
975.000000, 94.372, -150.9037
988.000000, 94.577, -150.5523
1000.000000, 94.750, -150.4839
1015.000000, 94.943, -150.5911
1030.000000, 95.107, -150.8740
1044.000000, 95.234, -151.2007
1060.000000, 95.362, -151.6336
1075.000000, 95.464, -152.0916
1090.000000, 95.548, -152.5113
1106.000000, 95.628, -152.7823
1120.000000, 95.684, -152.9444
1138.000000, 95.729, -153.3891
1150.000000, 95.756, -153.7203
1172.000000, 95.808, -154.1817
1180.000000, 95.826, -154.3429
1206.000000, 95.871, -154.8470
1220.000000, 95.880, -155.0537
1241.000000, 95.888, -155.2681
1250.000000, 95.888, -155.2929
1265.000000, 95.895, -155.2454
1280.000000, 95.917, -155.1360
1315.000000, 95.975, -155.0737
1320.000000, 95.982, -155.0807
1340.000000, 95.995, -155.1030
1360.000000, 95.981, -155.0342
1380.000000, 95.958, -154.9637
1400.000000, 95.945, -154.8043
1430.000000, 95.938, -154.4250
1450.000000, 95.941, -154.1805
1475.000000, 95.958, -153.8407
1500.000000, 95.980, -153.4525
1525.000000, 95.997, -153.1001
1550.000000, 96.015, -152.7222
1575.000000, 96.029, -152.3982
1600.000000, 96.045, -152.1694
1625.000000, 96.059, -151.8522
1650.000000, 96.070, -151.4553
1675.000000, 96.078, -151.0614
1700.000000, 96.093, -150.6624
1725.000000, 96.116, -150.3794
1750.000000, 96.138, -150.1758
1775.000000, 96.142, -150.0167
1800.000000, 96.128, -149.7723
1825.000000, 96.100, -149.5125
1850.000000, 96.053, -149.1649
1875.000000, 96.001, -148.4464
1900.000000, 95.964, -147.2888
1925.000000, 96.011, -145.8270
1950.000000, 96.162, -144.7182
1975.000000, 96.327, -144.4136
2000.000000, 96.429, -144.4780
2030.000000, 96.487, -144.4509
2060.000000, 96.524, -144.2821
2090.000000, 96.553, -144.0349
2120.000000, 96.581, -143.7090
2140.000000, 96.603, -143.4726
2180.000000, 96.653, -142.9145
2200.000000, 96.679, -142.6454
2240.000000, 96.742, -142.0890
2270.000000, 96.805, -141.6516
2300.000000, 96.873, -141.3137
2330.000000, 96.947, -141.0450
2360.000000, 97.025, -140.8141
2400.000000, 97.114, -140.6184
2430.000000, 97.177, -140.4133
2470.000000, 97.290, -140.2888
2500.000000, 97.369, -140.4460
2540.000000, 97.442, -140.7332
2580.000000, 97.503, -141.0364
2620.000000, 97.561, -141.3592
2650.000000, 97.590, -141.6371
2690.000000, 97.585, -142.0438
2720.000000, 97.549, -142.3535
2760.000000, 97.480, -142.4574
2800.000000, 97.437, -142.1895
2850.000000, 97.478, -141.7256
2900.000000, 97.601, -141.7078
2950.000000, 97.722, -142.3923
3000.000000, 97.778, -143.5835
3040.000000, 97.778, -144.6857
3070.000000, 97.759, -145.5821
3110.000000, 97.712, -146.9238
3150.000000, 97.622, -148.5235
3200.000000, 97.412, -150.8255
3250.000000, 97.065, -153.1473
3300.000000, 96.572, -155.1525
3350.000000, 95.940, -156.5515
3400.000000, 95.189, -157.0091
3450.000000, 94.350, -156.3002
3500.000000, 93.468, -154.2049
3550.000000, 92.583, -150.5495
3600.000000, 91.752, -145.1095
3650.000000, 91.081, -137.5091
3700.000000, 90.733, -128.0265
3750.000000, 90.842, -117.7038
3820.000000, 91.813, -104.0890
3870.000000, 93.008, -96.6366
3950.000000, 95.362, -90.9562
4000.000000, 96.833, -91.5920
4060.000000, 98.315, -96.0300
4120.000000, 99.320, -102.9274
4180.000000, 99.832, -110.3586
4250.000000, 100.008, -118.1616
4310.000000, 99.963, -124.0700
4370.000000, 99.778, -129.5907
4440.000000, 99.396, -135.7011
4500.000000, 98.909, -140.8570
4550.000000, 98.347, -144.9872
4620.000000, 97.258, -149.9652
4680.000000, 96.056, -152.2871
4750.000000, 94.553, -151.6458
4820.000000, 93.239, -148.2628
4870.000000, 92.435, -145.0543
4940.000000, 91.422, -139.3005
5000.000000, 90.717, -132.6779
5080.000000, 90.248, -122.2632
5150.000000, 90.338, -113.3355
5220.000000, 90.829, -105.8549
5300.000000, 91.649, -100.4524
5380.000000, 92.424, -97.9139
5450.000000, 92.989, -96.8317
5520.000000, 93.498, -96.1945
5600.000000, 94.059, -95.9804
5700.000000, 94.767, -96.4155
5800.000000, 95.677, -97.9368
5900.000000, 96.806, -102.9895
6000.000000, 97.791, -113.6699
6080.000000, 98.013, -126.2522
6150.000000, 97.491, -138.4685
6220.000000, 96.259, -149.5792
6300.000000, 94.207, -158.6983
6400.000000, 91.207, -164.3960
6500.000000, 88.020, -164.4342
6600.000000, 84.787, -158.3206
6700.000000, 81.801, -145.1785
6800.000000, 79.738, -124.8182
6900.000000, 79.263, -105.8128
7000.000000, 79.520, -96.6029
7100.000000, 79.152, -95.1346
7200.000000, 77.512, -94.9967
7300.000000, 74.575, -89.9000
7400.000000, 72.312, -39.9293
7500.000000, 75.841, 44.7741
7620.000000, 81.327, 54.4210
7750.000000, 85.879, 54.5722
7880.000000, 89.569, 51.5198
8000.000000, 92.491, 45.4841
8120.000000, 94.880, 36.0275
8250.000000, 96.714, 22.4722
8380.000000, 97.569, 7.2372
8500.000000, 97.488, -5.8190
8620.000000, 96.812, -15.8991
8750.000000, 95.779, -23.3205
8850.000000, 94.893, -27.2831
9000.000000, 93.294, -30.8633
9120.000000, 91.722, -29.8333
9250.000000, 90.127, -22.3556
9380.000000, 89.409, -10.4621
9500.000000, 89.596, -1.0627
9620.000000, 90.153, 5.3093
9750.000000, 90.917, 9.5036
9880.000000, 91.707, 10.7983
10000.000000, 92.241, 9.6775
10150.000000, 92.496, 6.7681
10300.000000, 92.323, 3.4425
10440.000000, 91.711, 0.7750
10600.000000, 90.412, 0.8551
10750.000000, 88.943, 7.6878
10900.000000, 88.239, 23.0364
11060.000000, 89.513, 40.2616
11200.000000, 91.422, 44.5247
11380.000000, 92.623, 37.9550
11500.000000, 92.344, 34.0698
11720.000000, 91.339, 39.3513
11800.000000, 91.391, 44.0976
12060.000000, 93.114, 54.4432
12200.000000, 94.269, 54.9287
12410.000000, 95.750, 51.2081
12500.000000, 96.261, 48.3168
12650.000000, 96.856, 42.1912
12800.000000, 97.129, 35.4622
13150.000000, 97.092, 16.5338
13200.000000, 96.894, 13.2290
13400.000000, 95.252, 1.3537
13600.000000, 92.500, -1.9088
13800.000000, 90.045, 7.4662
14000.000000, 89.584, 21.0409
