* Measurement data measured by REW V5.31
* Source: Headset (DS by VECLAN.COM), MICROPHONE (Master Volume), L, volume: 0.720. Timing signal peak level -7.0 dBFS, measurement signal peak level -6.9 dBFS
* Format: 2M Log Swept Sine, 1 sweep at -7.0 dBFS using an acoustic timing reference
* Dated: Apr 24, 2024 4:57:10 PM
* REW Settings:
*  C-weighting compensation: Off
*  Target level: 85.0 dB
* Note: ; Delay -0.1039 ms (-36 mm, -1.4 in) using estimated IR delay relative to Acoustic reference played from HEADPHONE L with no timing offset
* Measurement: DCA Aeon 2 Closed L3
* Smoothing: 1/24 octave
* Frequency Step: 1/48 octave
* Start Frequency: 1.000 Hz
*
* Freq(Hz), SPL(dB), Phase(degrees)
1.000000, 67.579, -54.9651
1.015000, 67.339, -56.8949
1.030000, 67.101, -58.8296
1.044000, 66.881, -60.6267
1.060000, 66.633, -62.6531
1.075000, 66.404, -64.5101
1.090000, 66.180, -66.3133
1.106000, 65.944, -68.1938
1.120000, 65.738, -69.8570
1.138000, 65.472, -72.0783
1.150000, 65.293, -73.6269
1.172000, 64.965, -76.6441
1.180000, 64.845, -77.8107
1.206000, 64.455, -81.8704
1.220000, 64.245, -84.2455
1.241000, 63.932, -88.0842
1.250000, 63.798, -89.8364
1.265000, 63.576, -92.9040
1.280000, 63.355, -96.1566
1.315000, 62.849, -104.4212
1.320000, 62.778, -105.6698
1.340000, 62.495, -110.7910
1.360000, 62.219, -116.0434
1.380000, 61.949, -121.3555
1.400000, 61.686, -126.5826
1.430000, 61.306, -133.9845
1.450000, 61.063, -138.5037
1.475000, 60.766, -143.7752
1.500000, 60.458, -149.1387
1.525000, 60.136, -154.8868
1.550000, 59.804, -161.0529
1.575000, 59.471, -167.6245
1.600000, 59.143, -174.5461
1.625000, 58.828, 178.3241
1.650000, 58.532, 171.1031
1.675000, 58.264, 163.9019
1.700000, 58.030, 156.8047
1.725000, 57.838, 149.8549
1.750000, 57.695, 143.0496
1.775000, 57.609, 136.3220
1.800000, 57.588, 129.5594
1.825000, 57.638, 122.6252
1.850000, 57.766, 115.2350
1.875000, 57.974, 107.2771
1.900000, 58.254, 99.0429
1.925000, 58.597, 90.9459
1.950000, 58.994, 83.3218
1.975000, 59.437, 76.3412
2.000000, 59.916, 70.0418
2.030000, 60.525, 63.3683
2.060000, 61.158, 57.5118
2.090000, 61.798, 52.2935
2.120000, 62.430, 47.5469
2.140000, 62.840, 44.5734
2.180000, 63.614, 38.9133
2.200000, 63.979, 36.1818
2.240000, 64.699, 31.0224
2.270000, 65.248, 27.5007
2.300000, 65.804, 24.2938
2.330000, 66.364, 21.3800
2.360000, 66.923, 18.7234
2.400000, 67.660, 15.4620
2.430000, 68.202, 13.2029
2.470000, 68.901, 10.3774
2.500000, 69.403, 8.3548
2.540000, 70.035, 5.7333
2.580000, 70.622, 3.1505
2.620000, 71.169, 0.6227
2.650000, 71.558, -1.1846
2.690000, 72.050, -3.4661
2.720000, 72.401, -5.0826
2.760000, 72.849, -7.1214
2.800000, 73.276, -9.0870
2.850000, 73.786, -11.4273
2.900000, 74.275, -13.6763
2.950000, 74.744, -15.8801
3.000000, 75.186, -18.0807
3.040000, 75.519, -19.8076
3.070000, 75.757, -21.0669
3.110000, 76.061, -22.6923
3.150000, 76.350, -24.2552
3.200000, 76.696, -26.1559
3.250000, 77.026, -27.9909
3.300000, 77.342, -29.7719
3.350000, 77.642, -31.5374
3.400000, 77.923, -33.3275
3.450000, 78.187, -35.0978
3.500000, 78.434, -36.8116
3.550000, 78.668, -38.4545
3.600000, 78.889, -40.0472
3.650000, 79.098, -41.5814
3.700000, 79.296, -43.0798
3.750000, 79.480, -44.5753
3.820000, 79.716, -46.6819
3.870000, 79.869, -48.1490
3.950000, 80.095, -50.3699
4.000000, 80.225, -51.6863
4.060000, 80.370, -53.2034
4.120000, 80.501, -54.6930
4.180000, 80.617, -56.1666
4.250000, 80.739, -57.8561
4.310000, 80.832, -59.2184
4.370000, 80.917, -60.4866
4.440000, 81.005, -61.8934
4.500000, 81.070, -63.0497
4.550000, 81.116, -63.9818
4.620000, 81.174, -65.2520
4.680000, 81.218, -66.2717
4.750000, 81.266, -67.3541
4.820000, 81.310, -68.3507
4.870000, 81.338, -69.0162
4.940000, 81.373, -69.8859
5.000000, 81.402, -70.5914
5.080000, 81.442, -71.4631
5.150000, 81.481, -72.1419
5.220000, 81.522, -72.7612
5.300000, 81.572, -73.3960
5.380000, 81.626, -73.9771
5.450000, 81.679, -74.4790
5.520000, 81.740, -74.9574
5.600000, 81.818, -75.4720
5.700000, 81.927, -76.0884
5.800000, 82.044, -76.7216
5.900000, 82.169, -77.4239
6.000000, 82.304, -78.1633
6.080000, 82.416, -78.7905
6.150000, 82.514, -79.3604
6.220000, 82.610, -79.9770
6.300000, 82.717, -80.7281
6.400000, 82.849, -81.7246
6.500000, 82.974, -82.7633
6.600000, 83.087, -83.8177
6.700000, 83.187, -84.9160
6.800000, 83.275, -86.0342
6.900000, 83.350, -87.1255
7.000000, 83.412, -88.1534
7.100000, 83.459, -89.1484
7.200000, 83.495, -90.0840
7.300000, 83.523, -90.9175
7.400000, 83.544, -91.6230
7.500000, 83.559, -92.2267
7.620000, 83.577, -92.7980
7.750000, 83.609, -93.1958
7.880000, 83.654, -93.3755
8.000000, 83.716, -93.4018
8.120000, 83.808, -93.3356
8.250000, 83.940, -93.1638
8.380000, 84.102, -92.9889
8.500000, 84.281, -92.8974
8.620000, 84.484, -92.8644
8.750000, 84.720, -92.9474
8.850000, 84.906, -93.1266
9.000000, 85.192, -93.5529
9.120000, 85.416, -94.0117
9.250000, 85.645, -94.6248
9.380000, 85.858, -95.3269
9.500000, 86.040, -96.0016
9.620000, 86.203, -96.6730
9.750000, 86.360, -97.3875
9.880000, 86.495, -98.0382
10.000000, 86.600, -98.5490
10.150000, 86.710, -99.1129
10.300000, 86.813, -99.5303
10.440000, 86.909, -99.7888
10.600000, 87.031, -99.9945
10.750000, 87.165, -100.1415
10.900000, 87.317, -100.2908
11.060000, 87.497, -100.5708
11.200000, 87.666, -100.9525
11.380000, 87.879, -101.6200
11.500000, 88.013, -102.1888
11.720000, 88.229, -103.4315
11.800000, 88.294, -103.9382
12.060000, 88.450, -105.7140
12.200000, 88.495, -106.7037
12.410000, 88.512, -108.0924
12.500000, 88.502, -108.6140
12.650000, 88.464, -109.3698
12.800000, 88.407, -109.9575
13.150000, 88.247, -110.6395
13.200000, 88.225, -110.6682
13.400000, 88.153, -110.6075
13.600000, 88.107, -110.3375
13.800000, 88.093, -109.9739
14.000000, 88.107, -109.6107
14.300000, 88.168, -109.2019
14.500000, 88.223, -109.0146
14.750000, 88.303, -108.8734
15.000000, 88.394, -108.8372
15.250000, 88.505, -108.9778
15.500000, 88.628, -109.2913
15.750000, 88.752, -109.8204
16.000000, 88.865, -110.5892
16.250000, 88.948, -111.5961
16.500000, 88.989, -112.6937
16.750000, 88.981, -113.7316
17.000000, 88.938, -114.5541
17.250000, 88.881, -115.0823
17.500000, 88.841, -115.2595
17.750000, 88.846, -115.1774
18.000000, 88.912, -115.0186
18.250000, 89.035, -115.0081
18.500000, 89.193, -115.2760
18.750000, 89.355, -115.8534
19.000000, 89.494, -116.6796
19.250000, 89.596, -117.6360
19.500000, 89.659, -118.5443
19.750000, 89.695, -119.2827
20.000000, 89.724, -119.7906
20.299999, 89.777, -120.1660
20.600000, 89.868, -120.3988
20.900000, 89.993, -120.6700
21.200001, 90.130, -121.1086
21.400000, 90.216, -121.4892
21.799999, 90.356, -122.3283
22.000000, 90.409, -122.7236
22.400000, 90.497, -123.3911
22.700001, 90.563, -123.7567
23.000000, 90.635, -124.0609
23.299999, 90.712, -124.3720
23.600000, 90.787, -124.6827
24.000000, 90.878, -125.0453
24.299999, 90.947, -125.2574
24.700001, 91.057, -125.4633
25.000000, 91.161, -125.6467
25.400000, 91.317, -126.1106
25.799999, 91.462, -126.8721
26.200001, 91.560, -127.8427
26.500000, 91.595, -128.5725
26.900000, 91.597, -129.3494
27.200001, 91.583, -129.7076
27.600000, 91.571, -129.8586
28.000000, 91.595, -129.7265
28.500000, 91.701, -129.4963
29.000000, 91.874, -129.6118
29.500000, 92.044, -130.3387
30.000000, 92.128, -131.4454
30.400000, 92.113, -132.2168
30.700001, 92.072, -132.5142
31.100000, 92.031, -132.4664
31.500000, 92.058, -132.1224
32.000000, 92.206, -131.9261
32.500000, 92.390, -132.5500
33.000000, 92.488, -133.8073
33.500000, 92.463, -135.0007
34.000000, 92.386, -135.5457
34.500000, 92.369, -135.4908
35.000000, 92.457, -135.4031
35.500000, 92.601, -135.7875
36.000000, 92.722, -136.6438
36.500000, 92.786, -137.6292
37.000000, 92.815, -138.4393
37.500000, 92.852, -139.0610
38.200001, 92.930, -139.9277
38.700001, 92.974, -140.6353
39.500000, 92.996, -141.5925
40.000000, 93.005, -141.9606
40.599998, 93.031, -142.2579
41.200001, 93.068, -142.4527
41.799999, 93.124, -142.5800
42.500000, 93.222, -142.8753
43.099998, 93.294, -143.4167
43.700001, 93.314, -144.0728
44.400002, 93.277, -144.6326
45.000000, 93.225, -144.8078
45.500000, 93.188, -144.7302
46.200001, 93.185, -144.3843
46.799999, 93.253, -144.2350
47.500000, 93.349, -144.6671
48.200001, 93.372, -145.4049
48.700001, 93.360, -145.7293
49.400002, 93.390, -145.9227
50.000000, 93.470, -146.2877
50.799999, 93.549, -147.2744
51.500000, 93.550, -148.0612
52.200001, 93.547, -148.4387
53.000000, 93.592, -148.6965
53.799999, 93.647, -149.1128
54.500000, 93.671, -149.5098
55.200001, 93.680, -149.8369
56.000000, 93.681, -150.1735
57.000000, 93.662, -150.5374
58.000000, 93.646, -150.7908
59.000000, 93.655, -151.0928
60.000000, 93.668, -151.5864
60.799999, 93.656, -151.9138
61.500000, 93.651, -151.9964
62.200001, 93.668, -152.0081
63.000000, 93.692, -152.0037
64.000000, 93.736, -151.7976
65.000000, 93.817, -151.7615
66.000000, 93.861, -151.8846
67.000000, 93.917, -151.8047
68.000000, 94.014, -151.9866
69.000000, 94.101, -152.3570
70.000000, 94.217, -152.7515
71.000000, 94.350, -153.5410
72.000000, 94.424, -154.6042
73.000000, 94.438, -155.4680
74.000000, 94.430, -156.1049
75.000000, 94.409, -156.6557
76.199997, 94.359, -157.2769
77.500000, 94.312, -157.8732
78.800003, 94.253, -158.8196
80.000000, 94.146, -159.3203
81.199997, 94.103, -159.3293
82.500000, 94.111, -159.2698
83.800003, 94.152, -159.1136
85.000000, 94.207, -159.0474
86.199997, 94.253, -159.1205
87.500000, 94.293, -159.2345
88.500000, 94.332, -159.3821
90.000000, 94.399, -159.8077
91.199997, 94.445, -160.3208
92.500000, 94.470, -160.8798
93.800003, 94.480, -161.4055
95.000000, 94.460, -161.9466
96.199997, 94.408, -162.4078
97.500000, 94.340, -162.7792
98.800003, 94.272, -163.0877
100.000000, 94.204, -163.3080
101.500000, 94.112, -163.2708
103.000000, 94.050, -162.8882
104.400002, 94.016, -162.5545
106.000000, 93.970, -162.2618
107.500000, 93.908, -162.1030
109.000000, 93.840, -161.6440
110.599998, 93.859, -160.9542
112.000000, 93.923, -160.6013
113.800003, 94.019, -160.2797
115.000000, 94.074, -160.0955
117.199997, 94.185, -159.7147
118.000000, 94.231, -159.6482
120.599998, 94.363, -159.7847
122.000000, 94.428, -159.8930
124.099998, 94.545, -160.2229
125.000000, 94.587, -160.4841
126.500000, 94.640, -160.8318
128.000000, 94.702, -161.1044
131.500000, 94.814, -162.0717
132.000000, 94.822, -162.2133
134.000000, 94.837, -162.7211
136.000000, 94.844, -163.1947
138.000000, 94.859, -163.6034
140.000000, 94.883, -163.9427
143.000000, 94.935, -164.2555
145.000000, 94.970, -164.5529
147.500000, 94.995, -165.1541
150.000000, 94.981, -165.9319
152.500000, 94.946, -166.5078
155.000000, 94.902, -167.2042
157.500000, 94.819, -167.7195
160.000000, 94.759, -167.6887
162.500000, 94.709, -167.4972
165.000000, 94.639, -167.1412
167.500000, 94.600, -166.8850
170.000000, 94.580, -166.8567
172.500000, 94.558, -166.7941
175.000000, 94.539, -166.6617
177.500000, 94.525, -166.5165
180.000000, 94.517, -166.2661
182.500000, 94.516, -165.8625
185.000000, 94.520, -165.4000
187.500000, 94.511, -165.0121
190.000000, 94.500, -164.5565
192.500000, 94.528, -164.0422
195.000000, 94.594, -163.5751
197.500000, 94.671, -163.1205
200.000000, 94.761, -162.6850
203.000000, 94.893, -162.4928
206.000000, 95.023, -162.6376
209.000000, 95.118, -162.9383
212.000000, 95.184, -163.1743
214.000000, 95.231, -163.2866
218.000000, 95.327, -163.5338
220.000000, 95.377, -163.6414
224.000000, 95.483, -163.9240
227.000000, 95.558, -164.2136
230.000000, 95.620, -164.5651
233.000000, 95.671, -164.9212
236.000000, 95.721, -165.2842
240.000000, 95.796, -165.8185
243.000000, 95.849, -166.2112
247.000000, 95.895, -166.7504
250.000000, 95.924, -167.2101
254.000000, 95.962, -167.8528
258.000000, 95.994, -168.4740
262.000000, 96.007, -169.0311
265.000000, 96.008, -169.3440
269.000000, 96.010, -169.7404
272.000000, 96.011, -170.1010
276.000000, 96.001, -170.6069
280.000000, 95.979, -171.0215
285.000000, 95.944, -171.4057
290.000000, 95.926, -171.6876
295.000000, 95.901, -172.0748
300.000000, 95.856, -172.1830
304.000000, 95.844, -172.1108
307.000000, 95.860, -172.0707
311.000000, 95.899, -172.1652
315.000000, 95.920, -172.4553
320.000000, 95.913, -172.7248
325.000000, 95.937, -172.6223
330.000000, 96.028, -172.7386
335.000000, 96.110, -173.3926
340.000000, 96.130, -174.2129
345.000000, 96.110, -174.9838
350.000000, 96.069, -175.5933
355.000000, 96.020, -176.0858
360.000000, 95.969, -176.5004
365.000000, 95.916, -176.8710
370.000000, 95.865, -177.1904
375.000000, 95.815, -177.4971
382.000000, 95.739, -177.8858
387.000000, 95.680, -178.0642
395.000000, 95.588, -178.2412
400.000000, 95.539, -178.3487
406.000000, 95.475, -178.4986
412.000000, 95.405, -178.6320
418.000000, 95.335, -178.7068
425.000000, 95.255, -178.7726
431.000000, 95.192, -178.7255
437.000000, 95.134, -178.6824
444.000000, 95.064, -178.6544
450.000000, 95.000, -178.6686
455.000000, 94.943, -178.6643
462.000000, 94.862, -178.5832
468.000000, 94.792, -178.4144
475.000000, 94.714, -178.1624
482.000000, 94.643, -177.8753
487.000000, 94.599, -177.6492
494.000000, 94.547, -177.3006
500.000000, 94.512, -177.0034
508.000000, 94.470, -176.6362
515.000000, 94.431, -176.3411
522.000000, 94.389, -176.0287
530.000000, 94.343, -175.6453
538.000000, 94.298, -175.2396
545.000000, 94.260, -174.8221
552.000000, 94.228, -174.3439
560.000000, 94.198, -173.7411
570.000000, 94.172, -172.9256
580.000000, 94.175, -172.0947
590.000000, 94.214, -171.2653
600.000000, 94.283, -170.6862
608.000000, 94.335, -170.4750
615.000000, 94.360, -170.3735
622.000000, 94.371, -170.2117
630.000000, 94.381, -169.9172
640.000000, 94.407, -169.5397
650.000000, 94.442, -169.2513
660.000000, 94.479, -169.0533
670.000000, 94.513, -168.9341
680.000000, 94.542, -168.8900
690.000000, 94.567, -168.8492
700.000000, 94.582, -168.8391
710.000000, 94.588, -168.8620
720.000000, 94.588, -168.9048
730.000000, 94.581, -168.9554
740.000000, 94.565, -168.9724
750.000000, 94.540, -168.9240
762.000000, 94.499, -168.7873
775.000000, 94.455, -168.5876
788.000000, 94.411, -168.3620
800.000000, 94.371, -168.1159
812.000000, 94.330, -167.8037
825.000000, 94.289, -167.4528
838.000000, 94.256, -167.1248
850.000000, 94.226, -166.8192
862.000000, 94.195, -166.5022
875.000000, 94.152, -166.1664
885.000000, 94.110, -165.8864
900.000000, 94.035, -165.3221
912.000000, 93.982, -164.6392
925.000000, 93.968, -163.7365
938.000000, 94.010, -163.0112
950.000000, 94.062, -162.7019
962.000000, 94.083, -162.6558
975.000000, 94.043, -162.6384
988.000000, 93.936, -162.4187
1000.000000, 93.801, -161.7359
1015.000000, 93.685, -159.9651
1030.000000, 93.759, -157.7974
1044.000000, 93.975, -156.6127
1060.000000, 94.216, -156.5234
1075.000000, 94.343, -156.9861
1090.000000, 94.386, -157.4479
1106.000000, 94.383, -157.6940
1120.000000, 94.360, -157.6523
1138.000000, 94.329, -157.3428
1150.000000, 94.313, -157.0557
1172.000000, 94.306, -156.3787
1180.000000, 94.311, -156.1240
1206.000000, 94.345, -155.3089
1220.000000, 94.377, -154.8802
1241.000000, 94.435, -154.3524
1250.000000, 94.461, -154.1444
1265.000000, 94.505, -153.8359
1280.000000, 94.546, -153.5815
1315.000000, 94.614, -153.0736
1320.000000, 94.619, -152.9984
1340.000000, 94.629, -152.6841
1360.000000, 94.618, -152.3180
1380.000000, 94.608, -151.9818
1400.000000, 94.611, -151.6573
1430.000000, 94.607, -151.1473
1450.000000, 94.586, -150.7783
1475.000000, 94.550, -150.1743
1500.000000, 94.521, -149.4728
1525.000000, 94.499, -148.7098
1550.000000, 94.478, -147.8735
1575.000000, 94.457, -146.9316
1600.000000, 94.439, -145.8754
1625.000000, 94.437, -144.8047
1650.000000, 94.454, -143.7288
1675.000000, 94.482, -142.6829
1700.000000, 94.518, -141.6609
1725.000000, 94.560, -140.7120
1750.000000, 94.602, -139.7637
1775.000000, 94.645, -138.8037
1800.000000, 94.696, -137.8471
1825.000000, 94.753, -136.8679
1850.000000, 94.814, -135.8697
1875.000000, 94.879, -134.8574
1900.000000, 94.953, -133.8145
1925.000000, 95.043, -132.7958
1950.000000, 95.155, -131.8407
1975.000000, 95.290, -131.0194
2000.000000, 95.439, -130.4096
2030.000000, 95.607, -129.9863
2060.000000, 95.735, -129.7726
2090.000000, 95.818, -129.6262
2120.000000, 95.861, -129.4363
2140.000000, 95.873, -129.2235
2180.000000, 95.877, -128.4154
2200.000000, 95.881, -127.8424
2240.000000, 95.927, -126.4575
2270.000000, 96.003, -125.3586
2300.000000, 96.107, -124.3270
2330.000000, 96.228, -123.4354
2360.000000, 96.357, -122.6870
2400.000000, 96.529, -121.8376
2430.000000, 96.656, -121.2488
2470.000000, 96.824, -120.4589
2500.000000, 96.957, -119.8967
2540.000000, 97.156, -119.2470
2580.000000, 97.376, -118.7484
2620.000000, 97.610, -118.4947
2650.000000, 97.786, -118.4768
2690.000000, 98.017, -118.6527
2720.000000, 98.187, -118.9899
2760.000000, 98.408, -119.7437
2800.000000, 98.594, -120.9580
2850.000000, 98.717, -122.9095
2900.000000, 98.725, -124.7981
2950.000000, 98.674, -126.5475
3000.000000, 98.570, -128.3245
3040.000000, 98.435, -129.7762
3070.000000, 98.297, -130.8696
3110.000000, 98.058, -132.3032
3150.000000, 97.748, -133.6662
3200.000000, 97.229, -135.0917
3250.000000, 96.537, -135.6688
3300.000000, 95.721, -134.5275
3350.000000, 94.947, -131.1664
3400.000000, 94.419, -126.3264
3450.000000, 94.158, -121.4832
3500.000000, 94.039, -117.2776
3550.000000, 93.949, -113.5240
3600.000000, 93.843, -109.8167
3650.000000, 93.736, -105.7016
3700.000000, 93.676, -100.8501
3750.000000, 93.757, -95.2328
3820.000000, 94.240, -87.2173
3870.000000, 94.810, -82.3564
3950.000000, 95.931, -76.7655
4000.000000, 96.700, -74.5834
4060.000000, 97.647, -73.3768
4120.000000, 98.561, -73.7913
4180.000000, 99.345, -75.8904
4250.000000, 99.935, -79.9297
4310.000000, 100.088, -83.4886
4370.000000, 99.991, -85.9004
4440.000000, 99.803, -86.6530
4500.000000, 99.741, -86.2368
4550.000000, 99.774, -85.7123
4620.000000, 99.875, -85.2620
4680.000000, 99.953, -85.0144
4750.000000, 100.029, -84.6187
4820.000000, 100.115, -83.9915
4870.000000, 100.187, -83.4126
4940.000000, 100.316, -82.3691
5000.000000, 100.470, -81.2670
5080.000000, 100.771, -79.5667
5150.000000, 101.161, -78.1027
5220.000000, 101.693, -76.9094
5300.000000, 102.491, -76.4606
5380.000000, 103.470, -77.6119
5450.000000, 104.411, -80.6191
5520.000000, 105.310, -85.9798
5600.000000, 106.066, -95.0706
5700.000000, 106.218, -109.3478
5800.000000, 105.312, -122.8840
5900.000000, 103.640, -131.9423
6000.000000, 101.741, -135.6021
6080.000000, 100.350, -135.2826
6150.000000, 99.332, -133.5406
6220.000000, 98.513, -131.1624
6300.000000, 97.790, -128.1709
6400.000000, 97.136, -124.8201
6500.000000, 96.621, -122.5577
6600.000000, 96.033, -121.1910
6700.000000, 95.283, -119.5068
6800.000000, 94.470, -116.5259
6900.000000, 93.769, -112.2902
7000.000000, 93.269, -107.5364
7100.000000, 92.945, -103.0433
7200.000000, 92.722, -99.4602
7300.000000, 92.463, -97.1083
7400.000000, 91.993, -95.6898
7500.000000, 91.193, -93.9625
7620.000000, 89.771, -89.1481
7750.000000, 87.990, -74.7212
7880.000000, 87.894, -45.7445
8000.000000, 89.840, -28.5734
8120.000000, 91.566, -22.7426
8250.000000, 92.989, -18.0229
8380.000000, 94.509, -12.8738
8500.000000, 96.292, -9.0578
8620.000000, 98.491, -8.3169
8750.000000, 101.138, -13.4860
8850.000000, 103.102, -22.7440
9000.000000, 105.163, -45.7994
9120.000000, 105.323, -69.4600
9250.000000, 103.725, -93.7762
9380.000000, 100.836, -111.7852
9500.000000, 97.680, -122.5984
9620.000000, 94.388, -129.2308
9750.000000, 90.761, -133.0414
9880.000000, 87.120, -134.7334
10000.000000, 83.851, -136.8964
10150.000000, 80.592, -149.3363
10300.000000, 81.117, 176.2814
10440.000000, 85.063, 144.3589
10600.000000, 89.609, 119.4410
10750.000000, 92.452, 98.9203
10900.000000, 93.640, 81.2789
11060.000000, 93.745, 70.7654
11200.000000, 93.958, 69.2255
11380.000000, 95.201, 70.0577
11500.000000, 96.237, 68.2579
11720.000000, 97.582, 61.4963
11800.000000, 97.899, 58.9891
12060.000000, 98.468, 52.0323
12200.000000, 98.706, 50.4095
12410.000000, 99.705, 48.0978
12500.000000, 100.291, 45.1123
12650.000000, 101.017, 36.5130
12800.000000, 100.982, 25.1035
13150.000000, 97.810, 7.3909
