* Measurement data measured by REW V5.31
* Source: Headset (DS by VECLAN.COM), MICROPHONE (Master Volume), L, volume: 0.720. Timing signal peak level -21.6 dBFS, measurement signal peak level -21.3 dBFS
* Format: 2M Log Swept Sine, 1 sweep at -12.0 dBFS using an acoustic timing reference
* Dated: Apr 20, 2024 1:03:31 PM
* REW Settings:
*  C-weighting compensation: Off
*  Target level: 75.0 dB
* Note: ; Delay -0.0259 ms (-8.9 mm, -0.35 in) using estimated IR delay relative to Acoustic reference played from HEADPHONE L with no timing offset
* Measurement: Focal Clear OG L4
* Smoothing: 1/24 octave
* Frequency Step: 1/48 octave
* Start Frequency: 1.000 Hz
*
* Freq(Hz), SPL(dB), Phase(degrees)
1.000000, 80.542, 84.6385
1.015000, 80.530, 84.1131
1.030000, 80.512, 83.6147
1.044000, 80.490, 83.1750
1.060000, 80.459, 82.7038
1.075000, 80.424, 82.2932
1.090000, 80.384, 81.9115
1.106000, 80.337, 81.5236
1.120000, 80.297, 81.1768
1.138000, 80.248, 80.7033
1.150000, 80.217, 80.3686
1.172000, 80.161, 79.7095
1.180000, 80.140, 79.4508
1.206000, 80.068, 78.5664
1.220000, 80.024, 78.0632
1.241000, 79.949, 77.2755
1.250000, 79.913, 76.9265
1.265000, 79.846, 76.3307
1.280000, 79.770, 75.7190
1.315000, 79.551, 74.2412
1.320000, 79.515, 74.0257
1.340000, 79.352, 73.1570
1.360000, 79.161, 72.2849
1.380000, 78.941, 71.3796
1.400000, 78.687, 70.4752
1.430000, 78.237, 69.1744
1.450000, 77.887, 68.3619
1.475000, 77.373, 67.3996
1.500000, 76.741, 66.4169
1.525000, 75.988, 65.3585
1.550000, 75.132, 64.2027
1.575000, 74.198, 62.9090
1.600000, 73.208, 61.4385
1.625000, 72.185, 59.8047
1.650000, 71.152, 57.9767
1.675000, 70.133, 55.9166
1.700000, 69.152, 53.5771
1.725000, 68.232, 50.8984
1.750000, 67.397, 47.8041
1.775000, 66.673, 44.1769
1.800000, 66.084, 39.8669
1.825000, 65.649, 34.7078
1.850000, 65.371, 28.3109
1.875000, 65.227, 20.0247
1.900000, 65.198, 9.1261
1.925000, 65.270, -4.8268
1.950000, 65.430, -21.1673
1.975000, 65.664, -37.7244
2.000000, 65.958, -52.1838
2.030000, 66.374, -65.4611
2.060000, 66.834, -74.8972
2.090000, 67.318, -81.6343
2.120000, 67.803, -86.5770
2.140000, 68.115, -89.1794
2.180000, 68.692, -93.2794
2.200000, 68.956, -94.9593
2.240000, 69.494, -97.8774
2.270000, 69.932, -99.7992
2.300000, 70.395, -101.5260
2.330000, 70.877, -103.0726
2.360000, 71.369, -104.4514
2.400000, 72.024, -106.0951
2.430000, 72.503, -107.1650
2.470000, 73.110, -108.3818
2.500000, 73.531, -109.1473
2.540000, 74.030, -109.9897
2.580000, 74.450, -110.6961
2.620000, 74.803, -111.3780
2.650000, 75.032, -111.8676
2.690000, 75.298, -112.4823
2.720000, 75.472, -112.9050
2.760000, 75.678, -113.4026
2.800000, 75.861, -113.8531
2.850000, 76.073, -114.2804
2.900000, 76.280, -114.5320
2.950000, 76.488, -114.6166
3.000000, 76.677, -114.6260
3.040000, 76.811, -114.5917
3.070000, 76.903, -114.5368
3.110000, 77.017, -114.4246
3.150000, 77.124, -114.2672
3.200000, 77.255, -114.0362
3.250000, 77.389, -113.7446
3.300000, 77.529, -113.3731
3.350000, 77.671, -112.9151
3.400000, 77.812, -112.4160
3.450000, 77.950, -111.8802
3.500000, 78.089, -111.3169
3.550000, 78.230, -110.7460
3.600000, 78.377, -110.2115
3.650000, 78.530, -109.7059
3.700000, 78.690, -109.1983
3.750000, 78.857, -108.6650
3.820000, 79.100, -107.9401
3.870000, 79.277, -107.4580
3.950000, 79.563, -106.8017
4.000000, 79.742, -106.5118
4.060000, 79.957, -106.2677
4.120000, 80.176, -106.0781
4.180000, 80.397, -105.9423
4.250000, 80.653, -105.9001
4.310000, 80.865, -105.9560
4.370000, 81.068, -106.1182
4.440000, 81.291, -106.4697
4.500000, 81.475, -106.8575
4.550000, 81.623, -107.2277
4.620000, 81.818, -107.8374
4.680000, 81.971, -108.4236
4.750000, 82.131, -109.1808
4.820000, 82.271, -110.0632
4.870000, 82.361, -110.7632
4.940000, 82.471, -111.8060
5.000000, 82.548, -112.7472
5.080000, 82.622, -114.0320
5.150000, 82.659, -115.1838
5.220000, 82.673, -116.4403
5.300000, 82.659, -117.9761
5.380000, 82.609, -119.5329
5.450000, 82.531, -120.8722
5.520000, 82.421, -122.1750
5.600000, 82.260, -123.7258
5.700000, 82.000, -125.7404
5.800000, 81.657, -127.6343
5.900000, 81.221, -129.2939
6.000000, 80.701, -130.8445
6.080000, 80.214, -131.9758
6.150000, 79.722, -132.7380
6.220000, 79.151, -133.1812
6.300000, 78.377, -133.2227
6.400000, 77.245, -132.4915
6.500000, 76.054, -130.4507
6.600000, 74.922, -126.2450
6.700000, 73.806, -118.7504
6.800000, 72.772, -107.0744
6.900000, 72.181, -92.2015
7.000000, 72.433, -77.5497
7.100000, 73.547, -65.9435
7.200000, 75.065, -58.3253
7.300000, 76.519, -54.2021
7.400000, 77.757, -52.5344
7.500000, 78.864, -52.3883
7.620000, 80.038, -53.4615
7.750000, 81.072, -55.7807
7.880000, 81.867, -59.0277
8.000000, 82.431, -62.3941
8.120000, 82.861, -66.0243
8.250000, 83.174, -70.3824
8.380000, 83.339, -74.8402
8.500000, 83.369, -78.9568
8.620000, 83.281, -83.2525
8.750000, 83.051, -87.8448
8.850000, 82.777, -91.2087
9.000000, 82.210, -96.1979
9.120000, 81.603, -99.9355
9.250000, 80.782, -103.4232
9.380000, 79.786, -106.3295
9.500000, 78.694, -108.2011
9.620000, 77.386, -108.7021
9.750000, 75.792, -107.0862
9.880000, 74.301, -102.4032
10.000000, 73.201, -94.2915
10.150000, 72.336, -79.4345
10.300000, 72.436, -64.8663
10.440000, 73.448, -55.6924
10.600000, 74.877, -50.6932
10.750000, 75.985, -49.8788
10.900000, 76.883, -51.2172
11.060000, 77.594, -53.8813
11.200000, 78.014, -56.9544
11.380000, 78.347, -61.1244
11.500000, 78.460, -63.8831
11.720000, 78.510, -68.6303
11.800000, 78.496, -70.1351
12.060000, 78.408, -74.2661
12.200000, 78.388, -75.9881
12.410000, 78.436, -78.0379
12.500000, 78.498, -78.8258
12.650000, 78.658, -80.0801
12.800000, 78.874, -81.4187
13.150000, 79.501, -85.3782
13.200000, 79.592, -86.0403
13.400000, 79.932, -88.8523
13.600000, 80.214, -91.6939
13.800000, 80.423, -94.3627
14.000000, 80.573, -96.5829
14.300000, 80.746, -98.8417
14.500000, 80.889, -99.5081
14.750000, 81.169, -99.7002
15.000000, 81.590, -99.6950
15.250000, 82.125, -100.1859
15.500000, 82.685, -101.4667
15.750000, 83.181, -103.5546
16.000000, 83.540, -106.2512
16.250000, 83.725, -109.2262
16.500000, 83.716, -112.0523
16.750000, 83.519, -114.2820
17.000000, 83.164, -115.4569
17.250000, 82.715, -115.1690
17.500000, 82.276, -113.0524
17.750000, 82.003, -109.1735
18.000000, 82.031, -104.2531
18.250000, 82.411, -99.5681
18.500000, 83.059, -96.2794
18.750000, 83.825, -94.9040
19.000000, 84.569, -95.3666
19.250000, 85.197, -97.3041
19.500000, 85.659, -100.2128
19.750000, 85.935, -103.6489
20.000000, 86.023, -107.1773
20.299999, 85.905, -111.0059
20.600000, 85.608, -113.7928
20.900000, 85.239, -115.1169
21.200001, 84.937, -114.9713
21.400000, 84.837, -114.2990
21.799999, 84.926, -112.6673
22.000000, 85.085, -112.1556
22.400000, 85.490, -112.1988
22.700001, 85.785, -112.9679
23.000000, 86.043, -114.0836
23.299999, 86.265, -115.3834
23.600000, 86.453, -116.7713
24.000000, 86.634, -118.6487
24.299999, 86.697, -119.8964
24.700001, 86.696, -120.8443
25.000000, 86.697, -120.7933
25.400000, 86.836, -120.0634
25.799999, 87.183, -119.7791
26.200001, 87.573, -121.1001
26.500000, 87.730, -123.0838
26.900000, 87.606, -125.9560
27.200001, 87.256, -127.1870
27.600000, 86.653, -126.0410
28.000000, 86.358, -121.6856
28.500000, 86.846, -116.5885
29.000000, 87.617, -116.5704
29.500000, 87.868, -119.7140
30.000000, 87.549, -121.6430
30.400000, 87.252, -120.6501
30.700001, 87.238, -118.9609
31.100000, 87.533, -117.3438
31.500000, 87.933, -117.7287
32.000000, 88.176, -120.1396
32.500000, 88.068, -122.2641
33.000000, 87.890, -122.6272
33.500000, 87.905, -122.0491
34.000000, 88.055, -121.8854
34.500000, 88.175, -122.1412
35.000000, 88.267, -122.1360
35.500000, 88.422, -121.9086
36.000000, 88.624, -121.9281
36.500000, 88.792, -122.1423
37.000000, 88.941, -122.1386
37.500000, 89.153, -122.0620
38.200001, 89.504, -122.9840
38.700001, 89.619, -124.2990
39.500000, 89.530, -125.3043
40.000000, 89.505, -124.7206
40.599998, 89.639, -123.7556
41.200001, 89.869, -123.3491
41.799999, 90.113, -123.5689
42.500000, 90.371, -124.6221
43.099998, 90.486, -126.1058
43.700001, 90.448, -127.5146
44.400002, 90.283, -128.2278
45.000000, 90.150, -127.8999
45.500000, 90.098, -127.1414
46.200001, 90.176, -125.9098
46.799999, 90.375, -125.5134
47.500000, 90.595, -126.3920
48.200001, 90.643, -127.9569
48.700001, 90.587, -128.7904
49.400002, 90.508, -129.2137
50.000000, 90.526, -129.3170
50.799999, 90.618, -129.9845
51.500000, 90.647, -130.7732
52.200001, 90.680, -131.0119
53.000000, 90.864, -131.3328
53.799999, 91.019, -132.5042
54.500000, 91.053, -132.9650
55.200001, 91.235, -132.8320
56.000000, 91.553, -134.1609
57.000000, 91.543, -136.4861
58.000000, 91.575, -136.3812
59.000000, 91.755, -137.9603
60.000000, 91.562, -138.6683
60.799999, 91.625, -137.4254
61.500000, 91.865, -137.4177
62.200001, 92.011, -138.3864
63.000000, 92.050, -139.2346
64.000000, 92.118, -139.5444
65.000000, 92.244, -139.7791
66.000000, 92.379, -140.3413
67.000000, 92.451, -140.9513
68.000000, 92.524, -141.3101
69.000000, 92.612, -141.8446
70.000000, 92.684, -142.5617
71.000000, 92.735, -143.4111
72.000000, 92.772, -144.0894
73.000000, 92.874, -144.7205
74.000000, 92.975, -145.9615
75.000000, 92.946, -147.0916
76.199997, 92.900, -147.1302
77.500000, 92.970, -146.9116
78.800003, 93.045, -147.1722
80.000000, 93.037, -147.9974
81.199997, 92.895, -148.6915
82.500000, 92.841, -148.0057
83.800003, 93.094, -148.7746
85.000000, 93.167, -150.5844
86.199997, 93.230, -151.5876
87.500000, 93.320, -152.5495
88.500000, 93.396, -152.9740
90.000000, 93.537, -153.8904
91.199997, 93.568, -154.8047
92.500000, 93.553, -155.2837
93.800003, 93.565, -155.4931
95.000000, 93.567, -155.7916
96.199997, 93.542, -155.9289
97.500000, 93.546, -156.0845
98.800003, 93.565, -156.7885
100.000000, 93.542, -157.8366
101.500000, 93.481, -158.7942
103.000000, 93.491, -159.3993
104.400002, 93.549, -159.8221
106.000000, 93.658, -160.5268
107.500000, 93.726, -161.4292
109.000000, 93.820, -162.3641
110.599998, 93.857, -164.0178
112.000000, 93.807, -164.6873
113.800003, 93.687, -165.7042
115.000000, 93.495, -165.7340
117.199997, 93.249, -164.9431
118.000000, 93.225, -164.5108
120.599998, 93.600, -164.0062
122.000000, 93.774, -165.4784
124.099998, 93.707, -167.0960
125.000000, 93.582, -167.1669
126.500000, 93.388, -166.2319
128.000000, 93.337, -164.8216
131.500000, 93.518, -164.8750
132.000000, 93.536, -165.0550
134.000000, 93.608, -166.1399
136.000000, 93.649, -167.7383
138.000000, 93.634, -169.0699
140.000000, 93.640, -169.7048
143.000000, 93.594, -170.4381
145.000000, 93.546, -170.7206
147.500000, 93.548, -171.6580
150.000000, 93.525, -172.0289
152.500000, 93.545, -171.4939
155.000000, 93.506, -171.4374
157.500000, 93.446, -172.1964
160.000000, 93.500, -174.0802
162.500000, 93.578, -175.7634
165.000000, 93.615, -175.9581
167.500000, 93.571, -175.7562
170.000000, 93.466, -175.7277
172.500000, 93.373, -175.9187
175.000000, 93.317, -176.0409
177.500000, 93.276, -176.2841
180.000000, 93.214, -176.7160
182.500000, 93.142, -177.1781
185.000000, 93.063, -177.3419
187.500000, 93.020, -177.3557
190.000000, 92.970, -177.4806
192.500000, 92.948, -177.2749
195.000000, 92.980, -177.5300
197.500000, 92.995, -178.1956
200.000000, 92.961, -178.7058
203.000000, 92.880, -178.9416
206.000000, 92.767, -179.1631
209.000000, 92.701, -179.4654
212.000000, 92.688, -179.9073
214.000000, 92.682, -179.9642
218.000000, 92.642, -179.8443
220.000000, 92.574, -179.9308
224.000000, 92.474, 179.9277
227.000000, 92.472, 179.7767
230.000000, 92.453, 179.8172
233.000000, 92.403, 179.7054
236.000000, 92.360, 179.4240
240.000000, 92.303, 178.9145
243.000000, 92.257, 178.7988
247.000000, 92.209, 178.5712
250.000000, 92.169, 178.5605
254.000000, 92.131, 178.7210
258.000000, 92.099, 179.2916
262.000000, 92.049, 179.6841
265.000000, 91.970, 179.6099
269.000000, 91.874, 179.5550
272.000000, 91.882, 179.6924
276.000000, 91.913, 179.9718
280.000000, 91.887, 179.9607
285.000000, 91.841, 179.1598
290.000000, 91.723, 179.2521
295.000000, 91.612, 179.9500
300.000000, 91.621, 179.9757
304.000000, 91.660, -179.7328
307.000000, 91.650, -179.5965
311.000000, 91.552, -179.6645
315.000000, 91.443, -179.5655
320.000000, 91.403, -179.4493
325.000000, 91.437, -179.3981
330.000000, 91.505, -178.9595
335.000000, 91.484, -178.6472
340.000000, 91.432, -178.4581
345.000000, 91.317, -178.5973
350.000000, 91.215, -178.3452
355.000000, 91.199, -177.6517
360.000000, 91.216, -177.7256
365.000000, 91.235, -178.4355
370.000000, 91.207, -178.5323
375.000000, 91.189, -178.5705
382.000000, 91.198, -178.1230
387.000000, 91.098, -177.5095
395.000000, 91.007, -176.9974
400.000000, 91.025, -177.1657
406.000000, 91.022, -177.4767
412.000000, 90.983, -177.0748
418.000000, 90.959, -176.0936
425.000000, 90.922, -175.7635
431.000000, 90.897, -175.3083
437.000000, 90.906, -174.5860
444.000000, 90.871, -174.0297
450.000000, 90.862, -173.8510
455.000000, 90.860, -173.6801
462.000000, 90.846, -173.3083
468.000000, 90.860, -172.4576
475.000000, 90.867, -171.5459
482.000000, 90.822, -171.3910
487.000000, 90.804, -171.4006
494.000000, 90.793, -171.1079
500.000000, 90.779, -170.8156
508.000000, 90.783, -170.2842
515.000000, 90.811, -169.5772
522.000000, 90.869, -169.0686
530.000000, 90.882, -168.8492
538.000000, 90.868, -168.6686
545.000000, 90.841, -168.4396
552.000000, 90.850, -168.2290
560.000000, 90.884, -167.6655
570.000000, 90.920, -167.1848
580.000000, 90.989, -166.7746
590.000000, 91.018, -166.6341
600.000000, 90.977, -165.9549
608.000000, 90.979, -165.3574
615.000000, 90.970, -165.1105
622.000000, 90.953, -164.8858
630.000000, 90.952, -164.4683
640.000000, 91.012, -163.7139
650.000000, 91.089, -163.3023
660.000000, 91.110, -162.8374
670.000000, 91.105, -162.1612
680.000000, 91.119, -161.7240
690.000000, 91.105, -161.4519
700.000000, 91.099, -161.4888
710.000000, 91.223, -160.3367
720.000000, 91.298, -159.3245
730.000000, 91.330, -158.5055
740.000000, 91.432, -157.8687
750.000000, 91.559, -158.1921
762.000000, 91.621, -158.3797
775.000000, 91.634, -157.4407
788.000000, 91.707, -156.7649
800.000000, 91.778, -156.4136
812.000000, 91.818, -155.4459
825.000000, 91.897, -154.8044
838.000000, 91.957, -154.2958
850.000000, 92.041, -154.0360
862.000000, 92.166, -153.9936
875.000000, 92.280, -153.7808
885.000000, 92.367, -153.5408
900.000000, 92.467, -153.1546
912.000000, 92.547, -152.7810
925.000000, 92.633, -152.5986
938.000000, 92.692, -152.3908
950.000000, 92.709, -152.0919
962.000000, 92.769, -151.5970
975.000000, 92.893, -151.1222
988.000000, 92.994, -151.0896
1000.000000, 93.083, -150.9471
1015.000000, 93.228, -150.5986
1030.000000, 93.393, -150.5815
1044.000000, 93.518, -150.8875
1060.000000, 93.628, -151.1627
1075.000000, 93.698, -151.2292
1090.000000, 93.768, -151.3718
1106.000000, 93.836, -151.3669
1120.000000, 93.925, -151.1575
1138.000000, 94.103, -150.8249
1150.000000, 94.221, -150.8618
1172.000000, 94.354, -151.1035
1180.000000, 94.389, -151.1053
1206.000000, 94.606, -151.3169
1220.000000, 94.772, -151.8254
1241.000000, 94.899, -152.8410
1250.000000, 94.903, -153.1870
1265.000000, 94.925, -153.5334
1280.000000, 94.985, -153.5363
1315.000000, 95.198, -153.6770
1320.000000, 95.221, -153.8410
1340.000000, 95.291, -154.2986
1360.000000, 95.306, -154.7284
1380.000000, 95.292, -155.2436
1400.000000, 95.307, -155.6021
1430.000000, 95.359, -155.3114
1450.000000, 95.443, -154.7731
1475.000000, 95.622, -154.2979
1500.000000, 95.884, -154.5187
1525.000000, 96.121, -155.6028
1550.000000, 96.263, -156.8481
1575.000000, 96.328, -158.2814
1600.000000, 96.348, -159.7572
1625.000000, 96.324, -160.9427
1650.000000, 96.259, -162.0305
1675.000000, 96.124, -163.4433
1700.000000, 95.900, -164.6118
1725.000000, 95.565, -164.9565
1750.000000, 95.207, -163.6136
1775.000000, 95.091, -161.0040
1800.000000, 95.231, -159.1512
1825.000000, 95.386, -158.6428
1850.000000, 95.404, -158.4184
1875.000000, 95.428, -157.4078
1900.000000, 95.561, -156.5456
1925.000000, 95.675, -156.3919
1950.000000, 95.817, -156.1410
1975.000000, 96.008, -156.1908
2000.000000, 96.140, -156.8229
2030.000000, 96.195, -157.8608
2060.000000, 96.153, -158.5486
2090.000000, 96.063, -158.6996
2120.000000, 96.016, -158.4762
2140.000000, 95.982, -158.5911
2180.000000, 95.712, -158.3473
2200.000000, 95.559, -157.1261
2240.000000, 95.502, -153.5763
2270.000000, 95.670, -151.0513
2300.000000, 95.954, -149.1138
2330.000000, 96.291, -147.8259
2360.000000, 96.671, -147.0198
2400.000000, 97.139, -147.0907
2430.000000, 97.460, -147.4654
2470.000000, 97.750, -148.9381
2500.000000, 97.863, -149.6669
2540.000000, 98.018, -149.6994
2580.000000, 98.380, -149.5032
2620.000000, 98.744, -150.8825
2650.000000, 98.886, -152.2304
2690.000000, 99.021, -153.3144
2720.000000, 99.167, -154.0923
2760.000000, 99.351, -155.4906
2800.000000, 99.445, -157.1844
2850.000000, 99.483, -158.8386
2900.000000, 99.553, -159.5571
2950.000000, 99.743, -160.3552
3000.000000, 99.946, -161.8039
3040.000000, 100.078, -163.6656
3070.000000, 100.131, -165.2474
3110.000000, 100.135, -167.2615
3150.000000, 100.081, -168.7292
3200.000000, 100.022, -170.3586
3250.000000, 99.875, -171.8839
3300.000000, 99.708, -172.0407
3350.000000, 99.732, -171.9402
3400.000000, 99.857, -172.3683
3450.000000, 100.022, -173.4889
3500.000000, 100.118, -175.1581
3550.000000, 100.199, -176.8666
3600.000000, 100.252, -179.0945
3650.000000, 100.220, 178.7590
3700.000000, 100.190, 176.5745
3750.000000, 100.124, 174.1508
3820.000000, 99.976, 170.3708
3870.000000, 99.717, 166.6667
3950.000000, 98.646, 161.6700
4000.000000, 97.682, 161.2824
4060.000000, 96.592, 165.1710
4120.000000, 96.138, 172.4307
4180.000000, 96.402, 178.1724
4250.000000, 97.004, -179.5685
4310.000000, 97.301, 179.6162
4370.000000, 97.318, 178.7806
4440.000000, 97.234, 178.8398
4500.000000, 97.182, 179.4957
4550.000000, 97.191, -179.6532
4620.000000, 97.303, -178.6780
4680.000000, 97.434, -178.2121
4750.000000, 97.635, -177.9897
4820.000000, 97.833, -178.3264
4870.000000, 97.940, -178.6984
4940.000000, 98.067, -179.2953
5000.000000, 98.162, -179.8852
5080.000000, 98.273, 179.2383
5150.000000, 98.358, 178.4903
5220.000000, 98.436, 177.8725
5300.000000, 98.546, 177.4730
5380.000000, 98.732, 177.3675
5450.000000, 99.006, 177.1975
5520.000000, 99.378, 176.6440
5600.000000, 99.974, 175.5269
5700.000000, 101.049, 171.6783
5800.000000, 102.049, 162.0298
5900.000000, 102.121, 148.3105
6000.000000, 101.177, 136.0276
6080.000000, 100.016, 129.4321
6150.000000, 98.933, 125.8725
6220.000000, 97.874, 123.9782
6300.000000, 96.766, 123.5009
6400.000000, 95.623, 124.8780
6500.000000, 94.870, 127.1165
6600.000000, 94.401, 128.4483
6700.000000, 94.012, 128.6843
6800.000000, 93.625, 128.5682
6900.000000, 93.317, 128.3733
7000.000000, 93.129, 127.3831
7100.000000, 92.925, 124.9602
7200.000000, 92.578, 121.4176
7300.000000, 92.030, 117.2913
7400.000000, 91.251, 112.8685
7500.000000, 90.205, 108.5096
7620.000000, 88.511, 103.9771
7750.000000, 85.972, 102.5297
7880.000000, 82.897, 112.7659
8000.000000, 81.366, 133.4265
8120.000000, 81.593, 147.1337
8250.000000, 82.085, 151.9976
8380.000000, 81.907, 150.8881
8500.000000, 80.650, 149.5267
8620.000000, 78.399, 155.8769
8750.000000, 76.857, -170.5456
8850.000000, 78.880, -137.4232
9000.000000, 83.459, -127.6372
9120.000000, 86.071, -135.7153
9250.000000, 87.498, -149.9802
9380.000000, 87.467, -165.1154
9500.000000, 86.300, -176.1971
9620.000000, 84.334, 178.4445
9750.000000, 81.775, -177.4296
9880.000000, 79.831, -161.4697
10000.000000, 79.401, -143.5936
10150.000000, 80.392, -123.1023
10300.000000, 82.650, -108.1412
10440.000000, 85.257, -101.5702
10600.000000, 88.353, -101.8599
10750.000000, 90.972, -109.7296
10900.000000, 92.730, -123.9350
11060.000000, 93.421, -141.4651
11200.000000, 93.247, -156.0322
11380.000000, 92.266, -172.3011
11500.000000, 91.330, 178.6659
11720.000000, 89.338, 163.7860
11800.000000, 88.486, 158.3526
12060.000000, 84.826, 139.5488
12200.000000, 82.047, 128.0650
12410.000000, 77.350, 98.2899
12500.000000, 76.653, 13.9951
12650.000000, 78.149, -71.2017
12800.000000, 79.410, -96.2387
13150.000000, 76.047, -96.9739
