* Measurement data measured by REW V5.31
* Source: Headset (DS by VECLAN.COM), MICROPHONE (Master Volume), L, volume: 0.720. Timing signal peak level -17.9 dBFS, measurement signal peak level -15.3 dBFS
* Format: 2M Log Swept Sine, 1 sweep at -7.9 dBFS using an acoustic timing reference
* Dated: Apr 24, 2024 6:30:10 PM
* REW Settings:
*  C-weighting compensation: Off
*  Target level: 85.0 dB
* Note: ; Delay -0.2017 ms (-69 mm, -2.72 in) using estimated IR delay relative to Acoustic reference played from HEADPHONE R with no timing offset Clock adjustment: 17.8 ppm
* Measurement: HEDDphone 2 R1
* Smoothing: 1/24 octave
* Frequency Step: 1/48 octave
* Start Frequency: 1.000 Hz
*
* Freq(Hz), SPL(dB), Phase(degrees)
1.000000, 71.839, 32.8062
1.015000, 72.071, 31.7920
1.030000, 72.300, 30.7878
1.044000, 72.510, 29.8548
1.060000, 72.746, 28.7881
1.075000, 72.962, 27.7822
1.090000, 73.174, 26.7654
1.106000, 73.397, 25.6637
1.120000, 73.591, 24.6851
1.138000, 73.842, 23.4137
1.150000, 74.009, 22.5623
1.172000, 74.316, 20.9973
1.180000, 74.428, 20.4245
1.206000, 74.787, 18.5828
1.220000, 74.978, 17.6070
1.241000, 75.260, 16.1687
1.250000, 75.379, 15.5622
1.265000, 75.575, 14.5655
1.280000, 75.767, 13.5865
1.315000, 76.196, 11.3703
1.320000, 76.254, 11.0611
1.340000, 76.483, 9.8417
1.360000, 76.700, 8.6487
1.380000, 76.904, 7.4394
1.400000, 77.094, 6.2331
1.430000, 77.349, 4.4465
1.450000, 77.498, 3.2623
1.475000, 77.657, 1.7749
1.500000, 77.783, 0.2638
1.525000, 77.877, -1.2645
1.550000, 77.944, -2.7955
1.575000, 77.986, -4.3383
1.600000, 78.008, -5.9013
1.625000, 78.014, -7.4394
1.650000, 78.007, -8.9491
1.675000, 77.992, -10.4295
1.700000, 77.972, -11.8815
1.725000, 77.950, -13.3078
1.750000, 77.932, -14.7122
1.775000, 77.920, -16.1172
1.800000, 77.918, -17.5457
1.825000, 77.930, -18.9741
1.850000, 77.951, -20.4233
1.875000, 77.977, -21.9075
1.900000, 78.003, -23.4199
1.925000, 78.029, -24.9476
1.950000, 78.056, -26.4778
1.975000, 78.084, -28.0174
2.000000, 78.111, -29.5744
2.030000, 78.145, -31.4127
2.060000, 78.178, -33.2135
2.090000, 78.211, -34.9733
2.120000, 78.244, -36.6914
2.140000, 78.266, -37.8147
2.180000, 78.309, -40.0386
2.200000, 78.330, -41.1601
2.240000, 78.373, -43.4368
2.270000, 78.405, -45.1854
2.300000, 78.437, -46.9537
2.330000, 78.468, -48.7246
2.360000, 78.500, -50.4835
2.400000, 78.542, -52.8360
2.430000, 78.572, -54.5635
2.470000, 78.612, -56.7954
2.500000, 78.641, -58.4099
2.540000, 78.678, -60.4834
2.580000, 78.713, -62.5167
2.620000, 78.747, -64.6021
2.650000, 78.773, -66.1856
2.690000, 78.805, -68.3042
2.720000, 78.829, -69.8822
2.760000, 78.859, -71.9473
2.800000, 78.888, -73.9869
2.850000, 78.920, -76.4183
2.900000, 78.948, -78.6852
2.950000, 78.972, -80.8097
3.000000, 78.990, -82.9257
3.040000, 79.002, -84.6226
3.070000, 79.010, -85.8814
3.110000, 79.017, -87.5251
3.150000, 79.024, -89.1109
3.200000, 79.029, -91.0117
3.250000, 79.033, -92.7694
3.300000, 79.036, -94.3543
3.350000, 79.035, -95.8125
3.400000, 79.029, -97.2291
3.450000, 79.021, -98.5877
3.500000, 79.012, -99.8609
3.550000, 79.006, -101.0296
3.600000, 79.004, -102.0993
3.650000, 79.008, -103.0347
3.700000, 79.016, -103.8194
3.750000, 79.027, -104.4723
3.820000, 79.046, -105.2451
3.870000, 79.066, -105.7037
3.950000, 79.120, -106.2985
4.000000, 79.170, -106.6153
4.060000, 79.250, -106.9095
4.120000, 79.349, -107.0632
4.180000, 79.466, -107.1150
4.250000, 79.622, -107.1533
4.310000, 79.770, -107.2034
4.370000, 79.931, -107.3169
4.440000, 80.139, -107.5381
4.500000, 80.336, -107.7199
4.550000, 80.512, -107.8710
4.620000, 80.768, -108.1544
4.680000, 80.990, -108.4848
4.750000, 81.246, -109.0020
4.820000, 81.499, -109.6734
4.870000, 81.683, -110.2091
4.940000, 81.939, -111.0098
5.000000, 82.154, -111.7545
5.080000, 82.424, -112.8281
5.150000, 82.642, -113.8492
5.220000, 82.844, -114.9851
5.300000, 83.058, -116.3655
5.380000, 83.251, -117.7616
5.450000, 83.400, -118.9755
5.520000, 83.528, -120.1697
5.600000, 83.650, -121.5786
5.700000, 83.768, -123.3701
5.800000, 83.849, -125.0429
5.900000, 83.895, -126.5336
6.000000, 83.902, -127.9166
6.080000, 83.884, -128.9460
6.150000, 83.858, -129.7247
6.220000, 83.825, -130.3692
6.300000, 83.775, -130.9265
6.400000, 83.695, -131.4029
6.500000, 83.614, -131.6556
6.600000, 83.551, -131.6484
6.700000, 83.507, -131.3555
6.800000, 83.482, -130.8232
6.900000, 83.490, -130.1886
7.000000, 83.544, -129.5109
7.100000, 83.644, -128.7750
7.200000, 83.782, -128.0654
7.300000, 83.946, -127.5384
7.400000, 84.138, -127.2327
7.500000, 84.355, -127.1187
7.620000, 84.626, -127.2552
7.750000, 84.905, -127.8152
7.880000, 85.169, -128.7659
8.000000, 85.386, -129.8735
8.120000, 85.562, -131.1774
8.250000, 85.707, -132.8086
8.380000, 85.803, -134.5132
8.500000, 85.846, -136.0819
8.620000, 85.846, -137.6610
8.750000, 85.804, -139.2757
8.850000, 85.746, -140.3855
9.000000, 85.620, -141.8526
9.120000, 85.500, -142.8256
9.250000, 85.361, -143.6171
9.380000, 85.217, -144.1493
9.500000, 85.096, -144.4600
9.620000, 84.996, -144.5966
9.750000, 84.910, -144.5814
9.880000, 84.846, -144.5119
10.000000, 84.808, -144.4420
10.150000, 84.784, -144.4196
10.300000, 84.776, -144.5303
10.440000, 84.779, -144.7834
10.600000, 84.784, -145.2241
10.750000, 84.779, -145.7816
10.900000, 84.761, -146.4318
11.060000, 84.724, -147.1641
11.200000, 84.675, -147.8281
11.380000, 84.595, -148.5730
11.500000, 84.534, -148.9695
11.720000, 84.424, -149.4891
11.800000, 84.390, -149.6077
12.060000, 84.316, -149.8298
12.200000, 84.306, -149.9389
12.410000, 84.326, -150.1157
12.500000, 84.344, -150.2291
12.650000, 84.383, -150.4819
12.800000, 84.426, -150.8232
13.150000, 84.513, -152.0189
13.200000, 84.522, -152.2273
13.400000, 84.544, -153.1020
13.600000, 84.543, -153.9873
13.800000, 84.521, -154.8363
14.000000, 84.482, -155.6235
14.300000, 84.399, -156.7367
14.500000, 84.328, -157.3838
14.750000, 84.220, -158.0739
15.000000, 84.090, -158.5994
15.250000, 83.941, -158.9369
15.500000, 83.781, -158.9400
15.750000, 83.628, -158.5538
16.000000, 83.512, -157.8057
16.250000, 83.462, -156.9001
16.500000, 83.485, -156.0162
16.750000, 83.566, -155.3879
17.000000, 83.675, -155.1508
17.250000, 83.773, -155.3197
17.500000, 83.830, -155.7411
17.750000, 83.832, -156.2018
18.000000, 83.788, -156.5031
18.250000, 83.721, -156.5118
18.500000, 83.666, -156.1597
18.750000, 83.653, -155.5233
19.000000, 83.700, -154.7687
19.250000, 83.806, -154.1287
19.500000, 83.953, -153.7233
19.750000, 84.113, -153.6118
20.000000, 84.264, -153.7702
20.299999, 84.412, -154.2348
20.600000, 84.516, -154.8210
20.900000, 84.579, -155.4072
21.200001, 84.607, -155.9411
21.400000, 84.608, -156.2449
21.799999, 84.571, -156.6713
22.000000, 84.535, -156.7743
22.400000, 84.436, -156.7337
22.700001, 84.351, -156.4330
23.000000, 84.271, -155.9143
23.299999, 84.206, -155.2449
23.600000, 84.165, -154.4796
24.000000, 84.153, -153.4666
24.299999, 84.177, -152.8635
24.700001, 84.233, -152.4384
25.000000, 84.270, -152.4787
25.400000, 84.265, -152.9555
25.799999, 84.161, -153.5073
26.200001, 83.978, -153.5364
26.500000, 83.857, -152.9599
26.900000, 83.845, -151.6029
27.200001, 84.001, -150.7358
27.600000, 84.374, -150.7824
28.000000, 84.751, -152.6482
28.500000, 84.936, -156.7521
29.000000, 84.654, -160.6417
29.500000, 84.043, -161.7322
30.000000, 83.579, -158.7254
30.400000, 83.653, -154.7215
30.700001, 83.981, -152.2151
31.100000, 84.591, -150.6153
31.500000, 85.173, -151.0056
32.000000, 85.663, -153.1465
32.500000, 85.840, -155.7413
33.000000, 85.763, -157.6843
33.500000, 85.553, -158.4166
34.000000, 85.347, -157.9543
34.500000, 85.237, -156.8868
35.000000, 85.219, -155.9272
35.500000, 85.226, -155.4222
36.000000, 85.201, -155.2393
36.500000, 85.138, -155.0606
37.000000, 85.075, -154.6799
37.500000, 85.056, -154.1837
38.200001, 85.117, -153.7950
38.700001, 85.164, -153.8546
39.500000, 85.189, -153.7057
40.000000, 85.255, -153.1358
40.599998, 85.469, -152.5986
41.200001, 85.732, -153.0164
41.799999, 85.877, -154.1517
42.500000, 85.874, -155.1317
43.099998, 85.856, -155.3197
43.700001, 85.876, -155.4228
44.400002, 85.863, -155.7109
45.000000, 85.806, -155.6460
45.500000, 85.789, -155.2553
46.200001, 85.868, -154.7751
46.799999, 85.968, -154.8853
47.500000, 86.025, -155.3463
48.200001, 86.031, -155.6016
48.700001, 86.033, -155.5934
49.400002, 86.040, -155.3689
50.000000, 86.059, -154.9730
50.799999, 86.128, -154.4331
51.500000, 86.179, -154.2062
52.200001, 86.184, -153.8072
53.000000, 86.254, -152.9299
53.799999, 86.435, -152.7494
54.500000, 86.529, -153.3912
55.200001, 86.534, -153.8827
56.000000, 86.577, -153.9709
57.000000, 86.719, -154.4118
58.000000, 86.831, -155.1149
59.000000, 86.947, -155.7078
60.000000, 87.029, -156.3546
60.799999, 87.062, -156.5500
61.500000, 87.120, -156.4783
62.200001, 87.216, -156.5176
63.000000, 87.327, -156.9221
64.000000, 87.410, -157.7074
65.000000, 87.444, -158.5246
66.000000, 87.434, -159.2450
67.000000, 87.399, -159.7463
68.000000, 87.356, -160.0969
69.000000, 87.302, -160.3443
70.000000, 87.249, -160.5367
71.000000, 87.197, -160.7797
72.000000, 87.139, -160.9985
73.000000, 87.097, -161.0281
74.000000, 87.100, -160.8976
75.000000, 87.141, -160.7831
76.199997, 87.194, -160.5193
77.500000, 87.251, -160.2229
78.800003, 87.220, -159.5061
80.000000, 87.264, -158.8871
81.199997, 87.199, -158.9355
82.500000, 87.175, -158.3875
83.800003, 87.247, -158.8975
85.000000, 87.284, -159.6327
86.199997, 87.326, -160.1689
87.500000, 87.393, -160.3442
88.500000, 87.459, -160.3535
90.000000, 87.537, -160.3712
91.199997, 87.569, -160.4405
92.500000, 87.580, -160.6866
93.800003, 87.569, -160.9288
95.000000, 87.581, -161.1337
96.199997, 87.602, -161.3490
97.500000, 87.629, -161.5616
98.800003, 87.631, -161.6700
100.000000, 87.627, -161.5745
101.500000, 87.630, -161.4190
103.000000, 87.641, -161.3395
104.400002, 87.653, -161.3499
106.000000, 87.662, -161.2401
107.500000, 87.711, -160.9184
109.000000, 87.804, -161.0752
110.599998, 87.835, -161.6022
112.000000, 87.840, -161.8829
113.800003, 87.853, -161.8941
115.000000, 87.891, -161.7695
117.199997, 87.965, -161.8773
118.000000, 87.977, -162.0550
120.599998, 87.923, -162.5164
122.000000, 87.913, -162.5373
124.099998, 87.962, -162.5018
125.000000, 87.982, -162.6812
126.500000, 87.947, -162.9451
128.000000, 87.889, -162.7047
131.500000, 87.909, -162.4677
132.000000, 87.914, -162.5135
134.000000, 87.937, -162.6644
136.000000, 87.978, -162.8425
138.000000, 88.015, -163.0816
140.000000, 88.062, -163.1218
143.000000, 88.106, -162.9586
145.000000, 88.097, -162.8007
147.500000, 88.055, -162.8472
150.000000, 88.055, -162.6164
152.500000, 88.114, -162.5092
155.000000, 88.122, -162.6642
157.500000, 88.134, -163.0231
160.000000, 88.169, -163.2824
162.500000, 88.229, -163.1985
165.000000, 88.232, -163.2128
167.500000, 88.256, -162.7590
170.000000, 88.305, -162.6328
172.500000, 88.277, -162.6754
175.000000, 88.249, -162.7752
177.500000, 88.274, -162.8633
180.000000, 88.342, -162.7197
182.500000, 88.402, -162.6577
185.000000, 88.449, -162.5954
187.500000, 88.513, -162.2398
190.000000, 88.559, -161.8619
192.500000, 88.577, -161.6799
195.000000, 88.607, -161.7917
197.500000, 88.633, -161.8990
200.000000, 88.634, -161.7132
203.000000, 88.595, -161.5092
206.000000, 88.550, -161.4403
209.000000, 88.574, -161.7195
212.000000, 88.630, -162.2306
214.000000, 88.674, -162.3181
218.000000, 88.736, -162.0582
220.000000, 88.740, -161.8942
224.000000, 88.755, -161.8431
227.000000, 88.786, -162.0057
230.000000, 88.819, -162.0360
233.000000, 88.849, -161.9414
236.000000, 88.868, -161.8617
240.000000, 88.885, -161.9032
243.000000, 88.904, -162.0644
247.000000, 88.941, -162.1166
250.000000, 88.959, -162.1181
254.000000, 88.985, -162.2427
258.000000, 89.031, -162.4536
262.000000, 89.054, -162.4620
265.000000, 89.063, -162.4187
269.000000, 89.082, -162.5616
272.000000, 89.092, -162.7475
276.000000, 89.100, -162.8821
280.000000, 89.126, -162.9306
285.000000, 89.167, -163.1479
290.000000, 89.210, -163.1649
295.000000, 89.227, -163.2636
300.000000, 89.164, -163.6263
304.000000, 89.113, -163.5647
307.000000, 89.101, -163.4545
311.000000, 89.087, -163.3202
315.000000, 89.066, -163.1641
320.000000, 89.094, -163.1801
325.000000, 89.127, -163.5128
330.000000, 89.096, -163.6461
335.000000, 89.056, -163.7208
340.000000, 89.019, -163.8327
345.000000, 88.973, -163.9329
350.000000, 88.904, -163.9204
355.000000, 88.822, -164.0186
360.000000, 88.744, -163.9128
365.000000, 88.659, -163.3127
370.000000, 88.570, -162.5026
375.000000, 88.503, -161.6181
382.000000, 88.483, -160.2904
387.000000, 88.475, -159.5419
395.000000, 88.532, -158.2447
400.000000, 88.619, -157.3487
406.000000, 88.731, -156.4277
412.000000, 88.868, -156.0133
418.000000, 88.980, -155.9954
425.000000, 89.035, -156.0117
431.000000, 89.068, -155.8071
437.000000, 89.139, -155.5292
444.000000, 89.241, -155.2967
450.000000, 89.307, -155.3478
455.000000, 89.361, -155.4719
462.000000, 89.443, -155.7740
468.000000, 89.522, -156.2671
475.000000, 89.587, -157.2652
482.000000, 89.538, -158.5382
487.000000, 89.438, -159.2762
494.000000, 89.232, -159.8839
500.000000, 89.032, -159.8261
508.000000, 88.808, -158.9971
515.000000, 88.665, -157.9397
522.000000, 88.564, -156.8228
530.000000, 88.463, -155.5795
538.000000, 88.412, -154.1336
545.000000, 88.441, -152.6849
552.000000, 88.509, -151.4656
560.000000, 88.597, -150.5841
570.000000, 88.688, -149.6494
580.000000, 88.772, -148.6492
590.000000, 88.866, -147.7470
600.000000, 88.962, -147.2919
608.000000, 89.036, -146.9419
615.000000, 89.086, -146.5798
622.000000, 89.138, -146.2241
630.000000, 89.193, -146.0077
640.000000, 89.234, -146.0032
650.000000, 89.230, -145.7461
660.000000, 89.174, -144.8249
670.000000, 89.176, -143.1258
680.000000, 89.380, -141.4108
690.000000, 89.694, -141.2599
700.000000, 89.892, -142.5599
710.000000, 89.944, -143.8690
720.000000, 89.905, -144.7845
730.000000, 89.790, -145.6736
740.000000, 89.604, -146.2870
750.000000, 89.423, -146.4951
762.000000, 89.226, -146.9500
775.000000, 88.844, -147.5497
788.000000, 88.253, -147.0352
800.000000, 87.615, -145.9469
812.000000, 86.730, -142.5406
825.000000, 86.007, -131.7443
838.000000, 86.603, -119.5052
850.000000, 87.510, -115.0464
862.000000, 88.230, -112.2626
875.000000, 89.070, -110.3848
885.000000, 89.553, -110.6040
900.000000, 90.007, -109.4653
912.000000, 90.598, -107.3605
925.000000, 91.405, -107.2829
938.000000, 92.000, -109.3339
950.000000, 92.288, -111.3939
962.000000, 92.460, -112.3280
975.000000, 92.797, -112.1092
988.000000, 93.356, -112.8867
1000.000000, 93.831, -115.5973
1015.000000, 94.094, -120.1579
1030.000000, 94.045, -124.1519
1044.000000, 93.863, -126.9529
1060.000000, 93.536, -129.7282
1075.000000, 93.098, -131.4492
1090.000000, 92.612, -131.3249
1106.000000, 92.174, -128.8028
1120.000000, 92.104, -125.1467
1138.000000, 92.500, -122.0841
1150.000000, 92.821, -121.8612
1172.000000, 93.199, -123.4996
1180.000000, 93.234, -124.3551
1206.000000, 93.106, -125.8675
1220.000000, 93.074, -125.8869
1241.000000, 93.033, -126.6184
1250.000000, 92.969, -126.8137
1265.000000, 92.880, -126.7310
1280.000000, 92.797, -126.7781
1315.000000, 92.320, -125.2617
1320.000000, 92.273, -124.5355
1340.000000, 92.323, -121.3035
1360.000000, 92.628, -119.9482
1380.000000, 92.800, -120.5808
1400.000000, 92.811, -121.3198
1430.000000, 92.566, -121.1638
1450.000000, 92.475, -119.1604
1475.000000, 92.645, -117.7125
1500.000000, 92.792, -117.3101
1525.000000, 92.883, -117.8026
1550.000000, 92.746, -118.1667
1575.000000, 92.610, -117.2885
1600.000000, 92.578, -116.7894
1625.000000, 92.495, -116.7249
1650.000000, 92.313, -116.9344
1675.000000, 91.960, -116.4771
1700.000000, 91.595, -114.7088
1725.000000, 91.284, -112.2277
1750.000000, 91.054, -109.0225
1775.000000, 90.987, -105.3190
1800.000000, 91.076, -101.9942
1825.000000, 91.225, -99.4306
1850.000000, 91.386, -97.1838
1875.000000, 91.555, -95.7096
1900.000000, 91.618, -94.2070
1925.000000, 91.710, -92.2259
1950.000000, 91.881, -90.3303
1975.000000, 92.096, -89.0889
2000.000000, 92.250, -88.3453
2030.000000, 92.392, -87.6593
2060.000000, 92.413, -87.1099
2090.000000, 92.396, -86.0044
2120.000000, 92.414, -85.1497
2140.000000, 92.382, -84.8120
2180.000000, 92.144, -83.8455
2200.000000, 91.946, -82.7432
2240.000000, 91.617, -78.6236
2270.000000, 91.534, -75.1223
2300.000000, 91.481, -71.7184
2330.000000, 91.427, -67.6275
2360.000000, 91.566, -62.2834
2400.000000, 92.245, -56.3670
2430.000000, 92.808, -54.5349
2470.000000, 93.276, -53.2016
2500.000000, 93.549, -51.8479
2540.000000, 93.911, -50.0205
2580.000000, 94.259, -48.4092
2620.000000, 94.490, -46.6555
2650.000000, 94.755, -44.1718
2690.000000, 95.403, -41.8922
2720.000000, 95.868, -41.7323
2760.000000, 96.281, -42.2138
2800.000000, 96.610, -41.9482
2850.000000, 97.099, -42.2918
2900.000000, 97.439, -43.2282
2950.000000, 97.585, -44.8095
3000.000000, 97.492, -44.5113
3040.000000, 97.667, -42.6964
3070.000000, 97.976, -42.1674
3110.000000, 98.359, -43.3889
3150.000000, 98.446, -45.6357
3200.000000, 98.232, -46.5696
3250.000000, 98.243, -45.5479
3300.000000, 98.458, -45.8602
3350.000000, 98.483, -47.7272
3400.000000, 98.231, -48.3607
3450.000000, 98.150, -47.6416
3500.000000, 98.184, -47.9958
3550.000000, 98.087, -48.7193
3600.000000, 97.984, -49.1601
3650.000000, 97.865, -50.4590
3700.000000, 97.514, -52.1429
3750.000000, 96.966, -52.3884
3820.000000, 96.315, -51.0318
3870.000000, 95.873, -50.3064
3950.000000, 94.877, -46.5596
4000.000000, 94.591, -42.6923
4060.000000, 94.207, -40.6264
4120.000000, 93.530, -36.6919
4180.000000, 93.091, -30.2822
4250.000000, 92.907, -23.2720
4310.000000, 92.960, -15.7737
4370.000000, 93.553, -9.8025
4440.000000, 94.191, -7.7946
4500.000000, 94.335, -6.9929
4550.000000, 94.415, -5.0797
4620.000000, 94.729, -2.7552
4680.000000, 95.073, -1.5685
4750.000000, 95.585, -2.4689
4820.000000, 95.619, -6.6747
4870.000000, 95.217, -8.9009
4940.000000, 94.529, -9.5337
5000.000000, 93.966, -9.5073
5080.000000, 93.028, -8.3957
5150.000000, 92.171, -5.6850
5220.000000, 91.315, -1.5140
5300.000000, 90.580, 6.3039
5380.000000, 90.516, 13.1444
5450.000000, 90.404, 15.8298
5520.000000, 90.027, 18.9423
5600.000000, 89.577, 23.9639
5700.000000, 89.275, 31.9779
5800.000000, 89.708, 38.1808
5900.000000, 89.897, 36.9265
6000.000000, 88.909, 35.9515
6080.000000, 87.902, 39.5560
6150.000000, 87.204, 43.3928
6220.000000, 86.478, 47.4336
6300.000000, 85.663, 53.7510
6400.000000, 84.912, 62.0717
6500.000000, 84.177, 70.0108
6600.000000, 83.449, 79.3678
6700.000000, 82.901, 89.1546
6800.000000, 82.390, 98.9317
6900.000000, 81.908, 111.4476
7000.000000, 82.273, 127.2265
7100.000000, 83.379, 137.0983
7200.000000, 84.178, 141.6124
7300.000000, 84.696, 145.2761
7400.000000, 85.008, 147.8735
7500.000000, 85.145, 150.1471
7620.000000, 85.018, 151.4133
7750.000000, 84.133, 153.9378
7880.000000, 82.797, 163.3355
8000.000000, 82.186, 178.6738
8120.000000, 82.833, -166.8883
8250.000000, 83.968, -158.7430
8380.000000, 84.966, -155.0464
8500.000000, 85.561, -154.6971
8620.000000, 85.939, -155.2401
8750.000000, 86.306, -158.8527
8850.000000, 86.295, -164.7652
9000.000000, 85.153, -176.7212
9120.000000, 83.382, 173.9533
9250.000000, 80.848, 161.5136
9380.000000, 77.096, 147.4584
9500.000000, 73.006, 129.1283
9620.000000, 69.786, 96.4795
9750.000000, 69.278, 66.5517
9880.000000, 71.277, 59.7743
10000.000000, 73.429, 61.8842
10150.000000, 75.878, 68.9178
10300.000000, 78.490, 78.4957
10440.000000, 81.122, 84.9073
10600.000000, 83.838, 86.6755
10750.000000, 85.918, 83.4044
10900.000000, 87.065, 74.4112
11060.000000, 86.174, 62.9740
11200.000000, 83.375, 65.0776
11380.000000, 81.057, 113.0270
11500.000000, 82.861, 138.8638
11720.000000, 86.602, 150.0146
11800.000000, 87.507, 151.2050
12060.000000, 89.592, 156.2734
12200.000000, 90.697, 159.9441
12410.000000, 92.694, 163.6425
12500.000000, 93.596, 163.3368
12650.000000, 94.840, 159.6551
12800.000000, 95.465, 153.1002
13150.000000, 94.172, 139.7466
13200.000000, 93.783, 138.9675
13400.000000, 92.059, 138.7607
