* Measurement data measured by REW V5.31.3
* Source: Headset (DS by VECLAN.COM), MICROPHONE (Master Volume), L, volume: 0.720. Timing signal peak level -10.7 dBFS, measurement signal peak level -7.2 dBFS
* Format: 4M Log Swept Sine, 1 sweep at -12.0 dBFS using an acoustic timing reference
* Dated: Aug 23, 2024 3:12:37 PM
* REW Settings:
*  C-weighting compensation: Off
*  Target level: 85.0 dB
* Note: ; Delay -0.0589 ms (-20 mm, -0.8 in) using estimated IR delay relative to Acoustic reference played from SPEAKER R with no timing offset Clock adjustment: -24.0 ppm
* Measurement: Hifiman Ananda V3 R1
* Smoothing: 1/24 octave
* Frequency Step: 1/48 octave
* Start Frequency: 1.000 Hz
*
* Freq(Hz), SPL(dB), Phase(degrees)
1.000000, 61.824, 4.3254
1.015000, 61.824, 3.7579
1.030000, 61.828, 3.1633
1.044000, 61.836, 2.5846
1.060000, 61.850, 1.8962
1.075000, 61.868, 1.2262
1.090000, 61.892, 0.5352
1.106000, 61.923, -0.2145
1.120000, 61.956, -0.8660
1.138000, 62.006, -1.6880
1.150000, 62.044, -2.2266
1.172000, 62.121, -3.2019
1.180000, 62.152, -3.5567
1.206000, 62.260, -4.6969
1.220000, 62.323, -5.3051
1.241000, 62.423, -6.2126
1.250000, 62.468, -6.6005
1.265000, 62.544, -7.2464
1.280000, 62.624, -7.8924
1.315000, 62.816, -9.4037
1.320000, 62.844, -9.6203
1.340000, 62.958, -10.4889
1.360000, 63.073, -11.3600
1.380000, 63.189, -12.2714
1.400000, 63.304, -13.1995
1.430000, 63.474, -14.5931
1.450000, 63.585, -15.5191
1.475000, 63.720, -16.6512
1.500000, 63.855, -17.7079
1.525000, 63.990, -18.6735
1.550000, 64.126, -19.5560
1.575000, 64.264, -20.3827
1.600000, 64.403, -21.1767
1.625000, 64.545, -21.9164
1.650000, 64.688, -22.6099
1.675000, 64.834, -23.2642
1.700000, 64.983, -23.8858
1.725000, 65.135, -24.4801
1.750000, 65.290, -25.0515
1.775000, 65.448, -25.6181
1.800000, 65.611, -26.1958
1.825000, 65.777, -26.7552
1.850000, 65.949, -27.2817
1.875000, 66.126, -27.7560
1.900000, 66.310, -28.1771
1.925000, 66.498, -28.5516
1.950000, 66.691, -28.8862
1.975000, 66.886, -29.1983
2.000000, 67.084, -29.5044
2.030000, 67.323, -29.8418
2.060000, 67.562, -30.1552
2.090000, 67.800, -30.4513
2.120000, 68.036, -30.7359
2.140000, 68.190, -30.9217
2.180000, 68.492, -31.3072
2.200000, 68.640, -31.5139
2.240000, 68.930, -31.8986
2.270000, 69.146, -32.1539
2.300000, 69.360, -32.3821
2.330000, 69.572, -32.5863
2.360000, 69.783, -32.7701
2.400000, 70.060, -33.0260
2.430000, 70.265, -33.2063
2.470000, 70.533, -33.4286
2.500000, 70.731, -33.5845
2.540000, 70.990, -33.7814
2.580000, 71.243, -33.9814
2.620000, 71.490, -34.1953
2.650000, 71.671, -34.3417
2.690000, 71.909, -34.5176
2.720000, 72.083, -34.6342
2.760000, 72.312, -34.7674
2.800000, 72.536, -34.9129
2.850000, 72.811, -35.0665
2.900000, 73.079, -35.1832
2.950000, 73.341, -35.2667
3.000000, 73.595, -35.3525
3.040000, 73.792, -35.4135
3.070000, 73.937, -35.4475
3.110000, 74.127, -35.4755
3.150000, 74.314, -35.4820
3.200000, 74.545, -35.4871
3.250000, 74.772, -35.4676
3.300000, 74.997, -35.4084
3.350000, 75.219, -35.3128
3.400000, 75.436, -35.2126
3.450000, 75.649, -35.0963
3.500000, 75.859, -34.9554
3.550000, 76.069, -34.7904
3.600000, 76.279, -34.6289
3.650000, 76.490, -34.4550
3.700000, 76.703, -34.2526
3.750000, 76.915, -34.0195
3.820000, 77.212, -33.6849
3.870000, 77.425, -33.4399
3.950000, 77.768, -33.0495
4.000000, 77.985, -32.8379
4.060000, 78.248, -32.5967
4.120000, 78.515, -32.3358
4.180000, 78.784, -32.0699
4.250000, 79.101, -31.8036
4.310000, 79.373, -31.6095
4.370000, 79.645, -31.4629
4.440000, 79.965, -31.3620
4.500000, 80.240, -31.2859
4.550000, 80.470, -31.2314
4.620000, 80.792, -31.2103
4.680000, 81.066, -31.2423
4.750000, 81.381, -31.3418
4.820000, 81.693, -31.5158
4.870000, 81.914, -31.6622
4.940000, 82.220, -31.8895
5.000000, 82.479, -32.1251
5.080000, 82.816, -32.4986
5.150000, 83.103, -32.8716
5.220000, 83.383, -33.2975
5.300000, 83.695, -33.8175
5.380000, 83.997, -34.3602
5.450000, 84.254, -34.8693
5.520000, 84.501, -35.3893
5.600000, 84.774, -36.0101
5.700000, 85.100, -36.8130
5.800000, 85.413, -37.6101
5.900000, 85.713, -38.4018
6.000000, 85.999, -39.1845
6.080000, 86.220, -39.8073
6.150000, 86.408, -40.3303
6.220000, 86.592, -40.8475
6.300000, 86.798, -41.4154
6.400000, 87.048, -42.0998
6.500000, 87.292, -42.7656
6.600000, 87.534, -43.4016
6.700000, 87.774, -44.0173
6.800000, 88.013, -44.6067
6.900000, 88.250, -45.1934
7.000000, 88.486, -45.7712
7.100000, 88.722, -46.3442
7.200000, 88.958, -46.9129
7.300000, 89.193, -47.5005
7.400000, 89.430, -48.1003
7.500000, 89.666, -48.7137
7.620000, 89.948, -49.4697
7.750000, 90.249, -50.3264
7.880000, 90.545, -51.2239
8.000000, 90.812, -52.0705
8.120000, 91.074, -52.9430
8.250000, 91.352, -53.9095
8.380000, 91.622, -54.8814
8.500000, 91.865, -55.7822
8.620000, 92.102, -56.6806
8.750000, 92.355, -57.6466
8.850000, 92.547, -58.3826
9.000000, 92.831, -59.4692
9.120000, 93.057, -60.3365
9.250000, 93.303, -61.2731
9.380000, 93.549, -62.2056
9.500000, 93.776, -63.0870
9.620000, 94.006, -63.9825
9.750000, 94.253, -64.9745
9.880000, 94.494, -66.0029
10.000000, 94.708, -66.9822
10.150000, 94.963, -68.2825
10.300000, 95.208, -69.6371
10.440000, 95.427, -70.9502
10.600000, 95.668, -72.5038
10.750000, 95.886, -74.0127
10.900000, 96.096, -75.5633
11.060000, 96.309, -77.2845
11.200000, 96.487, -78.8631
11.380000, 96.700, -80.9081
11.500000, 96.831, -82.2773
11.720000, 97.051, -84.7802
11.800000, 97.126, -85.6827
12.060000, 97.352, -88.6006
12.200000, 97.466, -90.1744
12.410000, 97.626, -92.4878
12.500000, 97.691, -93.4592
12.650000, 97.792, -95.0538
12.800000, 97.889, -96.6204
13.150000, 98.101, -100.2361
13.200000, 98.131, -100.7555
13.400000, 98.247, -102.8254
13.600000, 98.359, -104.8947
13.800000, 98.463, -106.9749
14.000000, 98.556, -109.0735
14.300000, 98.671, -112.3082
14.500000, 98.725, -114.4576
14.750000, 98.765, -117.0901
15.000000, 98.779, -119.6215
15.250000, 98.774, -122.0520
15.500000, 98.756, -124.3096
15.750000, 98.732, -126.3957
16.000000, 98.709, -128.3442
16.250000, 98.692, -130.2567
16.500000, 98.679, -132.1404
16.750000, 98.662, -134.0312
17.000000, 98.632, -135.9311
17.250000, 98.582, -137.8349
17.500000, 98.506, -139.6515
17.750000, 98.409, -141.3082
18.000000, 98.298, -142.7645
18.250000, 98.189, -144.0388
18.500000, 98.092, -145.1433
18.750000, 98.013, -146.1486
19.000000, 97.953, -147.1369
19.250000, 97.902, -148.1993
19.500000, 97.845, -149.3150
19.750000, 97.770, -150.4465
20.000000, 97.673, -151.5201
20.299999, 97.533, -152.6556
20.600000, 97.386, -153.5115
20.900000, 97.256, -154.1031
21.200001, 97.161, -154.5659
21.400000, 97.116, -154.8768
21.799999, 97.054, -155.6300
22.000000, 97.024, -156.0885
22.400000, 96.943, -157.1070
22.700001, 96.864, -157.8269
23.000000, 96.781, -158.4543
23.299999, 96.703, -159.0291
23.600000, 96.635, -159.6081
24.000000, 96.535, -160.4675
24.299999, 96.431, -161.1451
24.700001, 96.238, -161.8191
25.000000, 96.064, -161.9515
25.400000, 95.850, -161.5128
25.799999, 95.721, -160.5424
26.200001, 95.701, -159.5215
26.500000, 95.733, -158.9605
26.900000, 95.791, -158.5372
27.200001, 95.827, -158.3893
27.600000, 95.862, -158.2702
28.000000, 95.894, -158.1806
28.500000, 95.936, -158.2036
29.000000, 95.959, -158.3689
29.500000, 95.953, -158.5209
30.000000, 95.948, -158.5591
30.400000, 95.966, -158.6261
30.700001, 95.991, -158.7712
31.100000, 96.026, -159.1417
31.500000, 96.049, -159.6926
32.000000, 96.055, -160.5133
32.500000, 96.043, -161.4064
33.000000, 96.016, -162.3254
33.500000, 95.978, -163.2287
34.000000, 95.944, -164.0521
34.500000, 95.927, -164.8802
35.000000, 95.909, -165.8393
35.500000, 95.852, -166.8537
36.000000, 95.746, -167.6032
36.500000, 95.636, -167.8753
37.000000, 95.578, -167.8211
37.500000, 95.574, -167.8472
38.200001, 95.565, -168.3258
38.700001, 95.505, -168.7451
39.500000, 95.351, -168.9467
40.000000, 95.266, -168.7351
40.599998, 95.212, -168.3939
41.200001, 95.206, -168.2677
41.799999, 95.197, -168.5202
42.500000, 95.123, -168.9492
43.099998, 95.031, -169.0116
43.700001, 94.968, -168.7739
44.400002, 94.937, -168.4082
45.000000, 94.930, -168.0369
45.500000, 94.945, -167.6642
46.200001, 94.998, -167.2496
46.799999, 95.042, -167.0809
47.500000, 95.067, -166.8935
48.200001, 95.093, -166.6559
48.700001, 95.119, -166.5468
49.400002, 95.156, -166.5581
50.000000, 95.185, -166.7306
50.799999, 95.211, -167.1759
51.500000, 95.220, -167.6393
52.200001, 95.241, -168.0700
53.000000, 95.289, -168.6268
53.799999, 95.329, -169.2664
54.500000, 95.350, -169.6871
55.200001, 95.365, -169.9152
56.000000, 95.380, -169.9243
57.000000, 95.422, -169.7222
58.000000, 95.461, -169.9048
59.000000, 95.401, -170.4741
60.000000, 95.219, -170.7059
60.799999, 95.098, -170.1146
61.500000, 95.140, -169.4686
62.200001, 95.279, -169.6725
63.000000, 95.362, -171.0093
64.000000, 95.226, -172.2496
65.000000, 95.088, -171.7189
66.000000, 95.117, -170.9872
67.000000, 95.054, -170.4051
68.000000, 95.044, -168.6382
69.000000, 95.208, -168.0625
70.000000, 95.189, -168.2829
71.000000, 95.249, -168.2040
72.000000, 95.301, -169.6490
73.000000, 95.158, -170.6402
74.000000, 95.144, -170.8132
75.000000, 95.178, -171.4752
76.199997, 95.191, -172.1743
77.500000, 95.093, -173.0216
78.800003, 94.861, -172.3310
80.000000, 94.826, -170.4926
81.199997, 95.024, -169.7741
82.500000, 95.148, -170.8519
83.800003, 95.121, -171.9686
85.000000, 95.031, -172.4885
86.199997, 94.978, -172.2516
87.500000, 94.999, -171.9141
88.500000, 95.011, -171.8397
90.000000, 94.987, -171.7180
91.199997, 94.971, -171.7042
92.500000, 94.930, -171.9749
93.800003, 94.873, -172.1210
95.000000, 94.869, -172.2287
96.199997, 94.890, -172.4018
97.500000, 94.907, -172.4049
98.800003, 94.951, -172.0172
100.000000, 95.025, -172.0022
101.500000, 94.969, -172.5369
103.000000, 94.814, -172.4067
104.400002, 94.705, -171.8083
106.000000, 94.739, -171.2014
107.500000, 94.797, -171.4239
109.000000, 94.831, -171.5048
110.599998, 94.884, -171.7077
112.000000, 94.909, -171.9354
113.800003, 94.968, -171.8922
115.000000, 95.022, -171.7570
117.199997, 95.137, -170.8325
118.000000, 95.184, -170.3891
120.599998, 95.256, -169.8232
122.000000, 95.175, -169.9144
124.099998, 95.136, -170.1533
125.000000, 95.138, -170.6965
126.500000, 95.106, -171.2992
128.000000, 95.097, -171.2350
131.500000, 95.124, -170.2419
132.000000, 95.133, -170.0934
134.000000, 95.184, -170.0731
136.000000, 95.219, -170.5644
138.000000, 95.265, -170.9294
140.000000, 95.310, -171.1846
143.000000, 95.285, -171.3604
145.000000, 95.277, -171.4232
147.500000, 95.326, -171.4174
150.000000, 95.429, -171.4363
152.500000, 95.501, -171.7417
155.000000, 95.502, -171.8048
157.500000, 95.529, -171.7584
160.000000, 95.517, -172.2733
162.500000, 95.548, -172.5128
165.000000, 95.726, -172.7515
167.500000, 95.860, -173.0145
170.000000, 95.794, -173.0884
172.500000, 95.670, -173.2325
175.000000, 95.676, -174.0944
177.500000, 95.785, -175.2748
180.000000, 95.865, -175.7986
182.500000, 95.924, -175.5064
185.000000, 95.971, -175.5079
187.500000, 95.981, -176.2256
190.000000, 95.941, -177.2148
192.500000, 95.923, -177.8010
195.000000, 95.881, -178.3717
197.500000, 95.742, -179.0650
200.000000, 95.591, -179.6243
203.000000, 95.483, 179.6580
206.000000, 95.371, 179.2375
209.000000, 95.252, 178.6123
212.000000, 95.143, 177.5898
214.000000, 95.082, 177.1959
218.000000, 94.866, 176.9869
220.000000, 94.665, 177.0395
224.000000, 94.287, 177.4831
227.000000, 94.096, 178.2162
230.000000, 93.897, 179.2973
233.000000, 93.679, -179.9537
236.000000, 93.486, -179.3056
240.000000, 93.301, -177.7773
243.000000, 93.177, -176.4484
247.000000, 93.121, -174.4264
250.000000, 93.187, -173.0743
254.000000, 93.283, -171.6474
258.000000, 93.264, -170.4130
262.000000, 93.195, -169.1181
265.000000, 93.268, -168.4684
269.000000, 93.480, -167.4531
272.000000, 93.556, -166.2440
276.000000, 93.590, -164.9818
280.000000, 93.693, -164.2462
285.000000, 93.816, -163.3155
290.000000, 93.912, -162.8970
295.000000, 94.027, -162.7060
300.000000, 94.216, -162.9024
304.000000, 94.365, -162.5129
307.000000, 94.445, -161.8512
311.000000, 94.497, -160.8488
315.000000, 94.500, -160.5526
320.000000, 94.538, -160.9006
325.000000, 94.656, -161.2606
330.000000, 94.799, -161.8023
335.000000, 94.907, -161.3706
340.000000, 94.846, -160.2180
345.000000, 94.886, -160.2587
350.000000, 95.038, -159.8015
355.000000, 95.185, -159.6254
360.000000, 95.237, -159.3760
365.000000, 95.297, -159.3290
370.000000, 95.415, -159.1581
375.000000, 95.509, -158.8063
382.000000, 95.642, -159.6213
387.000000, 95.723, -159.7332
395.000000, 95.877, -159.6399
400.000000, 95.965, -160.2344
406.000000, 96.022, -160.9508
412.000000, 96.046, -160.9035
418.000000, 96.058, -161.7174
425.000000, 96.061, -162.8710
431.000000, 96.013, -163.1683
437.000000, 95.977, -163.7694
444.000000, 95.864, -164.3322
450.000000, 95.721, -164.6275
455.000000, 95.632, -164.3615
462.000000, 95.533, -164.0461
468.000000, 95.482, -163.4805
475.000000, 95.554, -162.8250
482.000000, 95.663, -162.4190
487.000000, 95.664, -161.8204
494.000000, 95.595, -161.3018
500.000000, 95.503, -160.9816
508.000000, 95.462, -160.5225
515.000000, 95.527, -160.4902
522.000000, 95.477, -160.1483
530.000000, 95.331, -159.5165
538.000000, 95.301, -159.6880
545.000000, 95.479, -159.2649
552.000000, 95.551, -157.7861
560.000000, 95.519, -156.6163
570.000000, 95.630, -155.8650
580.000000, 95.781, -155.1631
590.000000, 95.956, -155.7319
600.000000, 96.135, -156.1585
608.000000, 96.222, -156.0747
615.000000, 96.266, -155.4418
622.000000, 96.321, -154.9557
630.000000, 96.398, -154.9019
640.000000, 96.580, -155.6571
650.000000, 96.774, -157.2519
660.000000, 96.898, -158.6601
670.000000, 96.938, -161.0582
680.000000, 96.861, -163.9109
690.000000, 96.577, -165.9416
700.000000, 96.143, -167.3076
710.000000, 95.654, -167.7375
720.000000, 95.176, -166.4955
730.000000, 94.805, -164.0778
740.000000, 94.600, -161.1506
750.000000, 94.550, -158.0749
762.000000, 94.659, -154.9900
775.000000, 95.013, -152.8790
788.000000, 95.355, -152.2499
800.000000, 95.533, -152.2055
812.000000, 95.675, -152.1601
825.000000, 95.810, -152.5133
838.000000, 95.878, -152.7706
850.000000, 95.947, -153.1240
862.000000, 96.052, -153.6475
875.000000, 96.118, -154.5545
885.000000, 96.107, -155.4190
900.000000, 96.012, -156.7951
912.000000, 95.880, -157.9771
925.000000, 95.736, -158.8530
938.000000, 95.545, -159.5575
950.000000, 95.266, -160.2066
962.000000, 94.887, -160.2033
975.000000, 94.476, -159.0782
988.000000, 94.196, -157.1398
1000.000000, 94.092, -155.2850
1015.000000, 94.060, -153.4797
1030.000000, 94.058, -152.2177
1044.000000, 94.025, -151.5481
1060.000000, 93.909, -151.0336
1075.000000, 93.827, -150.2318
1090.000000, 93.722, -149.6163
1106.000000, 93.462, -148.9032
1120.000000, 93.254, -147.8706
1138.000000, 93.288, -146.1816
1150.000000, 93.333, -145.0155
1172.000000, 93.284, -143.9409
1180.000000, 93.302, -143.8623
1206.000000, 93.292, -144.5554
1220.000000, 93.086, -145.1151
1241.000000, 92.518, -145.1810
1250.000000, 92.188, -144.5875
1265.000000, 91.582, -142.4958
1280.000000, 91.030, -138.1457
1315.000000, 91.078, -126.1686
1320.000000, 91.164, -125.0389
1340.000000, 91.515, -121.6772
1360.000000, 91.741, -119.4753
1380.000000, 91.774, -117.5246
1400.000000, 91.666, -114.4933
1430.000000, 91.794, -108.2981
1450.000000, 92.045, -104.6788
1475.000000, 92.523, -101.4693
1500.000000, 92.945, -99.0561
1525.000000, 93.334, -96.5871
1550.000000, 93.667, -94.6541
1575.000000, 94.012, -92.5590
1600.000000, 94.429, -90.7586
1625.000000, 94.747, -89.8083
1650.000000, 94.970, -88.9552
1675.000000, 95.176, -87.2767
1700.000000, 95.378, -85.2128
1725.000000, 95.591, -83.7597
1750.000000, 95.928, -81.7449
1775.000000, 96.276, -79.6852
1800.000000, 96.558, -78.3247
1825.000000, 96.859, -76.8463
1850.000000, 97.255, -75.0345
1875.000000, 97.713, -73.8199
1900.000000, 98.165, -73.2193
1925.000000, 98.590, -72.9319
1950.000000, 98.958, -73.1057
1975.000000, 99.261, -73.2504
2000.000000, 99.524, -73.2109
2030.000000, 99.826, -73.1885
2060.000000, 100.091, -73.2144
2090.000000, 100.339, -73.0080
2120.000000, 100.596, -72.7559
2140.000000, 100.772, -72.4408
2180.000000, 101.183, -71.7036
2200.000000, 101.420, -71.3152
2240.000000, 101.977, -71.3941
2270.000000, 102.343, -72.4048
2300.000000, 102.565, -73.5876
2330.000000, 102.700, -74.3727
2360.000000, 102.894, -74.6380
2400.000000, 103.244, -74.8256
2430.000000, 103.454, -75.4828
2470.000000, 103.723, -76.0438
2500.000000, 103.970, -77.0808
2540.000000, 104.147, -78.9141
2580.000000, 104.271, -79.1607
2620.000000, 104.616, -79.4637
2650.000000, 104.929, -81.0546
2690.000000, 105.082, -83.8546
2720.000000, 105.047, -85.2797
2760.000000, 105.029, -86.4009
2800.000000, 105.098, -87.3239
2850.000000, 105.301, -88.5428
2900.000000, 105.502, -91.6740
2950.000000, 105.282, -95.5958
3000.000000, 104.855, -97.2209
3040.000000, 104.637, -97.4785
3070.000000, 104.515, -97.5513
3110.000000, 104.361, -97.5158
3150.000000, 104.253, -97.3578
3200.000000, 104.232, -97.7704
3250.000000, 104.112, -99.0748
3300.000000, 103.900, -100.0229
3350.000000, 103.667, -101.0781
3400.000000, 103.292, -102.0620
3450.000000, 102.823, -101.4240
3500.000000, 102.556, -99.5138
3550.000000, 102.538, -98.0785
3600.000000, 102.566, -98.5000
3650.000000, 102.376, -99.7419
3700.000000, 102.005, -100.3945
3750.000000, 101.576, -100.0212
3820.000000, 101.095, -98.5421
3870.000000, 100.773, -97.9621
3950.000000, 99.950, -95.4026
4000.000000, 99.670, -90.8757
4060.000000, 99.917, -87.8811
4120.000000, 100.054, -89.2724
4180.000000, 99.563, -91.7951
4250.000000, 98.440, -90.0966
4310.000000, 97.810, -85.7369
4370.000000, 97.399, -83.2494
4440.000000, 96.355, -81.2255
4500.000000, 95.201, -68.5959
4550.000000, 95.230, -55.5801
4620.000000, 96.393, -39.6080
4680.000000, 98.126, -34.4473
4750.000000, 99.589, -36.7194
4820.000000, 100.717, -41.0791
4870.000000, 101.252, -46.6430
4940.000000, 100.910, -56.1437
5000.000000, 99.666, -59.2471
5080.000000, 98.257, -53.9349
5150.000000, 97.983, -46.5407
5220.000000, 98.197, -43.1267
5300.000000, 98.199, -40.7917
5380.000000, 98.294, -39.1591
5450.000000, 98.072, -38.4097
5520.000000, 97.811, -35.6634
5600.000000, 97.656, -32.4904
5700.000000, 97.525, -27.0115
5800.000000, 97.831, -22.1656
5900.000000, 98.167, -20.2261
6000.000000, 98.187, -18.8812
6080.000000, 98.144, -17.1095
6150.000000, 98.128, -15.4142
6220.000000, 98.121, -13.6646
6300.000000, 98.141, -11.9880
6400.000000, 98.053, -10.0953
6500.000000, 97.957, -7.3869
6600.000000, 97.990, -4.8319
6700.000000, 97.957, -3.5253
6800.000000, 97.706, -1.7922
6900.000000, 97.454, 1.1487
7000.000000, 97.306, 4.7084
7100.000000, 97.213, 8.4196
7200.000000, 97.162, 12.5981
7300.000000, 97.232, 17.4396
7400.000000, 97.538, 22.3577
7500.000000, 98.079, 25.9417
7620.000000, 98.762, 27.4902
7750.000000, 99.303, 26.7975
7880.000000, 99.389, 24.4255
8000.000000, 98.995, 22.5128
8120.000000, 98.247, 22.1431
8250.000000, 97.251, 25.6425
8380.000000, 96.542, 31.9422
8500.000000, 96.224, 38.8784
8620.000000, 96.321, 45.8579
8750.000000, 96.789, 50.8629
8850.000000, 97.158, 52.3687
9000.000000, 97.493, 51.8772
9120.000000, 97.406, 49.6570
9250.000000, 96.770, 47.0738
9380.000000, 95.626, 46.7412
9500.000000, 94.413, 49.5174
9620.000000, 93.232, 54.7727
9750.000000, 92.139, 63.3370
9880.000000, 91.428, 73.1130
10000.000000, 90.985, 82.2359
10150.000000, 90.723, 94.4917
10300.000000, 90.889, 106.6922
10440.000000, 91.446, 116.3872
10600.000000, 92.168, 123.7039
10750.000000, 92.575, 128.3119
10900.000000, 92.658, 132.9990
11060.000000, 92.561, 140.7183
11200.000000, 92.871, 150.7742
11380.000000, 94.067, 160.9415
11500.000000, 94.876, 164.5190
11720.000000, 96.114, 169.8785
11800.000000, 96.599, 171.8810
12060.000000, 98.540, 176.1304
12200.000000, 99.674, 175.3672
12410.000000, 100.933, 170.1234
12500.000000, 101.298, 167.4254
12650.000000, 101.899, 162.4956
12800.000000, 102.443, 155.4900
13150.000000, 102.063, 133.8727
13200.000000, 101.843, 131.1944
13400.000000, 101.405, 120.6133
13600.000000, 101.273, 100.6097
