* Measurement data measured by REW V5.31.3
* Source: Headset (DS by VECLAN.COM), MICROPHONE (Master Volume), L, volume: 0.720. Timing signal peak level -9.2 dBFS, measurement signal peak level -7.5 dBFS
* Format: 4M Log Swept Sine, 1 sweep at -12.0 dBFS using an acoustic timing reference
* Dated: Aug 23, 2024 3:16:28 PM
* REW Settings:
*  C-weighting compensation: Off
*  Target level: 85.0 dB
* Note: ; Delay -0.0621 ms (-21 mm, -0.84 in) using estimated IR delay relative to Acoustic reference played from SPEAKER R with no timing offset Clock adjustment: -24.1 ppm
* Measurement: Hifiman Ananda V3 R5
* Smoothing: 1/24 octave
* Frequency Step: 1/48 octave
* Start Frequency: 1.000 Hz
*
* Freq(Hz), SPL(dB), Phase(degrees)
1.000000, 68.087, 39.4632
1.015000, 68.083, 39.4291
1.030000, 68.079, 39.3520
1.044000, 68.075, 39.2390
1.060000, 68.071, 39.0585
1.075000, 68.066, 38.8369
1.090000, 68.062, 38.5635
1.106000, 68.056, 38.2208
1.120000, 68.050, 37.8917
1.138000, 68.039, 37.4374
1.150000, 68.031, 37.1148
1.172000, 68.014, 36.4743
1.180000, 68.007, 36.2216
1.206000, 67.983, 35.3407
1.220000, 67.970, 34.8261
1.241000, 67.950, 33.9985
1.250000, 67.942, 33.6227
1.265000, 67.928, 32.9674
1.280000, 67.915, 32.2754
1.315000, 67.890, 30.5159
1.320000, 67.887, 30.2481
1.340000, 67.878, 29.1359
1.360000, 67.872, 27.9614
1.380000, 67.871, 26.6895
1.400000, 67.875, 25.3474
1.430000, 67.893, 23.2414
1.450000, 67.913, 21.7808
1.475000, 67.946, 19.8675
1.500000, 67.985, 17.8848
1.525000, 68.028, 15.9103
1.550000, 68.075, 13.9611
1.575000, 68.127, 12.0243
1.600000, 68.185, 10.0882
1.625000, 68.250, 8.1846
1.650000, 68.322, 6.3142
1.675000, 68.402, 4.4771
1.700000, 68.491, 2.6732
1.725000, 68.590, 0.9025
1.750000, 68.700, -0.8349
1.775000, 68.821, -2.5527
1.800000, 68.954, -4.2634
1.825000, 69.100, -5.9320
1.850000, 69.262, -7.5310
1.875000, 69.442, -9.0268
1.900000, 69.637, -10.4154
1.925000, 69.848, -11.7056
1.950000, 70.070, -12.9079
1.975000, 70.303, -14.0437
2.000000, 70.544, -15.1330
2.030000, 70.840, -16.3620
2.060000, 71.141, -17.5198
2.090000, 71.444, -18.6185
2.120000, 71.743, -19.6680
2.140000, 71.940, -20.3447
2.180000, 72.321, -21.6688
2.200000, 72.506, -22.3206
2.240000, 72.870, -23.5277
2.270000, 73.142, -24.3376
2.300000, 73.415, -25.0764
2.330000, 73.688, -25.7564
2.360000, 73.960, -26.3891
2.400000, 74.320, -27.2139
2.430000, 74.588, -27.8058
2.470000, 74.941, -28.5655
2.500000, 75.201, -29.1205
2.540000, 75.542, -29.8472
2.580000, 75.875, -30.5638
2.620000, 76.201, -31.2515
2.650000, 76.443, -31.7233
2.690000, 76.760, -32.3053
2.720000, 76.994, -32.7147
2.760000, 77.302, -33.2342
2.800000, 77.605, -33.7722
2.850000, 77.976, -34.4397
2.900000, 78.340, -35.1081
2.950000, 78.697, -35.7708
3.000000, 79.045, -36.4187
3.040000, 79.318, -36.9116
3.070000, 79.520, -37.2653
3.110000, 79.784, -37.7223
3.150000, 80.044, -38.1694
3.200000, 80.362, -38.7542
3.250000, 80.675, -39.3586
3.300000, 80.981, -39.9708
3.350000, 81.280, -40.5711
3.400000, 81.573, -41.1712
3.450000, 81.859, -41.7605
3.500000, 82.139, -42.3364
3.550000, 82.413, -42.9062
3.600000, 82.681, -43.5038
3.650000, 82.945, -44.1185
3.700000, 83.202, -44.7340
3.750000, 83.455, -45.3394
3.820000, 83.798, -46.1944
3.870000, 84.037, -46.7998
3.950000, 84.408, -47.7579
4.000000, 84.634, -48.3790
4.060000, 84.898, -49.1370
4.120000, 85.155, -49.8892
4.180000, 85.405, -50.6369
4.250000, 85.687, -51.5228
4.310000, 85.922, -52.2687
4.370000, 86.151, -53.0083
4.440000, 86.410, -53.8918
4.500000, 86.625, -54.6435
4.550000, 86.799, -55.2621
4.620000, 87.036, -56.1361
4.680000, 87.233, -56.8735
4.750000, 87.457, -57.7127
4.820000, 87.674, -58.5567
4.870000, 87.825, -59.1559
4.940000, 88.029, -59.9798
5.000000, 88.200, -60.6832
5.080000, 88.421, -61.6042
5.150000, 88.609, -62.3823
5.220000, 88.793, -63.1601
5.300000, 88.996, -64.0338
5.380000, 89.193, -64.8831
5.450000, 89.361, -65.6217
5.520000, 89.527, -66.3339
5.600000, 89.711, -67.1317
5.700000, 89.934, -68.1121
5.800000, 90.153, -69.0633
5.900000, 90.369, -69.9962
6.000000, 90.582, -70.8995
6.080000, 90.751, -71.6139
6.150000, 90.897, -72.2253
6.220000, 91.042, -72.8450
6.300000, 91.206, -73.5448
6.400000, 91.410, -74.4086
6.500000, 91.612, -75.2768
6.600000, 91.813, -76.1491
6.700000, 92.012, -77.0371
6.800000, 92.210, -77.9254
6.900000, 92.406, -78.8291
7.000000, 92.597, -79.7419
7.100000, 92.784, -80.6714
7.200000, 92.968, -81.6064
7.300000, 93.148, -82.5553
7.400000, 93.325, -83.5109
7.500000, 93.499, -84.4792
7.620000, 93.702, -85.6464
7.750000, 93.913, -86.9161
7.880000, 94.117, -88.2020
8.000000, 94.298, -89.3853
8.120000, 94.474, -90.5700
8.250000, 94.658, -91.8542
8.380000, 94.836, -93.1302
8.500000, 94.994, -94.3039
8.620000, 95.146, -95.4712
8.750000, 95.306, -96.7277
8.850000, 95.425, -97.6905
9.000000, 95.599, -99.1240
9.120000, 95.733, -100.2675
9.250000, 95.873, -101.5024
9.380000, 96.008, -102.7306
9.500000, 96.128, -103.8653
9.620000, 96.242, -104.9918
9.750000, 96.360, -106.2078
9.880000, 96.464, -107.4100
10.000000, 96.546, -108.4999
10.150000, 96.632, -109.8721
10.300000, 96.704, -111.2027
10.440000, 96.760, -112.4077
10.600000, 96.817, -113.7400
10.750000, 96.867, -114.9433
10.900000, 96.915, -116.1077
11.060000, 96.967, -117.3427
11.200000, 97.012, -118.4408
11.380000, 97.068, -119.8257
11.500000, 97.103, -120.7370
11.720000, 97.165, -122.3935
11.800000, 97.186, -122.9948
12.060000, 97.253, -124.9678
12.200000, 97.285, -126.0659
12.410000, 97.326, -127.7037
12.500000, 97.338, -128.3969
12.650000, 97.351, -129.5385
12.800000, 97.356, -130.6518
13.150000, 97.340, -133.1453
13.200000, 97.336, -133.4896
13.400000, 97.316, -134.8099
13.600000, 97.293, -136.0406
13.800000, 97.270, -137.1875
14.000000, 97.249, -138.2743
14.300000, 97.224, -139.8915
14.500000, 97.209, -140.9446
14.750000, 97.187, -142.2441
15.000000, 97.162, -143.5253
15.250000, 97.133, -144.8150
15.500000, 97.098, -146.0344
15.750000, 97.058, -147.1606
16.000000, 97.021, -148.1924
16.250000, 96.992, -149.2032
16.500000, 96.973, -150.1929
16.750000, 96.963, -151.2116
17.000000, 96.953, -152.2957
17.250000, 96.934, -153.4716
17.500000, 96.893, -154.6686
17.750000, 96.826, -155.8055
18.000000, 96.735, -156.8016
18.250000, 96.629, -157.6122
18.500000, 96.526, -158.1771
18.750000, 96.441, -158.5234
19.000000, 96.389, -158.7347
19.250000, 96.375, -158.9669
19.500000, 96.387, -159.3029
19.750000, 96.410, -159.8100
20.000000, 96.423, -160.4932
20.299999, 96.404, -161.4901
20.600000, 96.336, -162.4795
20.900000, 96.224, -163.2800
21.200001, 96.090, -163.7885
21.400000, 96.002, -163.9505
21.799999, 95.864, -163.9518
22.000000, 95.820, -163.8834
22.400000, 95.773, -163.8514
22.700001, 95.751, -163.9810
23.000000, 95.722, -164.2318
23.299999, 95.676, -164.5487
23.600000, 95.613, -164.8392
24.000000, 95.516, -165.0959
24.299999, 95.445, -165.1956
24.700001, 95.362, -165.2234
25.000000, 95.311, -165.2063
25.400000, 95.258, -165.2080
25.799999, 95.215, -165.2612
26.200001, 95.172, -165.4018
26.500000, 95.132, -165.5479
26.900000, 95.062, -165.7056
27.200001, 94.998, -165.7330
27.600000, 94.910, -165.5652
28.000000, 94.841, -165.1644
28.500000, 94.807, -164.5334
29.000000, 94.818, -163.9409
29.500000, 94.846, -163.3967
30.000000, 94.898, -162.7915
30.400000, 94.981, -162.3437
30.700001, 95.071, -162.1344
31.100000, 95.213, -162.1704
31.500000, 95.345, -162.6214
32.000000, 95.447, -163.5745
32.500000, 95.470, -164.5958
33.000000, 95.450, -165.4151
33.500000, 95.430, -166.0926
34.000000, 95.418, -166.7886
34.500000, 95.392, -167.5710
35.000000, 95.331, -168.3188
35.500000, 95.244, -168.8435
36.000000, 95.164, -169.0273
36.500000, 95.127, -168.9785
37.000000, 95.147, -168.9763
37.500000, 95.193, -169.3010
38.200001, 95.196, -170.2223
38.700001, 95.124, -170.7596
39.500000, 94.999, -170.8143
40.000000, 94.984, -170.7212
40.599998, 94.978, -171.0555
41.200001, 94.881, -171.5457
41.799999, 94.721, -171.3942
42.500000, 94.652, -170.4193
43.099998, 94.732, -170.0350
43.700001, 94.787, -170.4627
44.400002, 94.711, -170.9507
45.000000, 94.640, -170.6819
45.500000, 94.652, -170.3202
46.200001, 94.692, -170.3339
46.799999, 94.641, -170.4220
47.500000, 94.558, -169.6715
48.200001, 94.610, -168.5884
48.700001, 94.686, -168.2552
49.400002, 94.714, -168.0974
50.000000, 94.701, -167.4648
50.799999, 94.861, -166.2117
51.500000, 95.145, -166.2553
52.200001, 95.348, -167.6029
53.000000, 95.381, -169.3537
53.799999, 95.321, -170.3862
54.500000, 95.279, -170.7336
55.200001, 95.262, -170.7712
56.000000, 95.277, -170.5971
57.000000, 95.319, -170.4725
58.000000, 95.291, -170.6118
59.000000, 95.180, -170.5518
60.000000, 95.080, -170.3116
60.799999, 95.038, -170.6358
61.500000, 94.958, -171.2711
62.200001, 94.847, -171.6078
63.000000, 94.827, -171.5486
64.000000, 94.962, -172.2247
65.000000, 94.994, -173.4130
66.000000, 94.980, -173.6836
67.000000, 94.952, -173.4276
68.000000, 94.868, -172.3705
69.000000, 94.864, -170.5820
70.000000, 94.976, -169.1283
71.000000, 95.148, -168.8074
72.000000, 95.240, -169.6459
73.000000, 95.199, -170.4626
74.000000, 95.146, -170.6737
75.000000, 95.135, -170.6816
76.199997, 95.106, -170.9898
77.500000, 94.958, -171.1987
78.800003, 94.811, -171.9579
80.000000, 94.549, -172.9261
81.199997, 94.441, -173.1983
82.500000, 94.545, -173.9885
83.800003, 94.693, -174.7313
85.000000, 94.829, -174.2391
86.199997, 95.022, -173.4272
87.500000, 95.120, -172.8475
88.500000, 95.124, -172.4925
90.000000, 95.098, -172.2961
91.199997, 95.129, -172.7945
92.500000, 95.144, -173.8001
93.800003, 95.114, -174.2646
95.000000, 95.077, -173.9584
96.199997, 95.032, -172.9341
97.500000, 95.038, -171.6978
98.800003, 95.066, -171.3340
100.000000, 95.069, -172.0402
101.500000, 94.960, -173.0530
103.000000, 94.988, -173.4175
104.400002, 94.979, -173.8340
106.000000, 95.023, -172.5789
107.500000, 95.168, -171.9633
109.000000, 95.214, -171.8498
110.599998, 95.183, -171.8243
112.000000, 95.093, -171.6603
113.800003, 95.021, -170.9582
115.000000, 95.047, -170.9719
117.199997, 95.111, -172.3576
118.000000, 95.117, -173.0390
120.599998, 94.987, -173.4761
122.000000, 94.992, -172.4978
124.099998, 95.008, -171.9420
125.000000, 95.000, -171.9811
126.500000, 95.024, -172.3510
128.000000, 95.115, -172.8911
131.500000, 95.412, -173.0611
132.000000, 95.429, -172.7942
134.000000, 95.457, -171.7998
136.000000, 95.405, -171.7775
138.000000, 95.401, -172.5208
140.000000, 95.489, -173.5398
143.000000, 95.611, -173.0690
145.000000, 95.685, -172.4824
147.500000, 95.634, -172.4727
150.000000, 95.610, -172.7201
152.500000, 95.704, -172.9203
155.000000, 95.742, -172.9540
157.500000, 95.696, -172.6538
160.000000, 95.656, -172.9914
162.500000, 95.675, -173.3187
165.000000, 95.821, -173.0494
167.500000, 95.960, -172.9285
170.000000, 95.972, -173.5220
172.500000, 95.918, -174.4668
175.000000, 95.906, -175.3853
177.500000, 95.895, -175.7508
180.000000, 95.900, -175.8046
182.500000, 95.992, -176.3272
185.000000, 96.054, -178.0715
187.500000, 95.940, -178.8191
190.000000, 95.830, -178.6349
192.500000, 95.795, -178.7887
195.000000, 95.738, -179.6206
197.500000, 95.714, -179.9658
200.000000, 95.744, 178.7744
203.000000, 95.571, 177.0141
206.000000, 95.300, 176.9139
209.000000, 95.235, 176.9993
212.000000, 95.381, 177.8510
214.000000, 95.396, 178.9943
218.000000, 94.708, 179.1420
220.000000, 94.194, 177.8961
224.000000, 93.984, 179.1545
227.000000, 94.012, -179.5739
230.000000, 93.707, -179.1337
233.000000, 93.611, -179.8046
236.000000, 93.663, -179.5220
240.000000, 93.445, -177.5947
243.000000, 93.243, -176.4551
247.000000, 93.215, -174.8352
250.000000, 93.235, -173.5400
254.000000, 93.259, -172.0262
258.000000, 93.333, -170.9320
262.000000, 93.398, -169.2551
265.000000, 93.426, -167.8136
269.000000, 93.460, -167.0222
272.000000, 93.554, -166.0427
276.000000, 93.873, -165.2446
280.000000, 94.050, -165.3807
285.000000, 94.184, -165.1430
290.000000, 94.369, -163.5958
295.000000, 94.448, -162.0791
300.000000, 94.576, -162.8710
304.000000, 94.645, -163.5987
307.000000, 94.722, -162.3031
311.000000, 94.934, -160.3742
315.000000, 94.710, -161.9919
320.000000, 94.652, -164.3666
325.000000, 94.885, -161.9887
330.000000, 94.926, -161.0761
335.000000, 95.009, -160.8217
340.000000, 95.116, -160.6207
345.000000, 95.253, -161.9002
350.000000, 95.199, -163.0616
355.000000, 95.107, -162.8854
360.000000, 95.185, -162.3808
365.000000, 95.349, -162.1380
370.000000, 95.534, -162.4503
375.000000, 95.638, -162.7587
382.000000, 95.602, -162.1464
387.000000, 95.824, -160.7007
395.000000, 95.860, -159.9193
400.000000, 95.803, -161.2884
406.000000, 95.754, -161.8942
412.000000, 95.800, -162.2635
418.000000, 95.874, -162.9663
425.000000, 96.052, -163.4392
431.000000, 96.115, -162.9649
437.000000, 96.042, -163.8034
444.000000, 95.755, -164.7709
450.000000, 95.540, -164.7546
455.000000, 95.496, -164.2959
462.000000, 95.454, -163.5731
468.000000, 95.453, -163.1364
475.000000, 95.436, -162.5805
482.000000, 95.384, -162.5348
487.000000, 95.403, -162.1839
494.000000, 95.439, -161.1949
500.000000, 95.420, -160.7226
508.000000, 95.505, -160.5121
515.000000, 95.664, -160.6788
522.000000, 95.708, -160.4089
530.000000, 95.626, -160.0336
538.000000, 95.581, -159.5529
545.000000, 95.610, -158.5959
552.000000, 95.743, -157.6012
560.000000, 96.000, -156.8303
570.000000, 96.189, -155.6020
580.000000, 96.282, -155.3560
590.000000, 96.474, -155.8348
600.000000, 96.573, -156.5159
608.000000, 96.662, -157.3818
615.000000, 96.793, -157.9807
622.000000, 96.821, -158.0982
630.000000, 96.794, -158.2263
640.000000, 96.896, -158.4992
650.000000, 97.377, -159.9462
660.000000, 98.190, -161.8327
670.000000, 98.164, -164.1846
680.000000, 97.530, -166.9774
690.000000, 97.029, -169.8228
700.000000, 96.495, -171.7705
710.000000, 95.904, -172.9059
720.000000, 95.273, -172.9556
730.000000, 94.696, -170.2685
740.000000, 94.338, -166.2133
750.000000, 94.224, -162.2457
762.000000, 94.341, -158.1344
775.000000, 94.676, -155.4821
788.000000, 95.053, -154.5236
800.000000, 95.294, -154.0598
812.000000, 95.416, -152.7027
825.000000, 95.382, -153.4190
838.000000, 95.525, -153.9181
850.000000, 95.596, -154.0150
862.000000, 95.705, -154.1253
875.000000, 95.866, -154.8872
885.000000, 95.998, -155.8244
900.000000, 96.042, -157.4781
912.000000, 95.987, -158.8243
925.000000, 95.886, -160.4313
938.000000, 95.686, -162.1742
950.000000, 95.410, -163.5853
962.000000, 95.040, -164.3257
975.000000, 94.522, -163.6703
988.000000, 94.054, -161.2502
1000.000000, 93.811, -158.4719
1015.000000, 93.774, -155.7935
1030.000000, 93.817, -154.6938
1044.000000, 93.684, -154.4498
1060.000000, 93.479, -154.0981
1075.000000, 93.376, -153.4503
1090.000000, 93.355, -153.0428
1106.000000, 93.196, -152.8010
1120.000000, 92.904, -151.7471
1138.000000, 92.638, -148.6163
1150.000000, 92.515, -147.5174
1172.000000, 92.452, -147.0139
1180.000000, 92.459, -146.7926
1206.000000, 92.269, -145.9636
1220.000000, 92.082, -146.0426
1241.000000, 91.556, -146.3831
1250.000000, 91.208, -146.0338
1265.000000, 90.546, -144.0011
1280.000000, 89.941, -139.2908
1315.000000, 89.795, -123.7863
1320.000000, 89.912, -122.2364
1340.000000, 90.444, -117.4213
1360.000000, 90.819, -114.4961
1380.000000, 90.930, -112.9849
1400.000000, 90.902, -110.6743
1430.000000, 91.203, -103.6899
1450.000000, 91.650, -100.0030
1475.000000, 92.174, -97.1398
1500.000000, 92.626, -95.0179
1525.000000, 93.050, -93.1360
1550.000000, 93.444, -91.4648
1575.000000, 93.734, -89.8335
1600.000000, 94.113, -87.6282
1625.000000, 94.512, -86.6054
1650.000000, 94.766, -85.8998
1675.000000, 94.943, -84.4722
1700.000000, 95.185, -82.6031
1725.000000, 95.494, -80.8144
1750.000000, 95.807, -79.2617
1775.000000, 96.130, -77.7505
1800.000000, 96.482, -76.4037
1825.000000, 96.838, -75.2811
1850.000000, 97.192, -74.2274
1875.000000, 97.565, -73.4322
1900.000000, 97.924, -72.8980
1925.000000, 98.261, -72.4013
1950.000000, 98.585, -72.2901
1975.000000, 98.837, -72.3136
2000.000000, 99.050, -71.8679
2030.000000, 99.357, -70.9417
2060.000000, 99.758, -70.2404
2090.000000, 100.196, -70.4186
2120.000000, 100.516, -71.3493
2140.000000, 100.648, -71.7956
2180.000000, 100.884, -71.7060
2200.000000, 101.057, -71.1302
2240.000000, 101.604, -70.4915
2270.000000, 102.001, -71.4445
2300.000000, 102.234, -72.9954
2330.000000, 102.333, -74.3905
2360.000000, 102.356, -75.0537
2400.000000, 102.488, -74.4654
2430.000000, 102.708, -74.1306
2470.000000, 102.983, -74.4867
2500.000000, 103.152, -75.0312
2540.000000, 103.340, -75.3910
2580.000000, 103.581, -75.7766
2620.000000, 103.922, -76.6902
2650.000000, 104.118, -78.1234
2690.000000, 104.195, -80.0445
2720.000000, 104.134, -80.7631
2760.000000, 104.066, -80.6098
2800.000000, 104.250, -80.2098
2850.000000, 104.671, -80.5348
2900.000000, 105.010, -83.3517
2950.000000, 104.974, -87.0371
3000.000000, 104.716, -88.7290
3040.000000, 104.581, -89.4498
3070.000000, 104.487, -90.0805
3110.000000, 104.332, -90.5321
3150.000000, 104.230, -90.2630
3200.000000, 104.284, -90.2179
3250.000000, 104.361, -91.4210
3300.000000, 104.315, -93.2723
3350.000000, 104.154, -95.1661
3400.000000, 103.852, -96.8528
3450.000000, 103.510, -97.3878
3500.000000, 103.282, -97.7664
3550.000000, 103.019, -98.6988
3600.000000, 102.661, -99.4780
3650.000000, 102.259, -99.7781
3700.000000, 101.762, -100.0150
3750.000000, 101.168, -98.8599
3820.000000, 100.662, -95.9538
3870.000000, 100.387, -95.3297
3950.000000, 99.504, -93.4113
4000.000000, 98.998, -88.3668
4060.000000, 99.142, -83.7231
4120.000000, 99.213, -84.4672
4180.000000, 98.570, -85.9626
4250.000000, 97.287, -81.5212
4310.000000, 96.740, -73.7744
4370.000000, 96.528, -68.6478
4440.000000, 95.920, -62.1004
4500.000000, 95.923, -46.9134
4550.000000, 97.000, -37.7943
4620.000000, 98.282, -35.4726
4680.000000, 99.014, -35.1109
4750.000000, 99.727, -34.8707
4820.000000, 100.658, -35.1389
4870.000000, 101.337, -38.4780
4940.000000, 101.352, -46.8419
5000.000000, 100.388, -50.9332
5080.000000, 99.007, -46.8531
5150.000000, 98.743, -39.3609
5220.000000, 99.086, -35.7800
5300.000000, 99.247, -34.6652
5380.000000, 99.319, -33.9750
5450.000000, 99.061, -34.0715
5520.000000, 98.640, -31.4728
5600.000000, 98.453, -26.9787
5700.000000, 98.565, -21.1096
5800.000000, 99.074, -16.8935
5900.000000, 99.557, -15.8918
6000.000000, 99.717, -15.8006
6080.000000, 99.776, -15.4536
6150.000000, 99.782, -15.3372
6220.000000, 99.721, -15.0476
6300.000000, 99.651, -14.4772
6400.000000, 99.528, -14.1815
6500.000000, 99.275, -13.8615
6600.000000, 98.967, -13.2257
6700.000000, 98.551, -12.8025
6800.000000, 97.922, -11.5451
6900.000000, 97.233, -8.3596
7000.000000, 96.668, -3.4736
7100.000000, 96.256, 2.1232
7200.000000, 95.988, 8.8686
7300.000000, 96.040, 16.3797
7400.000000, 96.473, 22.9862
7500.000000, 97.132, 27.1728
7620.000000, 97.804, 28.7157
7750.000000, 98.192, 28.4775
7880.000000, 98.021, 27.3899
8000.000000, 97.409, 28.6119
8120.000000, 96.777, 32.5805
8250.000000, 96.357, 39.8490
8380.000000, 96.395, 48.2377
8500.000000, 96.858, 54.9028
8620.000000, 97.653, 58.8638
8750.000000, 98.653, 59.1441
8850.000000, 99.231, 55.9513
9000.000000, 99.300, 47.3912
9120.000000, 98.434, 40.3450
9250.000000, 96.701, 36.1579
9380.000000, 94.495, 37.7954
9500.000000, 92.490, 44.9014
9620.000000, 90.836, 55.7379
9750.000000, 89.567, 70.7072
9880.000000, 89.045, 87.8003
10000.000000, 89.294, 102.8285
10150.000000, 90.333, 117.9064
10300.000000, 91.691, 126.5872
10440.000000, 92.587, 129.3748
10600.000000, 92.797, 131.2915
10750.000000, 92.478, 135.8836
10900.000000, 92.192, 144.6966
11060.000000, 92.433, 157.5403
11200.000000, 93.364, 168.9615
11380.000000, 95.101, 177.8438
11500.000000, 96.136, -179.6095
11720.000000, 97.654, -177.1401
11800.000000, 98.118, -176.4834
12060.000000, 99.592, -174.3691
12200.000000, 100.493, -173.9299
12410.000000, 101.910, -176.2412
12500.000000, 102.430, -178.3384
12650.000000, 103.241, 177.2090
12800.000000, 103.950, 170.4590
13150.000000, 103.783, 149.4737
13200.000000, 103.574, 146.7726
13400.000000, 102.749, 136.6239
