* Measurement data measured by REW V5.31.3
* Source: Headset (DS by VECLAN.COM), MICROPHONE (Master Volume), L, volume: 0.720. Timing signal peak level -9.7 dBFS, measurement signal peak level -6.4 dBFS
* Format: 4M Log Swept Sine, 1 sweep at -12.0 dBFS using an acoustic timing reference
* Dated: Aug 23, 2024 2:39:17 PM
* REW Settings:
*  C-weighting compensation: Off
*  Target level: 85.0 dB
* Note: ; Delay -0.1134 ms (-39 mm, -1.53 in) using estimated IR delay relative to Acoustic reference played from SPEAKER L with no timing offset Clock adjustment: -35.6 ppm
* Measurement: Hifiman Ananda V3 L3
* Smoothing: 1/24 octave
* Frequency Step: 1/48 octave
* Start Frequency: 1.000 Hz
*
* Freq(Hz), SPL(dB), Phase(degrees)
1.000000, 76.370, -48.7461
1.015000, 76.914, -49.4094
1.030000, 77.440, -50.0956
1.044000, 77.912, -50.7585
1.060000, 78.427, -51.5446
1.075000, 78.883, -52.3100
1.090000, 79.311, -53.1011
1.106000, 79.739, -53.9554
1.120000, 80.096, -54.6810
1.138000, 80.536, -55.5635
1.150000, 80.819, -56.1202
1.172000, 81.316, -57.0855
1.180000, 81.491, -57.4235
1.206000, 82.035, -58.4649
1.220000, 82.313, -58.9940
1.241000, 82.715, -59.7531
1.250000, 82.880, -60.0674
1.265000, 83.149, -60.5787
1.280000, 83.409, -61.0768
1.315000, 83.982, -62.2006
1.320000, 84.060, -62.3580
1.340000, 84.365, -62.9828
1.360000, 84.658, -63.6018
1.380000, 84.941, -64.2576
1.400000, 85.213, -64.9309
1.430000, 85.605, -65.9540
1.450000, 85.857, -66.6481
1.475000, 86.159, -67.5201
1.500000, 86.434, -68.3647
1.525000, 86.680, -69.1672
1.550000, 86.900, -69.9293
1.575000, 87.096, -70.6723
1.600000, 87.272, -71.4145
1.625000, 87.431, -72.1301
1.650000, 87.576, -72.8241
1.675000, 87.711, -73.5014
1.700000, 87.839, -74.1666
1.725000, 87.964, -74.8242
1.750000, 88.087, -75.4784
1.775000, 88.214, -76.1472
1.800000, 88.346, -76.8475
1.825000, 88.486, -77.5529
1.850000, 88.630, -78.2581
1.875000, 88.775, -78.9517
1.900000, 88.916, -79.6289
1.925000, 89.054, -80.2888
1.950000, 89.189, -80.9312
1.975000, 89.321, -81.5679
2.000000, 89.451, -82.2106
2.030000, 89.603, -82.9628
2.060000, 89.752, -83.6981
2.090000, 89.898, -84.4198
2.120000, 90.042, -85.1315
2.140000, 90.136, -85.6022
2.180000, 90.322, -86.5588
2.200000, 90.414, -87.0546
2.240000, 90.593, -88.0398
2.270000, 90.724, -88.7682
2.300000, 90.852, -89.4845
2.330000, 90.977, -90.1871
2.360000, 91.099, -90.8757
2.400000, 91.258, -91.8095
2.430000, 91.374, -92.4991
2.470000, 91.526, -93.3987
2.500000, 91.638, -94.0604
2.540000, 91.784, -94.9288
2.580000, 91.927, -95.8015
2.620000, 92.066, -96.6986
2.650000, 92.168, -97.3652
2.690000, 92.301, -98.2425
2.720000, 92.397, -98.8896
2.760000, 92.523, -99.7340
2.800000, 92.646, -100.5941
2.850000, 92.795, -101.6447
2.900000, 92.939, -102.6635
2.950000, 93.078, -103.6588
3.000000, 93.212, -104.6729
3.040000, 93.315, -105.4875
3.070000, 93.391, -106.0915
3.110000, 93.489, -106.8844
3.150000, 93.584, -107.6603
3.200000, 93.699, -108.6320
3.250000, 93.809, -109.5849
3.300000, 93.916, -110.5080
3.350000, 94.019, -111.4152
3.400000, 94.117, -112.3402
3.450000, 94.210, -113.2629
3.500000, 94.300, -114.1651
3.550000, 94.386, -115.0399
3.600000, 94.469, -115.9097
3.650000, 94.549, -116.7586
3.700000, 94.625, -117.5849
3.750000, 94.698, -118.4011
3.820000, 94.795, -119.5527
3.870000, 94.860, -120.3597
3.950000, 94.958, -121.5977
4.000000, 95.016, -122.3564
4.060000, 95.082, -123.2454
4.120000, 95.144, -124.1139
4.180000, 95.202, -124.9709
4.250000, 95.265, -125.9677
4.310000, 95.316, -126.7854
4.370000, 95.364, -127.5679
4.440000, 95.416, -128.4673
4.500000, 95.458, -129.2159
4.550000, 95.490, -129.8240
4.620000, 95.532, -130.6702
4.680000, 95.566, -131.3692
4.750000, 95.603, -132.1422
4.820000, 95.637, -132.8974
4.870000, 95.660, -133.4232
4.940000, 95.690, -134.1342
5.000000, 95.714, -134.7329
5.080000, 95.745, -135.5033
5.150000, 95.770, -136.1383
5.220000, 95.793, -136.7625
5.300000, 95.819, -137.4507
5.380000, 95.842, -138.1077
5.450000, 95.862, -138.6741
5.520000, 95.880, -139.2109
5.600000, 95.900, -139.8044
5.700000, 95.922, -140.5237
5.800000, 95.944, -141.2078
5.900000, 95.965, -141.8694
6.000000, 95.986, -142.4999
6.080000, 96.003, -142.9927
6.150000, 96.016, -143.4048
6.220000, 96.030, -143.8193
6.300000, 96.044, -144.2797
6.400000, 96.062, -144.8392
6.500000, 96.078, -145.3902
6.600000, 96.094, -145.9252
6.700000, 96.109, -146.4593
6.800000, 96.124, -146.9795
6.900000, 96.137, -147.4944
7.000000, 96.147, -147.9933
7.100000, 96.155, -148.4876
7.200000, 96.161, -148.9680
7.300000, 96.166, -149.4402
7.400000, 96.170, -149.8953
7.500000, 96.173, -150.3420
7.620000, 96.176, -150.8600
7.750000, 96.176, -151.3975
7.880000, 96.174, -151.9215
8.000000, 96.171, -152.3825
8.120000, 96.168, -152.8302
8.250000, 96.165, -153.2975
8.380000, 96.162, -153.7457
8.500000, 96.159, -154.1497
8.620000, 96.156, -154.5399
8.750000, 96.153, -154.9528
8.850000, 96.152, -155.2678
9.000000, 96.151, -155.7291
9.120000, 96.150, -156.0986
9.250000, 96.150, -156.5008
9.380000, 96.150, -156.9004
9.500000, 96.149, -157.2767
9.620000, 96.148, -157.6511
9.750000, 96.143, -158.0573
9.880000, 96.130, -158.4567
10.000000, 96.107, -158.8108
10.150000, 96.066, -159.2672
10.300000, 96.015, -159.6865
10.440000, 95.961, -160.0419
10.600000, 95.897, -160.4017
10.750000, 95.838, -160.6895
10.900000, 95.783, -160.9317
11.060000, 95.729, -161.1747
11.200000, 95.689, -161.3962
11.380000, 95.643, -161.6454
11.500000, 95.615, -161.7942
11.720000, 95.574, -162.0507
11.800000, 95.563, -162.1444
12.060000, 95.537, -162.4835
12.200000, 95.529, -162.7210
12.410000, 95.519, -163.1012
12.500000, 95.514, -163.2716
12.650000, 95.501, -163.5637
12.800000, 95.485, -163.8568
13.150000, 95.429, -164.5515
13.200000, 95.419, -164.6506
13.400000, 95.378, -165.0144
13.600000, 95.333, -165.3159
13.800000, 95.287, -165.5487
14.000000, 95.241, -165.7217
14.300000, 95.179, -165.9516
14.500000, 95.142, -166.0643
14.750000, 95.101, -166.1830
15.000000, 95.063, -166.2980
15.250000, 95.030, -166.4658
15.500000, 94.995, -166.6280
15.750000, 94.954, -166.7651
16.000000, 94.908, -166.8579
16.250000, 94.860, -166.9370
16.500000, 94.815, -166.9545
16.750000, 94.776, -166.9185
17.000000, 94.749, -166.8558
17.250000, 94.734, -166.8252
17.500000, 94.730, -166.8265
17.750000, 94.734, -166.8820
18.000000, 94.742, -167.0124
18.250000, 94.750, -167.2534
18.500000, 94.754, -167.5728
18.750000, 94.749, -167.9520
19.000000, 94.733, -168.3689
19.250000, 94.703, -168.8196
19.500000, 94.659, -169.2387
19.750000, 94.600, -169.5880
20.000000, 94.532, -169.8322
20.299999, 94.445, -169.9863
20.600000, 94.363, -169.9430
20.900000, 94.300, -169.7345
21.200001, 94.263, -169.4557
21.400000, 94.254, -169.2765
21.799999, 94.260, -169.0369
22.000000, 94.267, -169.0103
22.400000, 94.264, -169.1562
22.700001, 94.230, -169.3209
23.000000, 94.163, -169.4025
23.299999, 94.072, -169.2998
23.600000, 93.976, -168.9379
24.000000, 93.881, -168.1155
24.299999, 93.848, -167.4227
24.700001, 93.843, -166.6388
25.000000, 93.839, -166.2189
25.400000, 93.791, -165.7356
25.799999, 93.692, -164.9219
26.200001, 93.606, -163.4549
26.500000, 93.610, -161.9849
26.900000, 93.760, -160.0039
27.200001, 93.966, -158.9191
27.600000, 94.287, -158.3269
28.000000, 94.569, -158.5664
28.500000, 94.812, -159.3486
29.000000, 94.992, -159.9790
29.500000, 95.210, -160.5480
30.000000, 95.463, -161.6300
30.400000, 95.620, -163.0157
30.700001, 95.679, -164.1971
31.100000, 95.674, -165.6480
31.500000, 95.606, -166.6699
32.000000, 95.519, -167.2457
32.500000, 95.489, -167.4474
33.000000, 95.493, -167.7167
33.500000, 95.472, -168.0856
34.000000, 95.426, -168.2911
34.500000, 95.394, -168.3070
35.000000, 95.384, -168.3794
35.500000, 95.358, -168.6468
36.000000, 95.285, -168.8749
36.500000, 95.194, -168.7903
37.000000, 95.147, -168.4525
37.500000, 95.157, -168.2491
38.200001, 95.182, -168.5449
38.700001, 95.154, -168.9208
39.500000, 95.074, -169.2262
40.000000, 95.036, -169.2627
40.599998, 94.999, -169.2868
41.200001, 94.966, -169.2390
41.799999, 94.946, -169.1713
42.500000, 94.913, -169.1900
43.099998, 94.849, -169.1243
43.700001, 94.771, -168.7402
44.400002, 94.716, -167.9750
45.000000, 94.709, -167.2917
45.500000, 94.720, -166.7684
46.200001, 94.749, -166.0849
46.799999, 94.796, -165.4954
47.500000, 94.897, -164.8305
48.200001, 95.052, -164.4443
48.700001, 95.174, -164.4323
49.400002, 95.334, -164.7095
50.000000, 95.455, -165.1553
50.799999, 95.567, -166.0173
51.500000, 95.589, -166.7249
52.200001, 95.585, -167.0629
53.000000, 95.609, -167.3026
53.799999, 95.610, -167.7059
54.500000, 95.580, -167.8702
55.200001, 95.575, -167.9164
56.000000, 95.579, -168.2075
57.000000, 95.525, -168.5853
58.000000, 95.470, -168.7561
59.000000, 95.406, -168.8362
60.000000, 95.356, -168.6041
60.799999, 95.349, -168.4826
61.500000, 95.340, -168.4654
62.200001, 95.320, -168.4492
63.000000, 95.289, -168.3919
64.000000, 95.239, -168.2136
65.000000, 95.173, -167.7975
66.000000, 95.174, -166.9454
67.000000, 95.276, -166.3874
68.000000, 95.375, -166.4175
69.000000, 95.452, -166.5924
70.000000, 95.514, -166.8784
71.000000, 95.549, -167.2025
72.000000, 95.569, -167.4274
73.000000, 95.582, -167.5207
74.000000, 95.597, -167.5385
75.000000, 95.617, -167.5505
76.199997, 95.624, -167.6376
77.500000, 95.603, -167.5828
78.800003, 95.586, -167.4091
80.000000, 95.581, -167.2987
81.199997, 95.572, -167.3364
82.500000, 95.557, -167.3057
83.800003, 95.561, -167.3526
85.000000, 95.562, -167.4097
86.199997, 95.581, -167.4901
87.500000, 95.612, -167.6315
88.500000, 95.636, -167.8107
90.000000, 95.655, -168.0468
91.199997, 95.661, -168.1414
92.500000, 95.662, -168.0419
93.800003, 95.660, -167.9169
95.000000, 95.648, -167.8328
96.199997, 95.633, -167.8040
97.500000, 95.604, -167.8368
98.800003, 95.564, -167.8320
100.000000, 95.538, -167.6553
101.500000, 95.542, -167.4234
103.000000, 95.542, -167.2592
104.400002, 95.534, -166.9788
106.000000, 95.552, -166.7034
107.500000, 95.578, -166.6190
109.000000, 95.601, -166.6197
110.599998, 95.605, -166.5084
112.000000, 95.615, -166.3230
113.800003, 95.603, -166.2387
115.000000, 95.586, -166.2135
117.199997, 95.608, -166.2106
118.000000, 95.638, -166.3233
120.599998, 95.647, -166.5785
122.000000, 95.639, -166.0860
124.099998, 95.646, -165.4673
125.000000, 95.638, -165.3245
126.500000, 95.625, -165.1111
128.000000, 95.634, -165.0741
131.500000, 95.691, -165.5990
132.000000, 95.695, -165.6028
134.000000, 95.748, -165.3012
136.000000, 95.829, -165.0734
138.000000, 95.864, -164.9367
140.000000, 95.885, -164.9398
143.000000, 95.921, -165.4880
145.000000, 95.958, -165.3940
147.500000, 95.979, -164.9769
150.000000, 95.850, -164.3616
152.500000, 95.840, -163.8173
155.000000, 95.913, -164.3416
157.500000, 95.889, -164.6438
160.000000, 95.962, -164.8244
162.500000, 96.023, -167.1179
165.000000, 95.809, -167.5487
167.500000, 95.643, -165.3818
170.000000, 95.697, -164.0208
172.500000, 95.881, -165.4508
175.000000, 96.108, -166.7138
177.500000, 96.325, -166.8574
180.000000, 96.347, -167.1078
182.500000, 96.150, -167.5433
185.000000, 96.007, -167.7944
187.500000, 96.021, -167.4644
190.000000, 96.124, -166.8847
192.500000, 96.096, -166.8768
195.000000, 96.034, -167.3384
197.500000, 95.944, -168.5836
200.000000, 95.840, -168.6204
203.000000, 95.784, -168.4571
206.000000, 95.636, -169.3029
209.000000, 95.443, -169.4350
212.000000, 95.257, -168.6708
214.000000, 95.124, -168.1096
218.000000, 94.920, -167.5686
220.000000, 94.847, -167.8585
224.000000, 94.638, -168.0679
227.000000, 94.471, -167.4726
230.000000, 94.379, -166.0891
233.000000, 94.368, -164.4367
236.000000, 94.386, -163.1351
240.000000, 94.317, -161.3301
243.000000, 94.266, -160.0610
247.000000, 94.236, -159.2531
250.000000, 94.222, -158.4740
254.000000, 94.229, -157.1444
258.000000, 94.236, -155.9714
262.000000, 94.241, -154.8582
265.000000, 94.266, -154.1437
269.000000, 94.380, -153.4190
272.000000, 94.459, -152.6484
276.000000, 94.502, -151.5358
280.000000, 94.559, -150.7061
285.000000, 94.686, -149.9140
290.000000, 94.798, -149.2627
295.000000, 94.921, -148.5182
300.000000, 95.031, -147.8294
304.000000, 95.133, -147.4036
307.000000, 95.205, -147.0027
311.000000, 95.254, -146.6654
315.000000, 95.308, -146.7238
320.000000, 95.411, -146.3320
325.000000, 95.488, -145.7229
330.000000, 95.563, -145.5269
335.000000, 95.635, -145.3571
340.000000, 95.716, -145.2510
345.000000, 95.763, -144.9874
350.000000, 95.803, -144.5819
355.000000, 95.871, -144.2033
360.000000, 95.918, -144.1700
365.000000, 95.927, -144.0253
370.000000, 95.973, -143.8078
375.000000, 96.052, -143.5479
382.000000, 96.141, -143.2772
387.000000, 96.208, -143.4051
395.000000, 96.202, -143.0747
400.000000, 96.160, -142.5620
406.000000, 96.195, -142.3395
412.000000, 96.261, -142.1534
418.000000, 96.395, -142.5271
425.000000, 96.424, -143.2682
431.000000, 96.368, -142.0458
437.000000, 96.288, -141.2241
444.000000, 96.260, -141.2490
450.000000, 96.246, -140.1029
455.000000, 96.275, -139.2850
462.000000, 96.328, -138.2329
468.000000, 96.372, -137.6037
475.000000, 96.441, -137.0544
482.000000, 96.598, -136.7495
487.000000, 96.714, -136.5826
494.000000, 96.783, -136.5371
500.000000, 96.838, -136.8577
508.000000, 96.842, -137.0500
515.000000, 96.776, -137.0388
522.000000, 96.763, -136.9247
530.000000, 96.880, -136.7272
538.000000, 96.961, -136.0349
545.000000, 96.989, -135.9647
552.000000, 96.982, -135.8842
560.000000, 97.038, -135.6694
570.000000, 97.204, -135.5867
580.000000, 97.304, -135.6265
590.000000, 97.397, -136.2947
600.000000, 97.479, -137.0881
608.000000, 97.509, -137.8673
615.000000, 97.449, -138.5755
622.000000, 97.230, -138.4038
630.000000, 96.975, -139.0271
640.000000, 96.993, -140.1893
650.000000, 96.995, -140.4161
660.000000, 96.929, -141.1472
670.000000, 96.805, -142.2366
680.000000, 96.477, -143.2631
690.000000, 95.940, -143.6907
700.000000, 95.398, -142.6718
710.000000, 94.920, -140.3683
720.000000, 94.582, -136.3539
730.000000, 94.425, -132.3965
740.000000, 94.337, -129.8935
750.000000, 94.265, -128.6015
762.000000, 94.185, -125.7859
775.000000, 94.547, -124.0937
788.000000, 95.071, -121.8232
800.000000, 95.344, -119.2215
812.000000, 95.499, -117.3408
825.000000, 95.623, -117.2581
838.000000, 95.657, -117.3305
850.000000, 95.714, -117.0207
862.000000, 95.777, -116.5134
875.000000, 95.855, -115.9690
885.000000, 95.929, -115.7861
900.000000, 96.062, -116.1204
912.000000, 96.107, -116.8277
925.000000, 96.019, -117.7186
938.000000, 95.839, -118.2844
950.000000, 95.637, -118.5844
962.000000, 95.364, -118.5649
975.000000, 95.032, -117.3402
988.000000, 94.813, -115.0638
1000.000000, 94.760, -112.9228
1015.000000, 94.816, -111.1167
1030.000000, 94.857, -110.2731
1044.000000, 94.844, -109.9428
1060.000000, 94.839, -109.4816
1075.000000, 94.767, -109.6714
1090.000000, 94.530, -110.0100
1106.000000, 94.200, -109.3383
1120.000000, 93.950, -108.2679
1138.000000, 93.665, -106.7073
1150.000000, 93.483, -105.4311
1172.000000, 93.189, -103.4883
1180.000000, 93.063, -102.9918
1206.000000, 92.512, -100.1903
1220.000000, 92.237, -98.1868
1241.000000, 91.779, -95.5998
1250.000000, 91.488, -94.4329
1265.000000, 90.980, -91.0453
1280.000000, 90.774, -84.7030
1315.000000, 91.525, -70.8171
1320.000000, 91.635, -69.7786
1340.000000, 91.870, -67.5075
1360.000000, 91.923, -64.8399
1380.000000, 92.005, -60.6315
1400.000000, 92.214, -56.9074
1430.000000, 92.574, -51.8172
1450.000000, 92.844, -48.4698
1475.000000, 93.293, -44.6311
1500.000000, 93.781, -42.1906
1525.000000, 94.112, -40.6727
1550.000000, 94.313, -37.9185
1575.000000, 94.599, -34.4444
1600.000000, 94.808, -32.6666
1625.000000, 94.982, -30.2951
1650.000000, 95.260, -27.3221
1675.000000, 95.628, -24.4603
1700.000000, 96.019, -21.7647
1725.000000, 96.441, -19.5657
1750.000000, 96.871, -18.1628
1775.000000, 97.216, -17.5753
1800.000000, 97.355, -17.1564
1825.000000, 97.387, -15.4969
1850.000000, 97.633, -12.4647
1875.000000, 98.071, -10.1114
1900.000000, 98.422, -8.8337
1925.000000, 98.700, -7.7750
1950.000000, 98.932, -6.0223
1975.000000, 99.241, -4.0196
2000.000000, 99.591, -2.7789
2030.000000, 99.953, -1.5701
2060.000000, 100.280, -0.5444
2090.000000, 100.602, 0.4652
2120.000000, 100.918, 1.4888
2140.000000, 101.132, 2.3266
2180.000000, 101.604, 3.6914
2200.000000, 101.845, 4.1897
2240.000000, 102.292, 4.8143
2270.000000, 102.555, 5.0513
2300.000000, 102.794, 5.3600
2330.000000, 103.017, 5.7465
2360.000000, 103.228, 6.2641
2400.000000, 103.524, 7.5851
2430.000000, 103.809, 8.6300
2470.000000, 104.201, 9.5263
2500.000000, 104.497, 9.0815
2540.000000, 104.898, 8.2763
2580.000000, 105.246, 7.3907
2620.000000, 105.467, 5.9970
2650.000000, 105.464, 5.3649
2690.000000, 105.433, 5.8032
2720.000000, 105.551, 6.6776
2760.000000, 105.876, 7.1010
2800.000000, 106.179, 6.3279
2850.000000, 106.313, 4.8649
2900.000000, 106.369, 4.0856
2950.000000, 106.460, 3.1927
3000.000000, 106.479, 1.7039
3040.000000, 106.369, 0.5263
3070.000000, 106.242, 0.0327
3110.000000, 106.084, -0.3234
3150.000000, 105.908, -0.5776
3200.000000, 105.628, -0.5351
3250.000000, 105.314, 0.3213
3300.000000, 105.136, 2.2388
3350.000000, 105.157, 3.2531
3400.000000, 105.022, 2.6882
3450.000000, 104.667, 3.3699
3500.000000, 104.495, 5.4371
3550.000000, 104.549, 6.1309
3600.000000, 104.341, 4.6733
3650.000000, 103.682, 5.2276
3700.000000, 103.225, 9.0954
3750.000000, 103.210, 12.3449
3820.000000, 103.184, 12.9846
3870.000000, 102.781, 12.8907
3950.000000, 101.805, 16.7807
4000.000000, 101.462, 21.5147
4060.000000, 101.272, 25.8823
4120.000000, 100.997, 30.5927
4180.000000, 101.076, 37.7241
4250.000000, 101.974, 41.7147
4310.000000, 102.363, 38.3460
4370.000000, 101.765, 35.3561
4440.000000, 100.653, 37.8854
4500.000000, 99.887, 44.4796
4550.000000, 99.854, 51.5910
4620.000000, 100.177, 54.2157
4680.000000, 99.684, 54.9047
4750.000000, 98.688, 60.8033
4820.000000, 98.306, 75.4825
4870.000000, 99.012, 85.7309
4940.000000, 100.515, 92.3331
5000.000000, 101.736, 92.9505
5080.000000, 102.668, 87.6910
5150.000000, 102.280, 84.4934
5220.000000, 102.023, 86.4922
5300.000000, 101.948, 86.3434
5380.000000, 101.319, 87.8693
5450.000000, 100.934, 92.0509
5520.000000, 100.753, 96.8127
5600.000000, 100.876, 102.7725
5700.000000, 101.292, 107.9692
5800.000000, 101.784, 111.8334
5900.000000, 102.358, 114.1389
6000.000000, 102.845, 113.9028
6080.000000, 103.015, 112.6655
6150.000000, 102.993, 111.4372
6220.000000, 102.849, 110.3416
6300.000000, 102.550, 109.3048
6400.000000, 102.010, 108.6038
6500.000000, 101.249, 108.8010
6600.000000, 100.385, 110.9125
6700.000000, 99.545, 114.1361
6800.000000, 98.708, 118.8588
6900.000000, 98.032, 124.7434
7000.000000, 97.536, 131.2238
7100.000000, 97.195, 137.8519
7200.000000, 96.966, 144.6524
7300.000000, 96.881, 151.4283
7400.000000, 96.891, 157.6426
7500.000000, 96.942, 163.6639
7620.000000, 97.176, 170.8292
7750.000000, 97.624, 177.4271
7880.000000, 98.087, -177.1740
8000.000000, 98.608, -173.3861
8120.000000, 99.202, -171.7054
8250.000000, 99.741, -172.9832
8380.000000, 99.843, -177.2849
8500.000000, 99.371, 178.0305
8620.000000, 98.409, 174.0608
8750.000000, 96.944, 171.2561
8850.000000, 95.566, 170.3389
9000.000000, 93.107, 170.9761
9120.000000, 90.691, 173.5051
9250.000000, 87.346, -177.4293
9380.000000, 84.236, -142.0573
9500.000000, 84.545, -106.1162
9620.000000, 85.902, -93.8280
9750.000000, 86.345, -87.5971
9880.000000, 86.135, -77.9799
10000.000000, 86.023, -65.6489
10150.000000, 86.366, -48.0939
10300.000000, 87.457, -30.6376
10440.000000, 88.970, -18.1218
10600.000000, 90.666, -8.5657
10750.000000, 92.309, -2.2167
10900.000000, 93.693, -0.1813
11060.000000, 94.544, 0.0703
11200.000000, 94.933, 0.8083
11380.000000, 95.167, 2.6745
11500.000000, 95.169, 4.4293
11720.000000, 94.886, 10.5195
11800.000000, 94.815, 14.1901
12060.000000, 95.485, 28.1761
12200.000000, 96.349, 34.1638
12410.000000, 97.924, 39.0134
12500.000000, 98.652, 39.5280
12650.000000, 99.803, 37.5372
12800.000000, 100.605, 32.1927
13150.000000, 99.905, 17.1464
13200.000000, 99.603, 16.1831
