* Measurement data measured by REW V5.31.1
* Source: Headset (DS by VECLAN.COM), MICROPHONE (Master Volume), L, volume: 0.720. Timing signal peak level -11.0 dBFS, measurement signal peak level -4.9 dBFS
* Format: 4M Log Swept Sine, 1 sweep at -12.0 dBFS using an acoustic timing reference
* Dated: Jun 15, 2024 10:59:41 AM
* REW Settings:
*  C-weighting compensation: Off
*  Target level: 85.0 dB
* Note: ; Delay -0.0276 ms (-9.5 mm, -0.37 in) using estimated IR delay relative to Acoustic reference played from HEADPHONE R with no timing offset
* Measurement: Koss KSC75 R5
* Smoothing: 1/24 octave
* Frequency Step: 1/48 octave
* Start Frequency: 1.000 Hz
*
* Freq(Hz), SPL(dB), Phase(degrees)
1.000000, 51.748, 4.2450
1.015000, 51.747, 4.2048
1.030000, 51.746, 4.1645
1.044000, 51.745, 4.1273
1.060000, 51.744, 4.0858
1.075000, 51.743, 4.0482
1.090000, 51.741, 4.0121
1.106000, 51.740, 3.9749
1.120000, 51.739, 3.9419
1.138000, 51.738, 3.8979
1.150000, 51.737, 3.8674
1.172000, 51.735, 3.8029
1.180000, 51.734, 3.7721
1.206000, 51.729, 3.6701
1.220000, 51.727, 3.6136
1.241000, 51.723, 3.5268
1.250000, 51.721, 3.4889
1.265000, 51.718, 3.4247
1.280000, 51.715, 3.3592
1.315000, 51.708, 3.2010
1.320000, 51.707, 3.1778
1.340000, 51.703, 3.0832
1.360000, 51.700, 2.9871
1.380000, 51.697, 2.8500
1.400000, 51.694, 2.6952
1.430000, 51.691, 2.4566
1.450000, 51.684, 2.2921
1.475000, 51.631, 2.0749
1.500000, 51.508, 1.8331
1.525000, 51.354, 1.5650
1.550000, 51.177, 1.2756
1.575000, 50.981, 0.9495
1.600000, 50.770, 0.5754
1.625000, 50.546, 0.1982
1.650000, 50.314, -0.1764
1.675000, 50.076, -0.5425
1.700000, 49.835, -0.8946
1.725000, 49.596, -1.2272
1.750000, 49.360, -1.5349
1.775000, 49.132, -1.8295
1.800000, 48.914, -2.1227
1.825000, 48.709, -2.3804
1.850000, 48.514, -2.6197
1.875000, 48.324, -2.8635
1.900000, 48.136, -3.1158
1.925000, 47.951, -3.3711
1.950000, 47.768, -3.6218
1.975000, 47.587, -3.8769
2.000000, 47.408, -4.1445
2.030000, 47.196, -4.4258
2.060000, 46.986, -4.6514
2.090000, 46.778, -4.8055
2.120000, 46.573, -4.8720
2.140000, 46.438, -4.8598
2.180000, 46.169, -4.7020
2.200000, 46.035, -4.5658
2.240000, 45.758, -4.1838
2.270000, 45.541, -3.8234
2.300000, 45.321, -3.3953
2.330000, 45.101, -2.8893
2.360000, 44.884, -2.2947
2.400000, 44.608, -1.3910
2.430000, 44.416, -0.5856
2.470000, 44.186, 0.6881
2.500000, 44.040, 1.8047
2.540000, 43.885, 3.5176
2.580000, 43.779, 5.4508
2.620000, 43.710, 7.5279
2.650000, 43.680, 9.1820
2.690000, 43.667, 11.5006
2.720000, 43.679, 13.3174
2.760000, 43.726, 15.8367
2.800000, 43.808, 18.4173
2.850000, 43.964, 21.7681
2.900000, 44.182, 25.2074
2.950000, 44.474, 28.3119
3.000000, 44.856, 30.8704
3.040000, 45.222, 32.7543
3.070000, 45.524, 34.0648
3.110000, 45.952, 35.6324
3.150000, 46.398, 36.9575
3.200000, 46.962, 38.2022
3.250000, 47.511, 38.9902
3.300000, 48.032, 39.3765
3.350000, 48.538, 39.5299
3.400000, 49.046, 39.5380
3.450000, 49.555, 39.4186
3.500000, 50.057, 39.1631
3.550000, 50.547, 38.7518
3.600000, 51.017, 38.1414
3.650000, 51.464, 37.3403
3.700000, 51.886, 36.3912
3.750000, 52.288, 35.3574
3.820000, 52.822, 33.8008
3.870000, 53.182, 32.6462
3.950000, 53.723, 30.7399
4.000000, 54.040, 29.4759
4.060000, 54.398, 27.8673
4.120000, 54.731, 26.1646
4.180000, 55.040, 24.4076
4.250000, 55.371, 22.3316
4.310000, 55.630, 20.5945
4.370000, 55.868, 18.8961
4.440000, 56.118, 16.8735
4.500000, 56.308, 15.0766
4.550000, 56.450, 13.5590
4.620000, 56.623, 11.4427
4.680000, 56.749, 9.7070
4.750000, 56.872, 7.8105
4.820000, 56.967, 5.9554
4.870000, 57.018, 4.6138
4.940000, 57.066, 2.7503
5.000000, 57.087, 1.2099
5.080000, 57.086, -0.6591
5.150000, 57.060, -2.0820
5.220000, 57.006, -3.4122
5.300000, 56.913, -4.8345
5.380000, 56.796, -6.0655
5.450000, 56.680, -6.9139
5.520000, 56.550, -7.4799
5.600000, 56.379, -7.8320
5.700000, 56.142, -7.8715
5.800000, 55.924, -7.4064
5.900000, 55.753, -6.3543
6.000000, 55.618, -4.6591
6.080000, 55.546, -2.9560
6.150000, 55.529, -1.3114
6.220000, 55.569, 0.3854
6.300000, 55.692, 2.4078
6.400000, 55.946, 5.0065
6.500000, 56.282, 7.3695
6.600000, 56.677, 9.2378
6.700000, 57.135, 10.6297
6.800000, 57.647, 11.6187
6.900000, 58.168, 12.1314
7.000000, 58.672, 12.1585
7.100000, 59.161, 11.7882
7.200000, 59.634, 11.1315
7.300000, 60.078, 10.2344
7.400000, 60.484, 9.1167
7.500000, 60.856, 7.8073
7.620000, 61.261, 6.1214
7.750000, 61.648, 4.2379
7.880000, 61.983, 2.2713
8.000000, 62.252, 0.4877
8.120000, 62.490, -1.2010
8.250000, 62.712, -2.9540
8.380000, 62.908, -4.5768
8.500000, 63.073, -5.9196
8.620000, 63.224, -7.1306
8.750000, 63.381, -8.2989
8.850000, 63.500, -9.0886
9.000000, 63.680, -10.1082
9.120000, 63.828, -10.8183
9.250000, 63.995, -11.4993
9.380000, 64.169, -12.0942
9.500000, 64.335, -12.5974
9.620000, 64.506, -13.0637
9.750000, 64.696, -13.5308
9.880000, 64.880, -13.9699
10.000000, 65.043, -14.3463
10.150000, 65.238, -14.8131
10.300000, 65.427, -15.2202
10.440000, 65.600, -15.5458
10.600000, 65.799, -15.8567
10.750000, 65.993, -16.0894
10.900000, 66.194, -16.2793
11.060000, 66.418, -16.4854
11.200000, 66.624, -16.6942
11.380000, 66.894, -16.9843
11.500000, 67.076, -17.2015
11.720000, 67.408, -17.6586
11.800000, 67.528, -17.8478
12.060000, 67.906, -18.5449
12.200000, 68.099, -18.9824
12.410000, 68.373, -19.6279
12.500000, 68.483, -19.8857
12.650000, 68.656, -20.2830
12.800000, 68.821, -20.6254
13.150000, 69.189, -21.2265
13.200000, 69.242, -21.2964
13.400000, 69.459, -21.5228
13.600000, 69.685, -21.7052
13.800000, 69.922, -21.8851
14.000000, 70.165, -22.1177
14.300000, 70.532, -22.6914
14.500000, 70.767, -23.1868
14.750000, 71.039, -23.8998
15.000000, 71.284, -24.6692
15.250000, 71.504, -25.4775
15.500000, 71.699, -26.2068
15.750000, 71.874, -26.8102
16.000000, 72.039, -27.2662
16.250000, 72.205, -27.6255
16.500000, 72.379, -27.8677
16.750000, 72.567, -28.0316
17.000000, 72.773, -28.1717
17.250000, 72.997, -28.3666
17.500000, 73.233, -28.6355
17.750000, 73.475, -29.0077
18.000000, 73.713, -29.4940
18.250000, 73.939, -30.0984
18.500000, 74.146, -30.7548
18.750000, 74.331, -31.3973
19.000000, 74.497, -31.9610
19.250000, 74.652, -32.4148
19.500000, 74.806, -32.7136
19.750000, 74.971, -32.8756
20.000000, 75.155, -32.9585
20.299999, 75.403, -33.0968
20.600000, 75.672, -33.3563
20.900000, 75.940, -33.7923
21.200001, 76.190, -34.3949
21.400000, 76.339, -34.8399
21.799999, 76.597, -35.6793
22.000000, 76.712, -36.0280
22.400000, 76.933, -36.5788
22.700001, 77.103, -36.8764
23.000000, 77.280, -37.1391
23.299999, 77.460, -37.4259
23.600000, 77.638, -37.7226
24.000000, 77.872, -38.0962
24.299999, 78.049, -38.3635
24.700001, 78.299, -38.7267
25.000000, 78.497, -39.0723
25.400000, 78.760, -39.7317
25.799999, 78.997, -40.5609
26.200001, 79.192, -41.4057
26.500000, 79.317, -41.9330
26.900000, 79.480, -42.4084
27.200001, 79.617, -42.6334
27.600000, 79.830, -42.8899
28.000000, 80.068, -43.2323
28.500000, 80.365, -43.8517
29.000000, 80.646, -44.5432
29.500000, 80.919, -45.2244
30.000000, 81.194, -45.9442
30.400000, 81.403, -46.6059
30.700001, 81.545, -47.1213
31.100000, 81.714, -47.7632
31.500000, 81.869, -48.2902
32.000000, 82.069, -48.7671
32.500000, 82.289, -49.2051
33.000000, 82.518, -49.7419
33.500000, 82.732, -50.3832
34.000000, 82.929, -51.0031
34.500000, 83.124, -51.5473
35.000000, 83.328, -52.0606
35.500000, 83.539, -52.6325
36.000000, 83.743, -53.2672
36.500000, 83.935, -53.9063
37.000000, 84.124, -54.4947
37.500000, 84.319, -55.0646
38.200001, 84.598, -55.9531
38.700001, 84.783, -56.6719
39.500000, 85.042, -57.7414
40.000000, 85.200, -58.2668
40.599998, 85.406, -58.8522
41.200001, 85.620, -59.5174
41.799999, 85.822, -60.2522
42.500000, 86.046, -61.0684
43.099998, 86.243, -61.7495
43.700001, 86.437, -62.4799
44.400002, 86.644, -63.2857
45.000000, 86.823, -63.8240
45.500000, 86.995, -64.2492
46.200001, 87.252, -65.0538
46.799999, 87.450, -65.9446
47.500000, 87.639, -66.9383
48.200001, 87.819, -67.7444
48.700001, 87.955, -68.2825
49.400002, 88.146, -69.0620
50.000000, 88.308, -69.7365
50.799999, 88.527, -70.6587
51.500000, 88.716, -71.5282
52.200001, 88.896, -72.4092
53.000000, 89.098, -73.3667
53.799999, 89.303, -74.3018
54.500000, 89.483, -75.1259
55.200001, 89.658, -75.9801
56.000000, 89.843, -76.9520
57.000000, 90.061, -78.1074
58.000000, 90.253, -79.2904
59.000000, 90.423, -80.1563
60.000000, 90.677, -81.0231
60.799999, 90.884, -82.2682
61.500000, 91.011, -83.5023
62.200001, 91.115, -84.5764
63.000000, 91.243, -85.6731
64.000000, 91.406, -87.0315
65.000000, 91.568, -88.3064
66.000000, 91.732, -89.5277
67.000000, 91.887, -90.7172
68.000000, 92.033, -91.8788
69.000000, 92.170, -93.0127
70.000000, 92.301, -94.1723
71.000000, 92.418, -95.3808
72.000000, 92.522, -96.5479
73.000000, 92.628, -97.6609
74.000000, 92.732, -98.7797
75.000000, 92.831, -99.8684
76.199997, 92.944, -101.1022
77.500000, 93.065, -102.3596
78.800003, 93.185, -103.5532
80.000000, 93.298, -104.6387
81.199997, 93.413, -105.7200
82.500000, 93.540, -106.9022
83.800003, 93.667, -108.0966
85.000000, 93.787, -109.2215
86.199997, 93.906, -110.3834
87.500000, 94.033, -111.6974
88.500000, 94.127, -112.7584
90.000000, 94.254, -114.4559
91.199997, 94.337, -115.8870
92.500000, 94.401, -117.4748
93.800003, 94.432, -119.0314
95.000000, 94.435, -120.3439
96.199997, 94.423, -121.4827
97.500000, 94.408, -122.5158
98.800003, 94.404, -123.4226
100.000000, 94.408, -124.2105
101.500000, 94.418, -125.1617
103.000000, 94.433, -126.0757
104.400002, 94.451, -126.9090
106.000000, 94.470, -127.8375
107.500000, 94.485, -128.6493
109.000000, 94.503, -129.4061
110.599998, 94.528, -130.1964
112.000000, 94.554, -130.8917
113.800003, 94.590, -131.7894
115.000000, 94.613, -132.3851
117.199997, 94.648, -133.4544
118.000000, 94.658, -133.8292
120.599998, 94.701, -135.0261
122.000000, 94.726, -135.7677
124.099998, 94.752, -136.8512
125.000000, 94.763, -137.2888
126.500000, 94.779, -137.9818
128.000000, 94.795, -138.6501
131.500000, 94.822, -140.1627
132.000000, 94.826, -140.3748
134.000000, 94.838, -141.2095
136.000000, 94.849, -142.0203
138.000000, 94.858, -142.8217
140.000000, 94.863, -143.6095
143.000000, 94.869, -144.7394
145.000000, 94.871, -145.4502
147.500000, 94.867, -146.3020
150.000000, 94.854, -147.1237
152.500000, 94.839, -147.9205
155.000000, 94.821, -148.6924
157.500000, 94.800, -149.4248
160.000000, 94.771, -150.1234
162.500000, 94.740, -150.7514
165.000000, 94.710, -151.3393
167.500000, 94.677, -151.8891
170.000000, 94.639, -152.3795
172.500000, 94.599, -152.8163
175.000000, 94.560, -153.1943
177.500000, 94.526, -153.5068
180.000000, 94.498, -153.7733
182.500000, 94.477, -154.0409
185.000000, 94.462, -154.3020
187.500000, 94.453, -154.5801
190.000000, 94.443, -154.8998
192.500000, 94.428, -155.2443
195.000000, 94.412, -155.5942
197.500000, 94.394, -155.9349
200.000000, 94.374, -156.2657
203.000000, 94.350, -156.6393
206.000000, 94.326, -156.9981
209.000000, 94.300, -157.3403
212.000000, 94.272, -157.6707
214.000000, 94.252, -157.8653
218.000000, 94.213, -158.2400
220.000000, 94.191, -158.4047
224.000000, 94.149, -158.6677
227.000000, 94.122, -158.8486
230.000000, 94.098, -159.0343
233.000000, 94.073, -159.2164
236.000000, 94.047, -159.3866
240.000000, 94.013, -159.6125
243.000000, 93.990, -159.7644
247.000000, 93.959, -159.9492
250.000000, 93.935, -160.0744
254.000000, 93.903, -160.2203
258.000000, 93.871, -160.3408
262.000000, 93.840, -160.4422
265.000000, 93.818, -160.5062
269.000000, 93.788, -160.5805
272.000000, 93.767, -160.6271
276.000000, 93.742, -160.6824
280.000000, 93.719, -160.7244
285.000000, 93.693, -160.7718
290.000000, 93.671, -160.8015
295.000000, 93.647, -160.8400
300.000000, 93.618, -160.8814
304.000000, 93.595, -160.8857
307.000000, 93.578, -160.8758
311.000000, 93.554, -160.8624
315.000000, 93.529, -160.8428
320.000000, 93.497, -160.7878
325.000000, 93.466, -160.6608
330.000000, 93.441, -160.5042
335.000000, 93.423, -160.3824
340.000000, 93.406, -160.2584
345.000000, 93.384, -160.1451
350.000000, 93.362, -160.0137
355.000000, 93.342, -159.8793
360.000000, 93.321, -159.7343
365.000000, 93.300, -159.5864
370.000000, 93.280, -159.4215
375.000000, 93.260, -159.2493
382.000000, 93.234, -158.9785
387.000000, 93.214, -158.7892
395.000000, 93.185, -158.4979
400.000000, 93.167, -158.2941
406.000000, 93.147, -158.0375
412.000000, 93.129, -157.7914
418.000000, 93.112, -157.5211
425.000000, 93.093, -157.2179
431.000000, 93.078, -156.9380
437.000000, 93.063, -156.6365
444.000000, 93.043, -156.3039
450.000000, 93.027, -156.0359
455.000000, 93.014, -155.7797
462.000000, 92.998, -155.4328
468.000000, 92.986, -155.1215
475.000000, 92.972, -154.7532
482.000000, 92.960, -154.3700
487.000000, 92.952, -154.0849
494.000000, 92.946, -153.6592
500.000000, 92.942, -153.3275
508.000000, 92.941, -152.8867
515.000000, 92.940, -152.4810
522.000000, 92.938, -152.0679
530.000000, 92.938, -151.6058
538.000000, 92.942, -151.1449
545.000000, 92.948, -150.7492
552.000000, 92.955, -150.3469
560.000000, 92.964, -149.8897
570.000000, 92.974, -149.3142
580.000000, 92.986, -148.7350
590.000000, 93.000, -148.1643
600.000000, 93.012, -147.6103
608.000000, 93.020, -147.1600
615.000000, 93.027, -146.7485
622.000000, 93.036, -146.3470
630.000000, 93.045, -145.9104
640.000000, 93.054, -145.3556
650.000000, 93.065, -144.7777
660.000000, 93.078, -144.1996
670.000000, 93.092, -143.6219
680.000000, 93.107, -143.0572
690.000000, 93.124, -142.4623
700.000000, 93.140, -141.8911
710.000000, 93.155, -141.3203
720.000000, 93.171, -140.7218
730.000000, 93.192, -140.1169
740.000000, 93.215, -139.5060
750.000000, 93.241, -138.9054
762.000000, 93.272, -138.2297
775.000000, 93.304, -137.5067
788.000000, 93.333, -136.7846
800.000000, 93.358, -136.1206
812.000000, 93.385, -135.4206
825.000000, 93.417, -134.6857
838.000000, 93.448, -133.9680
850.000000, 93.477, -133.2920
862.000000, 93.504, -132.6300
875.000000, 93.532, -131.8944
885.000000, 93.555, -131.3135
900.000000, 93.592, -130.4650
912.000000, 93.621, -129.7891
925.000000, 93.654, -129.0371
938.000000, 93.688, -128.3056
950.000000, 93.717, -127.6184
962.000000, 93.746, -126.9196
975.000000, 93.778, -126.1457
988.000000, 93.810, -125.3854
1000.000000, 93.839, -124.6723
1015.000000, 93.880, -123.7660
1030.000000, 93.926, -122.8691
1044.000000, 93.973, -122.0635
1060.000000, 94.025, -121.1680
1075.000000, 94.067, -120.3222
1090.000000, 94.113, -119.4463
1106.000000, 94.176, -118.4726
1120.000000, 94.241, -117.6163
1138.000000, 94.326, -116.5335
1150.000000, 94.385, -115.7940
1172.000000, 94.490, -114.4243
1180.000000, 94.532, -113.9279
1206.000000, 94.680, -112.3579
1220.000000, 94.765, -111.5166
1241.000000, 94.895, -110.2622
1250.000000, 94.953, -109.6993
1265.000000, 95.054, -108.7733
1280.000000, 95.160, -107.8685
1315.000000, 95.411, -105.8284
1320.000000, 95.446, -105.5402
1340.000000, 95.586, -104.3924
1360.000000, 95.717, -103.2399
1380.000000, 95.847, -102.1342
1400.000000, 95.992, -100.9750
1430.000000, 96.239, -99.2109
1450.000000, 96.427, -98.1557
1475.000000, 96.653, -97.0705
1500.000000, 96.848, -96.0580
1525.000000, 97.023, -94.8804
1550.000000, 97.217, -93.4557
1575.000000, 97.452, -92.0701
1600.000000, 97.702, -90.8934
1625.000000, 97.942, -89.8261
1650.000000, 98.186, -88.7048
1675.000000, 98.449, -87.6883
1700.000000, 98.709, -86.7752
1725.000000, 98.981, -85.9297
1750.000000, 99.240, -85.2343
1775.000000, 99.487, -84.4754
1800.000000, 99.757, -83.7163
1825.000000, 100.032, -83.1172
1850.000000, 100.304, -82.5052
1875.000000, 100.599, -81.9543
1900.000000, 100.894, -81.6322
1925.000000, 101.175, -81.3118
1950.000000, 101.473, -81.0439
1975.000000, 101.768, -81.0384
2000.000000, 102.051, -81.0852
2030.000000, 102.390, -81.3549
2060.000000, 102.685, -81.7776
2090.000000, 102.968, -82.0504
2120.000000, 103.261, -82.4751
2140.000000, 103.445, -82.8241
2180.000000, 103.820, -83.5391
2200.000000, 103.993, -84.1038
2240.000000, 104.277, -85.1477
2270.000000, 104.479, -85.7595
2300.000000, 104.700, -86.2908
2330.000000, 104.947, -87.0500
2360.000000, 105.169, -88.0914
2400.000000, 105.410, -89.6599
2430.000000, 105.565, -90.7854
2470.000000, 105.754, -92.4683
2500.000000, 105.842, -93.8540
2540.000000, 105.892, -95.4549
2580.000000, 105.914, -96.5546
2620.000000, 105.973, -97.4694
2650.000000, 106.020, -98.2716
2690.000000, 106.050, -99.3283
2720.000000, 106.058, -100.0921
2760.000000, 106.051, -100.8416
2800.000000, 106.073, -101.6034
2850.000000, 106.051, -102.7127
2900.000000, 105.979, -103.3654
2950.000000, 105.967, -103.6302
3000.000000, 106.016, -104.2197
3040.000000, 106.003, -105.1090
3070.000000, 105.961, -105.5916
3110.000000, 105.903, -106.1262
3150.000000, 105.841, -106.5880
3200.000000, 105.727, -107.1801
3250.000000, 105.570, -107.3001
3300.000000, 105.454, -106.7262
3350.000000, 105.440, -106.1317
3400.000000, 105.484, -105.8128
3450.000000, 105.584, -105.9333
3500.000000, 105.653, -106.8744
3550.000000, 105.614, -108.1006
3600.000000, 105.479, -109.1927
3650.000000, 105.262, -110.0085
3700.000000, 104.987, -110.3102
3750.000000, 104.707, -109.9507
3820.000000, 104.268, -109.4666
3870.000000, 103.772, -107.9816
3950.000000, 103.149, -101.0323
4000.000000, 103.142, -94.5607
4060.000000, 103.869, -86.0130
4120.000000, 105.308, -81.3704
4180.000000, 106.847, -82.2647
4250.000000, 108.324, -88.4981
4310.000000, 109.098, -97.0358
4370.000000, 109.272, -106.9692
4440.000000, 108.799, -117.2192
4500.000000, 108.048, -123.4952
4550.000000, 107.321, -127.3320
4620.000000, 106.197, -130.8694
4680.000000, 105.276, -132.1506
4750.000000, 104.340, -133.2000
4820.000000, 103.375, -134.3994
4870.000000, 102.584, -135.0846
4940.000000, 101.243, -134.8695
5000.000000, 99.904, -131.9415
5080.000000, 98.345, -122.2931
5150.000000, 97.779, -110.9883
5220.000000, 97.952, -101.9200
5300.000000, 98.435, -95.9126
5380.000000, 98.865, -92.7217
5450.000000, 99.120, -91.3360
5520.000000, 99.236, -90.5933
5600.000000, 99.222, -89.8775
5700.000000, 99.040, -88.7104
5800.000000, 98.761, -86.5279
5900.000000, 98.589, -83.4363
6000.000000, 98.574, -80.8129
6080.000000, 98.602, -79.5454
6150.000000, 98.570, -79.1591
6220.000000, 98.418, -79.1086
6300.000000, 98.107, -78.6335
6400.000000, 97.635, -77.2350
6500.000000, 97.067, -75.0867
6600.000000, 96.481, -71.1706
6700.000000, 96.082, -66.3808
6800.000000, 95.791, -61.8007
6900.000000, 95.529, -57.0635
7000.000000, 95.319, -51.5545
7100.000000, 95.262, -45.3059
7200.000000, 95.363, -39.1121
7300.000000, 95.571, -32.8571
7400.000000, 95.965, -26.2231
7500.000000, 96.650, -20.1550
7620.000000, 97.698, -15.5032
7750.000000, 98.720, -13.3821
7880.000000, 99.458, -11.8802
8000.000000, 100.175, -10.1612
8120.000000, 101.056, -9.6266
8250.000000, 101.997, -11.5954
8380.000000, 102.712, -15.7054
8500.000000, 103.110, -20.6644
8620.000000, 103.251, -26.1398
8750.000000, 103.117, -32.6043
8850.000000, 102.759, -37.7605
9000.000000, 101.691, -44.5827
9120.000000, 100.410, -47.4162
9250.000000, 98.911, -46.3233
9380.000000, 97.724, -42.0280
9500.000000, 97.026, -37.4331
9620.000000, 96.570, -33.5330
9750.000000, 96.157, -29.9587
9880.000000, 95.804, -26.3740
10000.000000, 95.588, -23.2032
10150.000000, 95.371, -19.9876
10300.000000, 95.198, -16.9266
10440.000000, 95.179, -14.4066
10600.000000, 95.300, -13.4494
10750.000000, 95.276, -14.9403
10900.000000, 94.925, -17.5358
11060.000000, 94.179, -20.0102
11200.000000, 93.293, -21.1558
11380.000000, 91.886, -21.0837
11500.000000, 90.755, -19.1482
11720.000000, 88.719, -7.6542
11800.000000, 88.324, -0.5430
12060.000000, 89.457, 20.0739
12200.000000, 90.858, 23.6117
12410.000000, 92.946, 20.8452
12500.000000, 93.805, 17.4692
12650.000000, 95.207, 9.0886
12800.000000, 96.547, -2.9260
13150.000000, 98.807, -45.3700
13200.000000, 98.934, -52.7678
13400.000000, 98.763, -83.6877
13600.000000, 97.465, -112.8740
13800.000000, 95.338, -135.2561
14000.000000, 93.332, -148.3916
14300.000000, 92.420, -160.5907
14500.000000, 92.443, -171.0940
14750.000000, 91.681, 173.6753
15000.000000, 89.534, 163.3085
15250.000000, 86.847, 163.8031
