* Measurement data measured by REW V5.31.3
* Source: Headset (DS by VECLAN.COM), MICROPHONE (Master Volume), L, volume: 0.720. Timing signal peak level -7.7 dBFS, measurement signal peak level -7.7 dBFS
* Format: 2M Log Swept Sine, 1 sweep at -23.7 dBFS using an acoustic timing reference
* Dated: Oct 15, 2024 2:42:09 PM
* REW Settings:
*  C-weighting compensation: Off
*  Target level: 85.0 dB
* Note: ; Fosi DS1 Delay -0.0551 ms (-19 mm, -0.74 in) using estimated IR delay relative to Acoustic reference played from SPEAKER R with no timing offset Clock adjustment: -26.1 ppm
* Measurement: Philips SHP9500 S2 R3
* Smoothing: 1/24 octave
* Frequency Step: 1/48 octave
* Start Frequency: 1.000 Hz
*
* Freq(Hz), SPL(dB), Phase(degrees)
1.000000, 53.272, 27.1096
1.015000, 53.262, 27.0927
1.030000, 53.253, 27.0402
1.044000, 53.246, 26.9573
1.060000, 53.241, 26.8206
1.075000, 53.238, 26.6503
1.090000, 53.238, 26.4393
1.106000, 53.239, 26.1787
1.120000, 53.242, 25.9379
1.138000, 53.248, 25.6219
1.150000, 53.253, 25.4068
1.172000, 53.265, 24.9949
1.180000, 53.270, 24.8352
1.206000, 53.290, 24.2911
1.220000, 53.302, 23.9790
1.241000, 53.324, 23.4811
1.250000, 53.334, 23.2556
1.265000, 53.351, 22.8621
1.280000, 53.371, 22.4447
1.315000, 53.422, 21.3692
1.320000, 53.430, 21.2032
1.340000, 53.463, 20.5059
1.360000, 53.499, 19.7551
1.380000, 53.537, 18.9106
1.400000, 53.578, 17.9941
1.430000, 53.644, 16.5101
1.450000, 53.691, 15.4503
1.475000, 53.753, 14.0675
1.500000, 53.816, 12.6653
1.525000, 53.881, 11.2652
1.550000, 53.948, 9.8745
1.575000, 54.018, 8.4828
1.600000, 54.092, 7.0835
1.625000, 54.170, 5.7147
1.650000, 54.254, 4.3836
1.675000, 54.343, 3.0975
1.700000, 54.438, 1.8633
1.725000, 54.541, 0.6871
1.750000, 54.652, -0.4254
1.775000, 54.772, -1.4844
1.800000, 54.901, -2.5052
1.825000, 55.040, -3.4989
1.850000, 55.191, -4.5625
1.875000, 55.356, -5.6408
1.900000, 55.532, -6.6596
1.925000, 55.719, -7.6124
1.950000, 55.916, -8.5057
1.975000, 56.120, -9.3584
2.000000, 56.330, -10.1885
2.030000, 56.588, -11.1352
2.060000, 56.850, -12.0394
2.090000, 57.112, -12.9107
2.120000, 57.373, -13.7573
2.140000, 57.545, -14.3114
2.180000, 57.879, -15.4194
2.200000, 58.042, -15.9782
2.240000, 58.364, -17.0322
2.270000, 58.607, -17.7539
2.300000, 58.850, -18.4223
2.330000, 59.093, -19.0457
2.360000, 59.335, -19.6324
2.400000, 59.657, -20.4077
2.430000, 59.896, -20.9690
2.470000, 60.210, -21.6940
2.500000, 60.442, -22.2265
2.540000, 60.745, -22.9278
2.580000, 61.041, -23.6283
2.620000, 61.331, -24.3184
2.650000, 61.546, -24.8032
2.690000, 61.827, -25.4118
2.720000, 62.035, -25.8447
2.760000, 62.308, -26.3954
2.800000, 62.576, -26.9612
2.850000, 62.904, -27.6547
2.900000, 63.223, -28.3370
2.950000, 63.534, -29.0088
3.000000, 63.836, -29.6796
3.040000, 64.072, -30.2005
3.070000, 64.246, -30.5771
3.110000, 64.472, -31.0628
3.150000, 64.694, -31.5326
3.200000, 64.965, -32.1318
3.250000, 65.229, -32.7312
3.300000, 65.486, -33.3212
3.350000, 65.735, -33.8992
3.400000, 65.977, -34.4856
3.450000, 66.211, -35.0629
3.500000, 66.438, -35.6191
3.550000, 66.659, -36.1537
3.600000, 66.874, -36.6946
3.650000, 67.083, -37.2293
3.700000, 67.286, -37.7518
3.750000, 67.483, -38.2650
3.820000, 67.747, -38.9896
3.870000, 67.929, -39.4912
3.950000, 68.210, -40.2458
4.000000, 68.379, -40.7089
4.060000, 68.575, -41.2501
4.120000, 68.763, -41.7733
4.180000, 68.944, -42.2836
4.250000, 69.146, -42.8728
4.310000, 69.314, -43.3381
4.370000, 69.477, -43.7657
4.440000, 69.661, -44.2471
4.500000, 69.812, -44.6324
4.550000, 69.934, -44.9338
4.620000, 70.101, -45.3452
4.680000, 70.241, -45.6667
4.750000, 70.403, -45.9933
4.820000, 70.562, -46.2910
4.870000, 70.674, -46.4816
4.940000, 70.828, -46.7161
5.000000, 70.959, -46.9058
5.080000, 71.136, -47.1375
5.150000, 71.293, -47.3063
5.220000, 71.451, -47.4574
5.300000, 71.634, -47.6016
5.380000, 71.819, -47.7335
5.450000, 71.984, -47.8722
5.520000, 72.152, -48.0119
5.600000, 72.348, -48.1694
5.700000, 72.599, -48.3805
5.800000, 72.853, -48.6421
5.900000, 73.110, -48.9900
6.000000, 73.372, -49.3851
6.080000, 73.583, -49.7467
6.150000, 73.767, -50.0983
6.220000, 73.947, -50.5107
6.300000, 74.150, -51.0354
6.400000, 74.400, -51.7548
6.500000, 74.643, -52.5457
6.600000, 74.874, -53.4037
6.700000, 75.093, -54.3478
6.800000, 75.301, -55.3454
6.900000, 75.494, -56.3762
7.000000, 75.670, -57.4230
7.100000, 75.829, -58.5090
7.200000, 75.972, -59.5999
7.300000, 76.099, -60.6648
7.400000, 76.211, -61.6927
7.500000, 76.309, -62.7039
7.620000, 76.408, -63.8489
7.750000, 76.497, -64.9565
7.880000, 76.567, -65.9527
8.000000, 76.621, -66.7454
8.120000, 76.672, -67.3959
8.250000, 76.724, -67.9472
8.380000, 76.779, -68.3550
8.500000, 76.840, -68.6097
8.620000, 76.910, -68.7516
8.750000, 77.001, -68.8296
8.850000, 77.085, -68.8587
9.000000, 77.232, -68.8532
9.120000, 77.366, -68.8633
9.250000, 77.525, -68.9236
9.380000, 77.698, -69.0309
9.500000, 77.863, -69.2035
9.620000, 78.030, -69.4502
9.750000, 78.211, -69.7932
9.880000, 78.381, -70.2011
10.000000, 78.521, -70.6258
10.150000, 78.676, -71.2369
10.300000, 78.811, -71.8542
10.440000, 78.919, -72.4246
10.600000, 79.027, -73.0364
10.750000, 79.119, -73.5447
10.900000, 79.205, -73.9868
11.060000, 79.297, -74.4026
11.200000, 79.379, -74.7406
11.380000, 79.488, -75.0981
11.500000, 79.564, -75.2948
11.720000, 79.714, -75.6106
11.800000, 79.773, -75.7219
12.060000, 79.978, -76.1212
12.200000, 80.095, -76.4055
12.410000, 80.273, -76.8800
12.500000, 80.346, -77.1014
12.650000, 80.464, -77.4913
12.800000, 80.574, -77.8950
13.150000, 80.801, -78.8807
13.200000, 80.830, -79.0228
13.400000, 80.942, -79.5585
13.600000, 81.045, -80.0266
13.800000, 81.143, -80.4176
14.000000, 81.241, -80.7399
14.300000, 81.390, -81.1800
14.500000, 81.494, -81.4274
14.750000, 81.628, -81.7134
15.000000, 81.768, -81.9998
15.250000, 81.915, -82.3505
15.500000, 82.061, -82.7172
15.750000, 82.203, -83.0930
16.000000, 82.341, -83.4734
16.250000, 82.476, -83.9011
16.500000, 82.608, -84.3322
16.750000, 82.736, -84.7672
17.000000, 82.860, -85.2079
17.250000, 82.980, -85.6761
17.500000, 83.093, -86.1269
17.750000, 83.199, -86.5385
18.000000, 83.302, -86.9024
18.250000, 83.406, -87.2442
18.500000, 83.514, -87.5485
18.750000, 83.630, -87.8376
19.000000, 83.754, -88.1434
19.250000, 83.883, -88.5242
19.500000, 84.011, -88.9638
19.750000, 84.131, -89.4558
20.000000, 84.239, -89.9750
20.299999, 84.349, -90.6126
20.600000, 84.441, -91.1662
20.900000, 84.525, -91.5922
21.200001, 84.611, -91.9088
21.400000, 84.675, -92.0759
21.799999, 84.822, -92.3775
22.000000, 84.903, -92.5536
22.400000, 85.071, -93.0406
22.700001, 85.190, -93.4953
23.000000, 85.295, -93.9903
23.299999, 85.387, -94.4958
23.600000, 85.469, -94.9646
24.000000, 85.570, -95.5166
24.299999, 85.646, -95.9083
24.700001, 85.745, -96.4094
25.000000, 85.814, -96.7742
25.400000, 85.896, -97.2444
25.799999, 85.969, -97.6365
26.200001, 86.038, -97.9460
26.500000, 86.092, -98.1344
26.900000, 86.166, -98.3337
27.200001, 86.220, -98.4548
27.600000, 86.291, -98.5513
28.000000, 86.362, -98.5289
28.500000, 86.468, -98.3455
29.000000, 86.611, -98.0647
29.500000, 86.788, -97.8653
30.000000, 86.974, -97.8284
30.400000, 87.117, -97.8946
30.700001, 87.220, -97.9503
31.100000, 87.358, -98.0102
31.500000, 87.501, -98.0713
32.000000, 87.692, -98.2028
32.500000, 87.886, -98.4615
33.000000, 88.073, -98.8336
33.500000, 88.251, -99.2995
34.000000, 88.425, -99.8171
34.500000, 88.594, -100.3972
35.000000, 88.755, -101.0555
35.500000, 88.900, -101.7841
36.000000, 89.030, -102.5304
36.500000, 89.146, -103.2673
37.000000, 89.252, -103.9832
37.500000, 89.350, -104.6989
38.200001, 89.467, -105.6781
38.700001, 89.535, -106.3327
39.500000, 89.625, -107.2324
40.000000, 89.676, -107.7052
40.599998, 89.734, -108.2503
41.200001, 89.779, -108.7523
41.799999, 89.806, -109.1334
42.500000, 89.834, -109.3151
43.099998, 89.879, -109.2906
43.700001, 89.948, -109.2069
44.400002, 90.044, -109.0783
45.000000, 90.149, -108.8976
45.500000, 90.265, -108.7559
46.200001, 90.456, -108.8021
46.799999, 90.614, -109.0859
47.500000, 90.775, -109.4458
48.200001, 90.941, -109.7684
48.700001, 91.068, -110.0775
49.400002, 91.235, -110.6959
50.000000, 91.352, -111.3281
50.799999, 91.466, -112.1808
51.500000, 91.528, -112.8749
52.200001, 91.555, -113.3816
53.000000, 91.573, -113.5578
53.799999, 91.618, -113.3830
54.500000, 91.703, -113.0711
55.200001, 91.835, -112.7911
56.000000, 92.028, -112.6880
57.000000, 92.292, -112.9075
58.000000, 92.561, -113.4810
59.000000, 92.813, -114.3960
60.000000, 93.006, -115.4190
60.799999, 93.139, -116.1341
61.500000, 93.264, -116.7113
62.200001, 93.386, -117.3571
63.000000, 93.510, -118.1600
64.000000, 93.649, -119.1212
65.000000, 93.768, -120.1488
66.000000, 93.880, -121.0550
67.000000, 94.005, -121.9298
68.000000, 94.117, -122.9309
69.000000, 94.211, -123.8475
70.000000, 94.302, -124.6859
71.000000, 94.386, -125.5434
72.000000, 94.456, -126.3914
73.000000, 94.511, -127.1415
74.000000, 94.566, -127.8224
75.000000, 94.626, -128.5056
76.199997, 94.696, -129.3228
77.500000, 94.773, -130.1146
78.800003, 94.863, -130.8503
80.000000, 94.951, -131.5909
81.199997, 95.035, -132.3533
82.500000, 95.120, -133.1949
83.800003, 95.199, -134.0198
85.000000, 95.269, -134.7984
86.199997, 95.334, -135.6197
87.500000, 95.403, -136.4824
88.500000, 95.452, -137.1954
90.000000, 95.511, -138.3186
91.199997, 95.540, -139.2072
92.500000, 95.557, -139.9832
93.800003, 95.572, -140.6130
95.000000, 95.591, -141.0958
96.199997, 95.625, -141.4764
97.500000, 95.684, -141.8665
98.800003, 95.763, -142.4008
100.000000, 95.837, -143.0660
101.500000, 95.919, -144.0665
103.000000, 95.983, -145.1253
104.400002, 96.028, -146.1393
106.000000, 96.062, -147.2818
107.500000, 96.074, -148.3589
109.000000, 96.065, -149.3073
110.599998, 96.057, -150.2855
112.000000, 96.040, -151.1524
113.800003, 95.997, -152.1659
115.000000, 95.960, -152.7834
117.199997, 95.900, -153.7258
118.000000, 95.887, -154.0343
120.599998, 95.856, -155.0684
122.000000, 95.830, -155.6344
124.099998, 95.766, -156.2834
125.000000, 95.743, -156.4857
126.500000, 95.712, -156.7969
128.000000, 95.682, -157.1784
131.500000, 95.614, -157.9246
132.000000, 95.606, -158.0071
134.000000, 95.584, -158.3278
136.000000, 95.574, -158.7043
138.000000, 95.574, -159.1463
140.000000, 95.583, -159.5423
143.000000, 95.579, -160.2590
145.000000, 95.542, -160.6859
147.500000, 95.522, -161.1777
150.000000, 95.523, -162.0260
152.500000, 95.481, -162.7694
155.000000, 95.425, -163.2016
157.500000, 95.372, -163.6608
160.000000, 95.304, -164.1250
162.500000, 95.236, -164.4303
165.000000, 95.173, -164.6028
167.500000, 95.117, -164.7646
170.000000, 95.061, -164.8814
172.500000, 95.004, -164.9236
175.000000, 94.954, -164.9365
177.500000, 94.910, -165.0011
180.000000, 94.871, -165.1259
182.500000, 94.840, -165.1918
185.000000, 94.811, -165.2298
187.500000, 94.784, -165.2329
190.000000, 94.757, -165.2985
192.500000, 94.737, -165.3882
195.000000, 94.721, -165.4026
197.500000, 94.701, -165.4050
200.000000, 94.670, -165.4089
203.000000, 94.627, -165.4409
206.000000, 94.589, -165.4551
209.000000, 94.566, -165.4183
212.000000, 94.545, -165.3835
214.000000, 94.528, -165.3094
218.000000, 94.496, -165.1712
220.000000, 94.480, -165.1390
224.000000, 94.450, -165.0179
227.000000, 94.433, -164.9200
230.000000, 94.421, -164.8060
233.000000, 94.414, -164.6264
236.000000, 94.415, -164.4286
240.000000, 94.436, -164.1828
243.000000, 94.469, -164.0309
247.000000, 94.528, -164.0211
250.000000, 94.570, -164.2227
254.000000, 94.607, -164.7528
258.000000, 94.593, -165.3940
262.000000, 94.518, -165.9698
265.000000, 94.433, -166.2349
269.000000, 94.308, -166.2802
272.000000, 94.220, -166.1039
276.000000, 94.131, -165.6633
280.000000, 94.080, -165.1232
285.000000, 94.054, -164.6234
290.000000, 94.037, -164.1999
295.000000, 94.021, -163.7308
300.000000, 94.006, -163.3065
304.000000, 94.004, -163.0405
307.000000, 94.002, -162.8378
311.000000, 93.994, -162.5756
315.000000, 93.979, -162.3338
320.000000, 93.955, -161.9917
325.000000, 93.934, -161.5510
330.000000, 93.918, -160.9221
335.000000, 93.931, -160.0688
340.000000, 93.988, -159.3654
345.000000, 94.062, -158.9492
350.000000, 94.119, -158.7498
355.000000, 94.156, -158.6062
360.000000, 94.182, -158.4318
365.000000, 94.205, -158.2769
370.000000, 94.223, -158.0962
375.000000, 94.240, -157.9132
382.000000, 94.264, -157.6497
387.000000, 94.282, -157.4471
395.000000, 94.308, -157.1229
400.000000, 94.325, -156.9637
406.000000, 94.337, -156.7352
412.000000, 94.351, -156.4258
418.000000, 94.372, -156.2247
425.000000, 94.387, -156.0226
431.000000, 94.389, -155.7809
437.000000, 94.396, -155.4987
444.000000, 94.413, -155.0778
450.000000, 94.434, -154.7946
455.000000, 94.456, -154.6204
462.000000, 94.487, -154.3759
468.000000, 94.503, -154.1676
475.000000, 94.517, -153.8658
482.000000, 94.530, -153.6238
487.000000, 94.543, -153.4501
494.000000, 94.558, -153.1893
500.000000, 94.563, -152.9675
508.000000, 94.567, -152.5273
515.000000, 94.581, -152.0962
522.000000, 94.608, -151.6784
530.000000, 94.648, -151.2298
538.000000, 94.689, -150.8337
545.000000, 94.725, -150.5175
552.000000, 94.764, -150.2504
560.000000, 94.796, -149.9749
570.000000, 94.827, -149.5256
580.000000, 94.868, -149.0582
590.000000, 94.925, -148.6301
600.000000, 94.979, -148.2302
608.000000, 95.026, -147.9075
615.000000, 95.071, -147.6935
622.000000, 95.108, -147.5321
630.000000, 95.143, -147.3780
640.000000, 95.192, -147.2254
650.000000, 95.216, -147.3297
660.000000, 95.157, -147.3049
670.000000, 95.114, -146.4016
680.000000, 95.164, -145.5939
690.000000, 95.221, -145.1003
700.000000, 95.273, -144.7507
710.000000, 95.314, -144.4689
720.000000, 95.354, -144.1344
730.000000, 95.394, -143.6906
740.000000, 95.441, -143.3520
750.000000, 95.485, -143.0564
762.000000, 95.542, -142.7045
775.000000, 95.610, -142.4124
788.000000, 95.649, -142.0984
800.000000, 95.677, -141.5879
812.000000, 95.729, -141.2388
825.000000, 95.774, -140.9301
838.000000, 95.815, -140.6041
850.000000, 95.857, -140.3499
862.000000, 95.900, -140.0420
875.000000, 95.935, -139.7716
885.000000, 95.957, -139.5125
900.000000, 96.008, -139.1499
912.000000, 96.036, -139.0692
925.000000, 96.046, -138.9597
938.000000, 96.061, -138.6790
950.000000, 96.088, -138.4021
962.000000, 96.112, -138.1800
975.000000, 96.129, -138.0010
988.000000, 96.130, -137.9392
1000.000000, 96.102, -137.7679
1015.000000, 96.073, -137.3401
1030.000000, 96.055, -136.9402
1044.000000, 96.041, -136.5746
1060.000000, 95.998, -136.1611
1075.000000, 95.964, -135.4026
1090.000000, 95.972, -134.5635
1106.000000, 96.010, -133.7795
1120.000000, 96.061, -133.2989
1138.000000, 96.099, -132.7853
1150.000000, 96.110, -132.3438
1172.000000, 96.156, -131.2818
1180.000000, 96.186, -130.9273
1206.000000, 96.304, -129.8571
1220.000000, 96.353, -129.3959
1241.000000, 96.436, -128.4695
1250.000000, 96.504, -127.9655
1265.000000, 96.661, -127.3343
1280.000000, 96.809, -127.1948
1315.000000, 96.994, -127.8306
1320.000000, 96.996, -127.9201
1340.000000, 96.985, -127.9868
1360.000000, 96.954, -127.7874
1380.000000, 96.945, -127.5448
1400.000000, 96.897, -127.5189
1430.000000, 96.850, -126.2297
1450.000000, 96.889, -125.5725
1475.000000, 96.926, -125.4277
1500.000000, 96.849, -125.1895
1525.000000, 96.771, -123.9118
1550.000000, 96.797, -122.5538
1575.000000, 96.871, -121.8225
1600.000000, 96.917, -121.5188
1625.000000, 96.880, -121.5899
1650.000000, 96.689, -121.1857
1675.000000, 96.535, -119.4720
1700.000000, 96.551, -117.5009
1725.000000, 96.615, -116.3163
1750.000000, 96.664, -115.1833
1775.000000, 96.733, -114.6040
1800.000000, 96.676, -114.4004
1825.000000, 96.536, -113.1046
1850.000000, 96.566, -111.0085
1875.000000, 96.702, -110.1472
1900.000000, 96.672, -110.2418
1925.000000, 96.474, -109.5208
1950.000000, 96.290, -107.7586
1975.000000, 96.181, -105.4701
2000.000000, 96.183, -102.7455
2030.000000, 96.330, -100.1315
2060.000000, 96.461, -98.1588
2090.000000, 96.594, -96.2699
2120.000000, 96.743, -94.2043
2140.000000, 96.877, -93.0057
2180.000000, 97.061, -91.2912
2200.000000, 97.164, -90.1239
2240.000000, 97.356, -89.2042
2270.000000, 97.261, -88.2375
2300.000000, 97.182, -85.6182
2330.000000, 97.253, -82.4642
2360.000000, 97.434, -79.0846
2400.000000, 97.933, -74.7682
2430.000000, 98.385, -72.3881
2470.000000, 99.153, -69.9234
2500.000000, 99.766, -69.6906
2540.000000, 100.398, -70.9067
2580.000000, 100.809, -72.4615
2620.000000, 101.087, -73.8878
2650.000000, 101.214, -74.7731
2690.000000, 101.351, -75.1506
2720.000000, 101.509, -75.1216
2760.000000, 101.801, -75.2676
2800.000000, 102.124, -76.3809
2850.000000, 102.338, -78.7775
2900.000000, 102.363, -80.9234
2950.000000, 102.338, -82.5100
3000.000000, 102.245, -84.3749
3040.000000, 102.062, -85.6059
3070.000000, 101.881, -86.2392
3110.000000, 101.601, -86.5258
3150.000000, 101.338, -86.1387
3200.000000, 101.087, -85.3952
3250.000000, 100.842, -84.9219
3300.000000, 100.490, -84.2605
3350.000000, 100.074, -82.3644
3400.000000, 99.766, -79.3262
3450.000000, 99.638, -75.9280
3500.000000, 99.662, -73.1288
3550.000000, 99.668, -71.3742
3600.000000, 99.515, -69.2604
3650.000000, 99.442, -65.8145
3700.000000, 99.549, -62.9052
3750.000000, 99.572, -61.0592
3820.000000, 99.448, -56.4803
3870.000000, 99.595, -52.2053
3950.000000, 100.047, -47.1786
4000.000000, 100.313, -44.4928
4060.000000, 100.729, -40.9523
4120.000000, 101.274, -38.4493
4180.000000, 101.781, -37.1824
4250.000000, 102.205, -36.4757
4310.000000, 102.422, -35.2880
4370.000000, 102.728, -32.9791
4440.000000, 103.293, -31.0935
4500.000000, 103.743, -30.4306
4550.000000, 104.117, -29.8595
4620.000000, 104.683, -29.6966
4680.000000, 105.183, -30.0370
4750.000000, 105.779, -31.5822
4820.000000, 106.252, -34.3993
4870.000000, 106.488, -36.9656
4940.000000, 106.622, -41.1952
5000.000000, 106.494, -44.9470
5080.000000, 105.948, -48.8851
5150.000000, 105.251, -49.9699
5220.000000, 104.596, -48.9423
5300.000000, 103.970, -46.3635
5380.000000, 103.425, -42.0199
5450.000000, 103.179, -36.1118
5520.000000, 103.405, -29.0609
5600.000000, 104.318, -22.7517
5700.000000, 105.762, -21.2915
5800.000000, 106.758, -24.8337
5900.000000, 107.174, -29.1924
6000.000000, 107.325, -31.9891
6080.000000, 107.547, -33.2046
6150.000000, 107.927, -34.7215
6220.000000, 108.380, -37.9160
6300.000000, 108.699, -43.8911
6400.000000, 108.474, -52.7204
6500.000000, 107.596, -59.6082
6600.000000, 106.548, -62.9765
6700.000000, 105.700, -65.0345
6800.000000, 104.845, -67.4494
6900.000000, 103.804, -68.9528
7000.000000, 102.744, -68.7178
7100.000000, 101.751, -67.3826
7200.000000, 100.857, -64.8739
7300.000000, 100.183, -62.1969
7400.000000, 99.598, -60.8827
7500.000000, 98.831, -60.7812
7620.000000, 97.376, -60.0904
7750.000000, 95.204, -51.9428
7880.000000, 93.952, -31.5099
8000.000000, 94.663, -15.3017
8120.000000, 95.942, -8.5871
8250.000000, 96.984, -8.1592
8380.000000, 97.384, -11.3464
8500.000000, 97.015, -14.4697
8620.000000, 96.232, -13.5674
8750.000000, 96.010, -8.4901
8850.000000, 96.519, -7.6051
9000.000000, 96.973, -15.6781
9120.000000, 96.263, -25.8470
9250.000000, 94.367, -35.2971
9380.000000, 91.589, -40.0012
9500.000000, 88.588, -38.7738
9620.000000, 85.522, -32.8997
9750.000000, 82.283, -23.6187
9880.000000, 78.896, -13.3658
10000.000000, 75.405, 0.7269
10150.000000, 75.428, 124.0855
10300.000000, 80.736, 153.9158
10440.000000, 84.928, 155.7031
10600.000000, 88.148, 150.5448
10750.000000, 89.817, 143.7705
10900.000000, 90.604, 138.5680
11060.000000, 90.883, 135.7121
11200.000000, 90.903, 135.8677
11380.000000, 91.022, 138.7987
11500.000000, 91.223, 141.2260
11720.000000, 91.853, 145.4520
11800.000000, 92.183, 146.3371
12060.000000, 93.216, 143.6643
12200.000000, 93.365, 138.3667
12410.000000, 92.365, 127.5740
12500.000000, 91.381, 123.1880
12650.000000, 88.960, 118.1523
12800.000000, 86.025, 126.7339
13150.000000, 90.234, -137.0941
13200.000000, 91.066, -139.7880
13400.000000, 92.899, -153.6562
13600.000000, 92.806, -165.2305
