* Measurement data measured by REW V5.31
* Source: Headset (DS by VECLAN.COM), MICROPHONE (Master Volume), L, volume: 0.960. Timing signal peak level -4.7 dBFS, measurement signal peak level -4.7 dBFS
* Format: 4M Log Swept Sine, 1 sweep at -12.0 dBFS using an acoustic timing reference
* Dated: Apr 13, 2024 9:23:09 PM
* REW Settings:
*  C-weighting compensation: Off
*  Target level: 85.0 dB
* Note: ; Delay -0.0602 ms (-21 mm, -0.81 in) using estimated IR delay relative to Acoustic reference played from HEADPHONE L with no timing offset Clock adjustment: 1.8 ppm
* Measurement: Philips SHP9500 L3
* Smoothing: 1/24 octave
* Frequency Step: 1/48 octave
* Start Frequency: 1.000 Hz
*
* Freq(Hz), SPL(dB), Phase(degrees)
1.000000, 61.374, -6.5433
1.015000, 61.453, -6.7380
1.030000, 61.532, -6.9325
1.044000, 61.607, -7.1137
1.060000, 61.692, -7.3203
1.075000, 61.773, -7.5136
1.090000, 61.855, -7.7061
1.106000, 61.944, -7.9078
1.120000, 62.025, -8.0772
1.138000, 62.136, -8.2831
1.150000, 62.213, -8.4135
1.172000, 62.360, -8.6468
1.180000, 62.415, -8.7348
1.206000, 62.598, -9.0102
1.220000, 62.698, -9.1533
1.241000, 62.850, -9.3630
1.250000, 62.915, -9.4516
1.265000, 63.023, -9.5980
1.280000, 63.130, -9.7437
1.315000, 63.372, -10.0844
1.320000, 63.405, -10.1335
1.340000, 63.535, -10.3317
1.360000, 63.658, -10.5326
1.380000, 63.772, -10.7762
1.400000, 63.875, -11.0402
1.430000, 64.009, -11.4482
1.450000, 64.081, -11.7287
1.475000, 64.150, -12.0819
1.500000, 64.194, -12.4196
1.525000, 64.215, -12.7351
1.550000, 64.217, -13.0312
1.575000, 64.202, -13.3333
1.600000, 64.174, -13.6623
1.625000, 64.136, -13.9825
1.650000, 64.092, -14.2973
1.675000, 64.045, -14.6095
1.700000, 63.997, -14.9217
1.725000, 63.954, -15.2364
1.750000, 63.917, -15.5555
1.775000, 63.891, -15.8978
1.800000, 63.878, -16.2809
1.825000, 63.881, -16.6693
1.850000, 63.898, -17.0530
1.875000, 63.923, -17.4180
1.900000, 63.956, -17.7619
1.925000, 63.994, -18.0882
1.950000, 64.037, -18.4002
1.975000, 64.085, -18.7185
2.000000, 64.137, -19.0627
2.030000, 64.205, -19.4699
2.060000, 64.277, -19.8775
2.090000, 64.353, -20.2902
2.120000, 64.432, -20.7119
2.140000, 64.485, -20.9999
2.180000, 64.595, -21.6152
2.200000, 64.650, -21.9487
2.240000, 64.766, -22.6018
2.270000, 64.858, -23.0685
2.300000, 64.954, -23.5174
2.330000, 65.054, -23.9530
2.360000, 65.157, -24.3799
2.400000, 65.298, -24.9909
2.430000, 65.406, -25.4561
2.470000, 65.552, -26.0836
2.500000, 65.662, -26.5639
2.540000, 65.808, -27.2215
2.580000, 65.955, -27.9117
2.620000, 66.104, -28.6304
2.650000, 66.218, -29.1560
2.690000, 66.372, -29.8414
2.720000, 66.489, -30.3465
2.760000, 66.645, -31.0105
2.800000, 66.802, -31.7104
2.850000, 66.997, -32.5939
2.900000, 67.189, -33.4891
2.950000, 67.377, -34.3980
3.000000, 67.564, -35.3363
3.040000, 67.714, -36.0888
3.070000, 67.825, -36.6463
3.110000, 67.973, -37.3805
3.150000, 68.119, -38.1052
3.200000, 68.299, -39.0308
3.250000, 68.476, -39.9631
3.300000, 68.648, -40.8923
3.350000, 68.818, -41.8202
3.400000, 68.984, -42.7764
3.450000, 69.148, -43.7342
3.500000, 69.308, -44.6742
3.550000, 69.465, -45.5925
3.600000, 69.617, -46.5147
3.650000, 69.766, -47.4279
3.700000, 69.910, -48.3293
3.750000, 70.049, -49.2260
3.820000, 70.238, -50.4997
3.870000, 70.368, -51.3949
3.950000, 70.570, -52.7718
4.000000, 70.691, -53.6148
4.060000, 70.833, -54.6048
4.120000, 70.969, -55.5754
4.180000, 71.100, -56.5335
4.250000, 71.248, -57.6470
4.310000, 71.370, -58.5569
4.370000, 71.489, -59.4245
4.440000, 71.622, -60.4188
4.500000, 71.732, -61.2424
4.550000, 71.821, -61.9082
4.620000, 71.941, -62.8316
4.680000, 72.042, -63.5897
4.750000, 72.158, -64.4218
4.820000, 72.272, -65.2254
4.870000, 72.352, -65.7785
4.940000, 72.461, -66.5194
5.000000, 72.554, -67.1395
5.080000, 72.677, -67.9353
5.150000, 72.783, -68.5893
5.220000, 72.890, -69.2280
5.300000, 73.010, -69.9266
5.380000, 73.129, -70.5932
5.450000, 73.233, -71.1723
5.520000, 73.338, -71.7288
5.600000, 73.458, -72.3489
5.700000, 73.608, -73.1068
5.800000, 73.756, -73.8451
5.900000, 73.902, -74.5854
6.000000, 74.047, -75.3166
6.080000, 74.161, -75.9043
6.150000, 74.259, -76.4057
6.220000, 74.354, -76.9142
6.300000, 74.460, -77.4919
6.400000, 74.589, -78.2111
6.500000, 74.712, -78.9252
6.600000, 74.828, -79.6150
6.700000, 74.938, -80.2976
6.800000, 75.041, -80.9619
6.900000, 75.139, -81.6008
7.000000, 75.231, -82.1964
7.100000, 75.316, -82.7645
7.200000, 75.397, -83.2953
7.300000, 75.474, -83.7844
7.400000, 75.548, -84.2215
7.500000, 75.617, -84.6221
7.620000, 75.699, -85.0417
7.750000, 75.788, -85.4170
7.880000, 75.878, -85.7212
8.000000, 75.963, -85.9430
8.120000, 76.052, -86.1224
8.250000, 76.154, -86.2693
8.380000, 76.260, -86.3835
8.500000, 76.364, -86.4778
8.620000, 76.474, -86.5576
8.750000, 76.596, -86.6438
8.850000, 76.694, -86.7185
9.000000, 76.844, -86.8381
9.120000, 76.966, -86.9525
9.250000, 77.099, -87.1018
9.380000, 77.233, -87.2708
9.500000, 77.356, -87.4495
9.620000, 77.478, -87.6434
9.750000, 77.607, -87.8714
9.880000, 77.726, -88.1194
10.000000, 77.825, -88.3561
10.150000, 77.934, -88.6987
10.300000, 78.032, -89.0404
10.440000, 78.114, -89.3567
10.600000, 78.201, -89.7102
10.750000, 78.279, -90.0305
10.900000, 78.355, -90.3382
11.060000, 78.434, -90.6746
11.200000, 78.502, -90.9916
11.380000, 78.585, -91.3730
11.500000, 78.637, -91.6100
11.720000, 78.731, -92.0091
11.800000, 78.765, -92.1426
12.060000, 78.877, -92.5621
12.200000, 78.941, -92.8088
12.410000, 79.037, -93.1549
12.500000, 79.078, -93.2959
12.650000, 79.145, -93.5224
12.800000, 79.212, -93.7396
13.150000, 79.363, -94.2681
13.200000, 79.385, -94.3499
13.400000, 79.471, -94.6665
13.600000, 79.556, -94.9627
13.800000, 79.639, -95.2354
14.000000, 79.721, -95.4873
14.300000, 79.843, -95.8962
14.500000, 79.923, -96.1393
14.750000, 80.023, -96.4093
15.000000, 80.125, -96.6476
15.250000, 80.234, -96.9107
15.500000, 80.345, -97.1446
15.750000, 80.458, -97.3475
16.000000, 80.573, -97.5247
16.250000, 80.693, -97.7324
16.500000, 80.819, -97.9415
16.750000, 80.950, -98.1709
17.000000, 81.085, -98.4431
17.250000, 81.220, -98.7950
17.500000, 81.348, -99.1975
17.750000, 81.466, -99.6292
18.000000, 81.570, -100.0637
18.250000, 81.661, -100.4868
18.500000, 81.740, -100.8434
18.750000, 81.814, -101.1086
19.000000, 81.888, -101.2761
19.250000, 81.969, -101.3851
19.500000, 82.061, -101.4427
19.750000, 82.164, -101.4895
20.000000, 82.276, -101.5679
20.299999, 82.414, -101.7745
20.600000, 82.545, -102.0795
20.900000, 82.658, -102.4478
21.200001, 82.747, -102.8246
21.400000, 82.792, -103.0314
21.799999, 82.864, -103.2243
22.000000, 82.899, -103.1911
22.400000, 82.993, -102.9341
22.700001, 83.098, -102.6515
23.000000, 83.235, -102.4196
23.299999, 83.392, -102.3515
23.600000, 83.557, -102.4708
24.000000, 83.763, -102.8897
24.299999, 83.899, -103.3513
24.700001, 84.052, -104.0399
25.000000, 84.148, -104.5672
25.400000, 84.254, -105.2688
25.799999, 84.334, -105.8855
26.200001, 84.394, -106.3307
26.500000, 84.438, -106.5092
26.900000, 84.521, -106.5678
27.200001, 84.611, -106.5871
27.600000, 84.760, -106.7640
28.000000, 84.907, -107.1951
28.500000, 85.030, -107.8668
29.000000, 85.098, -108.1259
29.500000, 85.217, -107.8068
30.000000, 85.465, -107.5381
30.400000, 85.712, -107.9149
30.700001, 85.874, -108.5942
31.100000, 86.011, -109.7879
31.500000, 86.050, -110.9016
32.000000, 86.027, -111.6514
32.500000, 86.034, -111.7360
33.000000, 86.115, -111.6902
33.500000, 86.216, -111.8931
34.000000, 86.285, -112.1739
34.500000, 86.342, -112.2514
35.000000, 86.433, -112.1440
35.500000, 86.572, -112.1529
36.000000, 86.725, -112.4684
36.500000, 86.856, -113.0312
37.000000, 86.958, -113.6730
37.500000, 87.043, -114.3110
38.200001, 87.144, -115.1900
38.700001, 87.202, -115.8128
39.500000, 87.264, -116.7057
40.000000, 87.289, -117.1376
40.599998, 87.313, -117.4876
41.200001, 87.345, -117.6268
41.799999, 87.399, -117.6203
42.500000, 87.495, -117.6291
43.099998, 87.581, -117.7523
43.700001, 87.644, -117.8702
44.400002, 87.705, -117.7464
45.000000, 87.785, -117.4348
45.500000, 87.881, -117.1946
46.200001, 88.031, -117.0231
46.799999, 88.160, -116.9547
47.500000, 88.327, -116.9286
48.200001, 88.510, -117.1238
48.700001, 88.632, -117.4272
49.400002, 88.775, -117.9430
50.000000, 88.883, -118.3726
50.799999, 89.019, -118.9575
51.500000, 89.120, -119.4882
52.200001, 89.204, -119.9296
53.000000, 89.300, -120.2462
53.799999, 89.416, -120.4796
54.500000, 89.529, -120.7001
55.200001, 89.648, -120.9442
56.000000, 89.794, -121.2893
57.000000, 89.972, -121.8565
58.000000, 90.142, -122.5224
59.000000, 90.292, -123.3065
60.000000, 90.422, -123.9446
60.799999, 90.550, -124.4050
61.500000, 90.666, -124.9477
62.200001, 90.767, -125.5207
63.000000, 90.882, -126.0931
64.000000, 91.041, -126.8869
65.000000, 91.180, -127.8078
66.000000, 91.304, -128.6712
67.000000, 91.423, -129.5386
68.000000, 91.533, -130.4292
69.000000, 91.631, -131.3819
70.000000, 91.707, -132.3377
71.000000, 91.775, -133.2179
72.000000, 91.844, -134.1273
73.000000, 91.899, -135.0514
74.000000, 91.942, -135.9190
75.000000, 91.979, -136.7262
76.199997, 92.016, -137.6174
77.500000, 92.051, -138.4739
78.800003, 92.092, -139.2374
80.000000, 92.136, -139.9476
81.199997, 92.182, -140.6705
82.500000, 92.228, -141.4805
83.800003, 92.271, -142.2940
85.000000, 92.302, -143.0501
86.199997, 92.327, -143.7778
87.500000, 92.349, -144.5397
88.500000, 92.361, -145.0942
90.000000, 92.378, -145.8780
91.199997, 92.389, -146.4914
92.500000, 92.392, -147.1083
93.800003, 92.392, -147.6285
95.000000, 92.393, -148.0420
96.199997, 92.399, -148.3992
97.500000, 92.413, -148.7651
98.800003, 92.432, -149.1428
100.000000, 92.454, -149.4617
101.500000, 92.493, -149.8804
103.000000, 92.531, -150.3049
104.400002, 92.574, -150.6749
106.000000, 92.635, -151.1634
107.500000, 92.693, -151.7419
109.000000, 92.744, -152.3926
110.599998, 92.791, -153.1624
112.000000, 92.820, -153.8710
113.800003, 92.838, -154.7706
115.000000, 92.843, -155.3482
117.199997, 92.840, -156.3830
118.000000, 92.838, -156.7572
120.599998, 92.813, -157.8833
122.000000, 92.806, -158.4393
124.099998, 92.785, -159.2555
125.000000, 92.774, -159.5773
126.500000, 92.757, -160.0894
128.000000, 92.738, -160.6263
131.500000, 92.662, -161.6909
132.000000, 92.653, -161.8186
134.000000, 92.621, -162.3981
136.000000, 92.576, -163.0566
138.000000, 92.513, -163.6176
140.000000, 92.441, -163.9532
143.000000, 92.347, -164.0635
145.000000, 92.300, -164.0704
147.500000, 92.261, -164.1579
150.000000, 92.245, -164.2970
152.500000, 92.243, -164.4144
155.000000, 92.235, -164.6421
157.500000, 92.211, -164.9037
160.000000, 92.187, -165.1535
162.500000, 92.167, -165.3584
165.000000, 92.146, -165.5492
167.500000, 92.124, -165.7150
170.000000, 92.102, -165.8411
172.500000, 92.083, -165.9471
175.000000, 92.070, -166.0894
177.500000, 92.056, -166.1802
180.000000, 92.034, -166.1413
182.500000, 92.010, -166.1540
185.000000, 91.987, -166.3057
187.500000, 91.978, -166.3251
190.000000, 91.992, -166.1753
192.500000, 92.000, -166.1977
195.000000, 91.982, -166.4206
197.500000, 91.970, -166.6572
200.000000, 91.971, -166.7934
203.000000, 91.972, -166.8124
206.000000, 91.977, -166.9314
209.000000, 91.996, -167.2205
212.000000, 92.013, -167.5148
214.000000, 92.019, -167.6664
218.000000, 92.038, -168.1401
220.000000, 92.045, -168.5107
224.000000, 92.012, -169.4471
227.000000, 91.935, -170.0668
230.000000, 91.832, -170.5566
233.000000, 91.703, -170.9225
236.000000, 91.559, -170.9992
240.000000, 91.390, -170.6417
243.000000, 91.276, -170.2654
247.000000, 91.157, -169.4531
250.000000, 91.107, -168.7741
254.000000, 91.070, -167.9678
258.000000, 91.063, -167.3016
262.000000, 91.076, -166.7300
265.000000, 91.085, -166.3606
269.000000, 91.092, -165.9532
272.000000, 91.104, -165.6539
276.000000, 91.137, -165.3290
280.000000, 91.164, -165.0908
285.000000, 91.192, -164.7511
290.000000, 91.221, -164.3591
295.000000, 91.248, -164.0929
300.000000, 91.276, -163.9276
304.000000, 91.305, -163.8374
307.000000, 91.327, -163.7572
311.000000, 91.344, -163.6247
315.000000, 91.347, -163.4923
320.000000, 91.359, -163.2419
325.000000, 91.374, -162.9382
330.000000, 91.390, -162.7493
335.000000, 91.411, -162.6242
340.000000, 91.430, -162.4907
345.000000, 91.433, -162.3546
350.000000, 91.423, -162.1235
355.000000, 91.419, -161.7805
360.000000, 91.435, -161.3927
365.000000, 91.473, -161.0604
370.000000, 91.517, -160.8045
375.000000, 91.545, -160.6599
382.000000, 91.568, -160.3635
387.000000, 91.593, -160.1488
395.000000, 91.636, -159.9342
400.000000, 91.659, -159.8952
406.000000, 91.677, -159.8642
412.000000, 91.681, -159.8198
418.000000, 91.665, -159.7130
425.000000, 91.639, -159.3463
431.000000, 91.641, -158.9263
437.000000, 91.666, -158.5491
444.000000, 91.697, -158.1778
450.000000, 91.718, -157.8680
455.000000, 91.739, -157.6060
462.000000, 91.785, -157.3358
468.000000, 91.835, -157.2597
475.000000, 91.854, -157.5042
482.000000, 91.761, -157.5914
487.000000, 91.706, -156.8519
494.000000, 91.756, -155.8420
500.000000, 91.830, -155.4773
508.000000, 91.897, -155.1484
515.000000, 91.949, -154.8383
522.000000, 92.002, -154.6260
530.000000, 92.045, -154.4485
538.000000, 92.082, -154.2535
545.000000, 92.112, -154.0546
552.000000, 92.145, -153.8286
560.000000, 92.181, -153.6564
570.000000, 92.204, -153.3605
580.000000, 92.240, -152.8868
590.000000, 92.285, -152.5224
600.000000, 92.320, -152.1760
608.000000, 92.347, -151.8283
615.000000, 92.374, -151.4749
622.000000, 92.410, -151.1691
630.000000, 92.455, -150.8972
640.000000, 92.500, -150.5541
650.000000, 92.539, -150.1923
660.000000, 92.585, -149.7778
670.000000, 92.645, -149.4043
680.000000, 92.701, -149.1764
690.000000, 92.745, -148.9306
700.000000, 92.788, -148.5829
710.000000, 92.838, -148.2092
720.000000, 92.889, -147.8719
730.000000, 92.945, -147.5996
740.000000, 92.994, -147.3802
750.000000, 93.039, -147.1496
762.000000, 93.091, -146.8431
775.000000, 93.146, -146.4177
788.000000, 93.218, -146.0088
800.000000, 93.280, -145.8019
812.000000, 93.325, -145.4785
825.000000, 93.399, -145.0684
838.000000, 93.478, -144.8981
850.000000, 93.530, -144.7746
862.000000, 93.568, -144.6369
875.000000, 93.605, -144.4008
885.000000, 93.636, -144.2056
900.000000, 93.682, -143.8947
912.000000, 93.719, -143.6241
925.000000, 93.765, -143.2477
938.000000, 93.831, -142.9716
950.000000, 93.882, -142.8426
962.000000, 93.917, -142.7167
975.000000, 93.945, -142.5307
988.000000, 93.973, -142.2342
1000.000000, 94.016, -141.9813
1015.000000, 94.048, -141.8408
1030.000000, 94.048, -141.6274
1044.000000, 94.038, -141.1846
1060.000000, 94.063, -140.2722
1075.000000, 94.161, -139.4490
1090.000000, 94.286, -139.0258
1106.000000, 94.395, -138.8293
1120.000000, 94.485, -138.5490
1138.000000, 94.631, -138.1843
1150.000000, 94.744, -138.1095
1172.000000, 94.933, -138.5393
1180.000000, 94.972, -138.8015
1206.000000, 95.020, -139.1004
1220.000000, 95.057, -139.0525
1241.000000, 95.138, -138.9878
1250.000000, 95.179, -139.0446
1265.000000, 95.217, -139.3261
1280.000000, 95.210, -139.4707
1315.000000, 95.246, -138.6072
1320.000000, 95.268, -138.5122
1340.000000, 95.343, -138.4253
1360.000000, 95.347, -138.2719
1380.000000, 95.348, -137.7863
1400.000000, 95.466, -137.0771
1430.000000, 95.652, -137.9122
1450.000000, 95.612, -138.2378
1475.000000, 95.604, -137.8468
1500.000000, 95.603, -138.1146
1525.000000, 95.492, -137.7852
1550.000000, 95.456, -136.8229
1575.000000, 95.450, -136.0303
1600.000000, 95.490, -134.7525
1625.000000, 95.700, -133.9299
1650.000000, 95.839, -134.5913
1675.000000, 95.796, -135.0911
1700.000000, 95.695, -134.9753
1725.000000, 95.601, -134.3202
1750.000000, 95.605, -133.3890
1775.000000, 95.625, -133.1428
1800.000000, 95.530, -132.8206
1825.000000, 95.442, -131.6582
1850.000000, 95.416, -130.5201
1875.000000, 95.416, -129.1177
1900.000000, 95.518, -127.8228
1925.000000, 95.620, -127.3400
1950.000000, 95.624, -127.0333
1975.000000, 95.584, -126.0744
2000.000000, 95.658, -124.7066
2030.000000, 95.757, -124.1072
2060.000000, 95.779, -123.0684
2090.000000, 95.893, -122.2109
2120.000000, 95.888, -122.0907
2140.000000, 95.836, -121.3568
2180.000000, 95.873, -119.9730
2200.000000, 95.806, -119.6901
2240.000000, 95.621, -116.9959
2270.000000, 95.641, -114.7762
2300.000000, 95.626, -112.2596
2330.000000, 95.752, -109.1073
2360.000000, 95.912, -106.1419
2400.000000, 96.498, -101.2869
2430.000000, 97.062, -99.8208
2470.000000, 97.782, -98.7714
2500.000000, 98.311, -99.3543
2540.000000, 98.760, -100.9064
2580.000000, 99.062, -102.2634
2620.000000, 99.297, -102.8125
2650.000000, 99.509, -103.6523
2690.000000, 99.630, -104.7117
2720.000000, 99.708, -105.0164
2760.000000, 99.832, -104.9823
2800.000000, 100.050, -105.0888
2850.000000, 100.245, -105.7652
2900.000000, 100.483, -105.9876
2950.000000, 100.772, -107.0702
3000.000000, 100.916, -108.7571
3040.000000, 100.985, -109.9673
3070.000000, 100.995, -110.8494
3110.000000, 100.989, -111.7397
3150.000000, 100.986, -112.5582
3200.000000, 100.950, -113.6511
3250.000000, 100.882, -114.7963
3300.000000, 100.709, -115.8326
3350.000000, 100.466, -116.1819
3400.000000, 100.271, -115.7489
3450.000000, 100.143, -115.4035
3500.000000, 99.988, -115.1920
3550.000000, 99.811, -114.6670
3600.000000, 99.590, -114.1760
3650.000000, 99.294, -112.7379
3700.000000, 99.096, -110.1924
3750.000000, 99.051, -107.6186
3820.000000, 99.064, -104.4436
3870.000000, 99.124, -102.2291
3950.000000, 99.271, -99.0152
4000.000000, 99.377, -97.0594
4060.000000, 99.531, -94.6811
4120.000000, 99.740, -92.0053
4180.000000, 100.098, -89.4202
4250.000000, 100.632, -87.7581
4310.000000, 101.069, -87.8210
4370.000000, 101.261, -89.1786
4440.000000, 100.988, -89.5697
4500.000000, 100.705, -85.5022
4550.000000, 100.975, -79.8836
4620.000000, 102.081, -75.1713
4680.000000, 103.111, -75.4554
4750.000000, 103.989, -78.8851
4820.000000, 104.441, -83.5006
4870.000000, 104.522, -86.7119
4940.000000, 104.362, -90.1373
5000.000000, 104.071, -91.4669
5080.000000, 103.733, -90.4776
5150.000000, 103.722, -88.0520
5220.000000, 104.007, -85.8307
5300.000000, 104.527, -84.5840
5380.000000, 105.133, -84.6985
5450.000000, 105.662, -86.0327
5520.000000, 106.114, -88.4090
5600.000000, 106.449, -91.9270
5700.000000, 106.550, -96.1805
5800.000000, 106.470, -98.6141
5900.000000, 106.600, -99.0985
6000.000000, 107.174, -100.1228
6080.000000, 107.858, -103.1173
6150.000000, 108.420, -108.0387
6220.000000, 108.763, -114.8786
6300.000000, 108.747, -123.7795
6400.000000, 108.151, -134.6970
6500.000000, 106.994, -144.1403
6600.000000, 105.377, -150.3170
6700.000000, 103.669, -152.4790
6800.000000, 102.190, -152.2072
6900.000000, 100.920, -151.3403
7000.000000, 99.689, -149.8841
7100.000000, 98.431, -147.3201
7200.000000, 97.141, -142.6093
7300.000000, 96.083, -134.5490
7400.000000, 95.628, -125.1967
7500.000000, 95.711, -117.8382
7620.000000, 96.054, -112.7793
7750.000000, 96.371, -110.4787
7880.000000, 96.448, -110.5456
8000.000000, 96.156, -112.6150
8120.000000, 95.291, -114.9303
8250.000000, 93.862, -114.7701
8380.000000, 92.156, -113.6094
8500.000000, 89.829, -108.6025
8620.000000, 88.445, -70.9827
8750.000000, 92.193, -26.3949
8850.000000, 95.179, -29.1008
9000.000000, 97.340, -44.3111
9120.000000, 97.535, -55.8414
9250.000000, 96.879, -64.2255
9380.000000, 95.818, -68.0019
9500.000000, 94.748, -68.0133
9620.000000, 93.752, -65.1709
9750.000000, 92.885, -59.6196
9880.000000, 92.325, -52.3689
10000.000000, 92.114, -44.8220
10150.000000, 92.302, -34.9356
10300.000000, 93.100, -25.9065
10440.000000, 94.329, -20.7453
10600.000000, 95.741, -21.1635
10750.000000, 96.406, -25.7797
10900.000000, 96.352, -29.9255
11060.000000, 96.005, -31.3153
11200.000000, 95.783, -30.9657
11380.000000, 95.577, -30.3198
11500.000000, 95.409, -29.2707
11720.000000, 95.499, -25.2003
11800.000000, 95.753, -24.2223
12060.000000, 96.672, -26.9676
12200.000000, 96.923, -30.8905
12410.000000, 96.960, -38.5237
12500.000000, 96.860, -42.4582
12650.000000, 96.499, -50.0648
12800.000000, 95.760, -59.0332
