* Measurement data measured by REW V5.31
* Source: Headset (DS by VECLAN.COM), MICROPHONE (Master Volume), L, volume: 0.720. Timing signal peak level -18.0 dBFS, measurement signal peak level -17.8 dBFS
* Format: 4M Log Swept Sine, 1 sweep at -12.0 dBFS using an acoustic timing reference
* Dated: Apr 21, 2024 6:05:38 AM
* REW Settings:
*  C-weighting compensation: Off
*  Target level: 75.0 dB
* Note: ; Delay -0.0645 ms (-22 mm, -0.87 in) using estimated IR delay relative to Acoustic reference played from HEADPHONE R with no timing offset
* Measurement: Philips SHP9500 R2
* Smoothing: 1/24 octave
* Frequency Step: 1/48 octave
* Start Frequency: 1.000 Hz
*
* Freq(Hz), SPL(dB), Phase(degrees)
1.000000, 57.497, 26.0693
1.015000, 57.532, 26.0578
1.030000, 57.571, 25.9999
1.044000, 57.610, 25.9019
1.060000, 57.660, 25.7355
1.075000, 57.710, 25.5249
1.090000, 57.765, 25.2620
1.106000, 57.830, 24.9372
1.120000, 57.892, 24.6401
1.138000, 57.980, 24.2567
1.150000, 58.045, 24.0002
1.172000, 58.171, 23.5169
1.180000, 58.220, 23.3311
1.206000, 58.387, 22.7084
1.220000, 58.482, 22.3573
1.241000, 58.630, 21.8042
1.250000, 58.694, 21.5559
1.265000, 58.804, 21.1252
1.280000, 58.915, 20.6714
1.315000, 59.176, 19.5100
1.320000, 59.214, 19.3313
1.340000, 59.362, 18.5816
1.360000, 59.509, 17.7746
1.380000, 59.652, 16.8678
1.400000, 59.790, 15.8817
1.430000, 59.986, 14.2770
1.450000, 60.107, 13.1214
1.475000, 60.245, 11.5813
1.500000, 60.372, 9.9710
1.525000, 60.487, 8.3355
1.550000, 60.595, 6.6973
1.575000, 60.696, 5.0538
1.600000, 60.793, 3.4065
1.625000, 60.887, 1.8126
1.650000, 60.980, 0.2885
1.675000, 61.075, -1.1508
1.700000, 61.173, -2.4928
1.725000, 61.276, -3.7270
1.750000, 61.386, -4.8457
1.775000, 61.505, -5.8615
1.800000, 61.635, -6.8012
1.825000, 61.778, -7.7266
1.850000, 61.933, -8.8763
1.875000, 62.101, -10.1537
1.900000, 62.278, -11.3944
1.925000, 62.463, -12.5726
1.950000, 62.656, -13.6913
1.975000, 62.855, -14.7745
2.000000, 63.059, -15.8460
2.030000, 63.307, -17.0824
2.060000, 63.557, -18.2790
2.090000, 63.807, -19.4481
2.120000, 64.055, -20.6006
2.140000, 64.218, -21.3649
2.180000, 64.534, -22.9134
2.200000, 64.688, -23.7048
2.240000, 64.992, -25.2448
2.270000, 65.219, -26.3422
2.300000, 65.446, -27.3888
2.330000, 65.672, -28.3888
2.360000, 65.897, -29.3477
2.400000, 66.193, -30.6208
2.430000, 66.412, -31.5501
2.470000, 66.698, -32.7583
2.500000, 66.909, -33.6495
2.540000, 67.182, -34.8283
2.580000, 67.447, -36.0188
2.620000, 67.705, -37.2256
2.650000, 67.895, -38.1072
2.690000, 68.142, -39.2475
2.720000, 68.323, -40.0755
2.760000, 68.560, -41.1426
2.800000, 68.789, -42.2123
2.850000, 69.067, -43.5107
2.900000, 69.334, -44.7708
2.950000, 69.590, -46.0098
3.000000, 69.835, -47.2713
3.040000, 70.022, -48.2782
3.070000, 70.159, -49.0196
3.110000, 70.335, -49.9846
3.150000, 70.505, -50.9187
3.200000, 70.708, -52.0701
3.250000, 70.903, -53.1836
3.300000, 71.089, -54.2540
3.350000, 71.266, -55.3073
3.400000, 71.433, -56.3882
3.450000, 71.590, -57.4630
3.500000, 71.739, -58.5013
3.550000, 71.879, -59.4892
3.600000, 72.012, -60.4439
3.650000, 72.137, -61.3490
3.700000, 72.255, -62.2135
3.750000, 72.363, -63.0628
3.820000, 72.501, -64.2551
3.870000, 72.592, -65.0724
3.950000, 72.724, -66.2692
4.000000, 72.801, -66.9544
4.060000, 72.887, -67.7098
4.120000, 72.964, -68.4134
4.180000, 73.033, -69.0801
4.250000, 73.105, -69.8188
4.310000, 73.163, -70.3708
4.370000, 73.220, -70.8389
4.440000, 73.283, -71.3099
4.500000, 73.332, -71.6406
4.550000, 73.371, -71.8704
4.620000, 73.424, -72.1521
4.680000, 73.472, -72.3357
4.750000, 73.533, -72.4702
4.820000, 73.600, -72.5359
4.870000, 73.650, -72.5341
4.940000, 73.723, -72.4716
5.000000, 73.791, -72.3944
5.080000, 73.891, -72.2707
5.150000, 73.989, -72.1348
5.220000, 74.096, -71.9795
5.300000, 74.230, -71.7696
5.380000, 74.373, -71.5597
5.450000, 74.505, -71.4238
5.520000, 74.645, -71.3197
5.600000, 74.814, -71.2297
5.700000, 75.037, -71.1674
5.800000, 75.265, -71.1941
5.900000, 75.495, -71.3518
6.000000, 75.726, -71.6045
6.080000, 75.911, -71.8753
6.150000, 76.071, -72.1493
6.220000, 76.225, -72.4788
6.300000, 76.396, -72.9085
6.400000, 76.602, -73.5149
6.500000, 76.798, -74.1810
6.600000, 76.981, -74.8794
6.700000, 77.151, -75.6276
6.800000, 77.307, -76.4063
6.900000, 77.452, -77.1916
7.000000, 77.584, -77.9583
7.100000, 77.704, -78.7266
7.200000, 77.813, -79.4792
7.300000, 77.912, -80.1992
7.400000, 78.003, -80.8735
7.500000, 78.086, -81.5213
7.620000, 78.177, -82.2414
7.750000, 78.270, -82.9346
7.880000, 78.357, -83.5519
8.000000, 78.435, -84.0536
8.120000, 78.515, -84.4974
8.250000, 78.602, -84.9151
8.380000, 78.693, -85.2825
8.500000, 78.780, -85.5925
8.620000, 78.872, -85.8715
8.750000, 78.976, -86.1567
8.850000, 79.058, -86.3727
9.000000, 79.187, -86.6865
9.120000, 79.293, -86.9431
9.250000, 79.409, -87.2352
9.380000, 79.527, -87.5362
9.500000, 79.637, -87.8284
9.620000, 79.746, -88.1292
9.750000, 79.862, -88.4658
9.880000, 79.970, -88.8152
10.000000, 80.058, -89.1394
10.150000, 80.155, -89.5832
10.300000, 80.243, -90.0162
10.440000, 80.316, -90.4088
10.600000, 80.394, -90.8390
10.750000, 80.465, -91.2206
10.900000, 80.535, -91.5802
11.060000, 80.609, -91.9628
11.200000, 80.674, -92.3131
11.380000, 80.754, -92.7301
11.500000, 80.806, -92.9872
11.720000, 80.899, -93.4161
11.800000, 80.933, -93.5586
12.060000, 81.046, -93.9970
12.200000, 81.109, -94.2447
12.410000, 81.204, -94.5750
12.500000, 81.244, -94.7004
12.650000, 81.310, -94.8880
12.800000, 81.375, -95.0480
13.150000, 81.531, -95.3690
13.200000, 81.555, -95.4141
13.400000, 81.652, -95.5712
13.600000, 81.756, -95.7040
13.800000, 81.866, -95.8270
14.000000, 81.982, -95.9669
14.300000, 82.163, -96.3130
14.500000, 82.283, -96.5999
14.750000, 82.424, -97.0153
15.000000, 82.553, -97.4754
15.250000, 82.671, -97.9920
15.500000, 82.773, -98.4597
15.750000, 82.861, -98.8342
16.000000, 82.944, -99.0920
16.250000, 83.033, -99.2883
16.500000, 83.134, -99.4150
16.750000, 83.251, -99.5287
17.000000, 83.381, -99.6931
17.250000, 83.519, -99.9731
17.500000, 83.652, -100.3510
17.750000, 83.773, -100.7967
18.000000, 83.877, -101.2646
18.250000, 83.965, -101.7207
18.500000, 84.042, -102.0985
18.750000, 84.116, -102.3780
19.000000, 84.198, -102.5712
19.250000, 84.291, -102.7450
19.500000, 84.398, -102.9264
19.750000, 84.512, -103.1583
20.000000, 84.626, -103.4631
20.299999, 84.751, -103.9385
20.600000, 84.855, -104.4371
20.900000, 84.938, -104.8722
21.200001, 85.009, -105.1924
21.400000, 85.057, -105.3257
21.799999, 85.169, -105.4328
22.000000, 85.240, -105.4562
22.400000, 85.406, -105.6086
22.700001, 85.540, -105.8608
23.000000, 85.667, -106.2455
23.299999, 85.776, -106.7401
23.600000, 85.860, -107.2546
24.000000, 85.940, -107.8376
24.299999, 85.986, -108.1472
24.700001, 86.048, -108.3408
25.000000, 86.108, -108.3587
25.400000, 86.215, -108.3486
25.799999, 86.349, -108.4098
26.200001, 86.491, -108.6415
26.500000, 86.591, -108.9235
26.900000, 86.702, -109.3566
27.200001, 86.769, -109.6587
27.600000, 86.845, -109.9367
28.000000, 86.923, -110.0333
28.500000, 87.050, -109.9973
29.000000, 87.219, -109.9616
29.500000, 87.412, -110.0895
30.000000, 87.607, -110.3812
30.400000, 87.755, -110.6960
30.700001, 87.862, -110.9435
31.100000, 88.000, -111.2712
31.500000, 88.140, -111.6046
32.000000, 88.319, -112.0477
32.500000, 88.499, -112.5992
33.000000, 88.665, -113.2607
33.500000, 88.806, -113.9636
34.000000, 88.929, -114.5934
34.500000, 89.053, -115.1554
35.000000, 89.184, -115.7485
35.500000, 89.305, -116.4498
36.000000, 89.401, -117.1796
36.500000, 89.476, -117.8004
37.000000, 89.558, -118.2736
37.500000, 89.664, -118.7350
38.200001, 89.834, -119.6306
38.700001, 89.939, -120.4592
39.500000, 90.056, -121.8027
40.000000, 90.112, -122.5192
40.599998, 90.182, -123.2590
41.200001, 90.260, -123.9384
41.799999, 90.335, -124.6192
42.500000, 90.405, -125.3495
43.099998, 90.457, -125.8125
43.700001, 90.517, -126.1516
44.400002, 90.596, -126.5348
45.000000, 90.652, -126.8380
45.500000, 90.695, -126.9825
46.200001, 90.784, -127.0247
46.799999, 90.904, -127.1466
47.500000, 91.062, -127.6402
48.200001, 91.194, -128.4013
48.700001, 91.273, -128.9711
49.400002, 91.380, -129.7693
50.000000, 91.467, -130.5130
50.799999, 91.552, -131.5352
51.500000, 91.596, -132.2562
52.200001, 91.638, -132.7313
53.000000, 91.704, -133.0923
53.799999, 91.788, -133.4230
54.500000, 91.869, -133.7414
55.200001, 91.960, -134.1548
56.000000, 92.061, -134.8337
57.000000, 92.168, -135.7798
58.000000, 92.320, -136.9377
59.000000, 92.413, -138.8372
60.000000, 92.370, -139.9379
60.799999, 92.446, -139.9898
61.500000, 92.602, -140.3862
62.200001, 92.733, -141.1682
63.000000, 92.837, -142.0239
64.000000, 92.954, -143.0106
65.000000, 93.027, -144.0368
66.000000, 93.075, -144.9358
67.000000, 93.113, -145.9051
68.000000, 93.130, -146.9093
69.000000, 93.146, -147.8888
70.000000, 93.163, -148.8820
71.000000, 93.178, -149.8476
72.000000, 93.194, -150.7736
73.000000, 93.205, -151.6687
74.000000, 93.209, -152.4989
75.000000, 93.213, -153.3216
76.199997, 93.200, -154.3382
77.500000, 93.177, -155.3106
78.800003, 93.159, -156.2483
80.000000, 93.136, -157.0335
81.199997, 93.117, -157.7146
82.500000, 93.099, -158.4178
83.800003, 93.077, -159.1328
85.000000, 93.053, -159.7845
86.199997, 93.036, -160.4807
87.500000, 93.012, -161.2820
88.500000, 92.995, -161.8602
90.000000, 92.964, -162.7190
91.199997, 92.928, -163.3242
92.500000, 92.885, -163.9139
93.800003, 92.833, -164.4911
95.000000, 92.769, -165.0179
96.199997, 92.691, -165.3721
97.500000, 92.631, -165.5223
98.800003, 92.605, -165.6723
100.000000, 92.593, -165.9104
101.500000, 92.570, -166.2578
103.000000, 92.548, -166.6781
104.400002, 92.503, -167.1320
106.000000, 92.447, -167.4329
107.500000, 92.421, -167.5975
109.000000, 92.403, -167.8789
110.599998, 92.361, -168.1243
112.000000, 92.331, -168.2248
113.800003, 92.303, -168.5414
115.000000, 92.283, -168.7992
117.199997, 92.274, -169.2847
118.000000, 92.280, -169.5222
120.599998, 92.238, -170.4108
122.000000, 92.186, -170.5092
124.099998, 92.159, -170.5936
125.000000, 92.148, -170.7832
126.500000, 92.112, -171.1140
128.000000, 92.076, -171.3850
131.500000, 92.003, -171.9169
132.000000, 91.992, -171.9867
134.000000, 91.941, -172.2751
136.000000, 91.876, -172.4702
138.000000, 91.822, -172.4808
140.000000, 91.794, -172.4199
143.000000, 91.776, -172.4251
145.000000, 91.757, -172.5346
147.500000, 91.719, -172.7308
150.000000, 91.682, -172.9395
152.500000, 91.650, -173.1604
155.000000, 91.616, -173.2709
157.500000, 91.583, -173.3190
160.000000, 91.550, -173.3305
162.500000, 91.526, -173.3296
165.000000, 91.502, -173.3172
167.500000, 91.480, -173.3727
170.000000, 91.451, -173.4434
172.500000, 91.424, -173.4718
175.000000, 91.393, -173.5098
177.500000, 91.353, -173.5383
180.000000, 91.317, -173.4547
182.500000, 91.302, -173.2751
185.000000, 91.304, -173.1115
187.500000, 91.303, -173.0516
190.000000, 91.303, -173.0632
192.500000, 91.311, -173.1381
195.000000, 91.323, -173.2945
197.500000, 91.328, -173.5251
200.000000, 91.321, -173.7857
203.000000, 91.300, -174.1214
206.000000, 91.256, -174.5081
209.000000, 91.187, -174.8515
212.000000, 91.105, -175.0586
214.000000, 91.047, -175.0830
218.000000, 90.933, -175.0004
220.000000, 90.880, -174.9062
224.000000, 90.790, -174.6261
227.000000, 90.733, -174.3235
230.000000, 90.686, -174.0056
233.000000, 90.648, -173.7126
236.000000, 90.616, -173.4613
240.000000, 90.581, -173.1743
243.000000, 90.561, -172.8785
247.000000, 90.535, -172.4787
250.000000, 90.514, -172.1982
254.000000, 90.496, -171.8537
258.000000, 90.479, -171.5240
262.000000, 90.460, -171.2001
265.000000, 90.450, -170.9697
269.000000, 90.441, -170.7002
272.000000, 90.436, -170.5164
276.000000, 90.429, -170.2806
280.000000, 90.421, -170.0412
285.000000, 90.411, -169.7290
290.000000, 90.401, -169.4076
295.000000, 90.388, -169.0605
300.000000, 90.372, -168.6422
304.000000, 90.366, -168.4012
307.000000, 90.363, -168.2336
311.000000, 90.353, -168.0004
315.000000, 90.335, -167.7379
320.000000, 90.314, -167.3092
325.000000, 90.301, -166.7441
330.000000, 90.314, -166.1449
335.000000, 90.353, -165.6519
340.000000, 90.388, -165.3210
345.000000, 90.409, -165.0918
350.000000, 90.419, -164.8607
355.000000, 90.421, -164.5804
360.000000, 90.420, -164.2810
365.000000, 90.423, -163.9750
370.000000, 90.428, -163.6346
375.000000, 90.433, -163.2896
382.000000, 90.444, -162.7625
387.000000, 90.456, -162.3862
395.000000, 90.486, -161.8256
400.000000, 90.506, -161.5162
406.000000, 90.527, -161.1803
412.000000, 90.545, -160.8711
418.000000, 90.559, -160.5582
425.000000, 90.575, -160.1997
431.000000, 90.587, -159.8638
437.000000, 90.597, -159.4717
444.000000, 90.620, -158.9700
450.000000, 90.651, -158.5824
455.000000, 90.679, -158.3071
462.000000, 90.704, -158.0080
468.000000, 90.717, -157.7208
475.000000, 90.738, -157.3897
482.000000, 90.762, -156.9996
487.000000, 90.788, -156.6797
494.000000, 90.833, -156.2610
500.000000, 90.865, -155.9980
508.000000, 90.898, -155.6628
515.000000, 90.932, -155.3538
522.000000, 90.979, -155.1256
530.000000, 91.022, -155.0733
538.000000, 90.996, -155.1430
545.000000, 90.932, -154.5658
552.000000, 90.952, -153.6539
560.000000, 91.022, -153.1017
570.000000, 91.085, -152.5838
580.000000, 91.146, -152.0833
590.000000, 91.195, -151.7342
600.000000, 91.232, -151.2821
608.000000, 91.269, -150.8426
615.000000, 91.307, -150.4691
622.000000, 91.345, -150.1348
630.000000, 91.386, -149.8074
640.000000, 91.432, -149.3892
650.000000, 91.483, -148.9272
660.000000, 91.534, -148.5581
670.000000, 91.571, -148.1575
680.000000, 91.622, -147.6729
690.000000, 91.685, -147.2940
700.000000, 91.741, -146.9731
710.000000, 91.791, -146.6119
720.000000, 91.842, -146.2646
730.000000, 91.891, -145.9635
740.000000, 91.938, -145.6211
750.000000, 91.991, -145.2299
762.000000, 92.064, -144.8691
775.000000, 92.133, -144.5451
788.000000, 92.193, -144.1905
800.000000, 92.245, -143.8342
812.000000, 92.315, -143.4104
825.000000, 92.410, -143.1503
838.000000, 92.479, -143.1387
850.000000, 92.506, -143.0924
862.000000, 92.518, -142.8131
875.000000, 92.562, -142.3095
885.000000, 92.626, -142.0204
900.000000, 92.716, -141.9640
912.000000, 92.744, -142.0186
925.000000, 92.752, -141.8481
938.000000, 92.784, -141.5797
950.000000, 92.823, -141.4259
962.000000, 92.854, -141.3836
975.000000, 92.860, -141.3828
988.000000, 92.840, -141.2846
1000.000000, 92.812, -140.9970
1015.000000, 92.809, -140.3750
1030.000000, 92.834, -139.9599
1044.000000, 92.840, -139.5908
1060.000000, 92.860, -138.9973
1075.000000, 92.899, -138.5399
1090.000000, 92.942, -138.2064
1106.000000, 92.976, -137.8255
1120.000000, 93.022, -137.3747
1138.000000, 93.091, -137.0258
1150.000000, 93.111, -136.8152
1172.000000, 93.167, -135.9464
1180.000000, 93.214, -135.6680
1206.000000, 93.359, -135.2455
1220.000000, 93.443, -135.0437
1241.000000, 93.550, -135.3009
1250.000000, 93.558, -135.4827
1265.000000, 93.526, -135.5788
1280.000000, 93.473, -135.3044
1315.000000, 93.459, -133.6463
1320.000000, 93.473, -133.3878
1340.000000, 93.554, -132.4816
1360.000000, 93.655, -131.6797
1380.000000, 93.793, -131.3749
1400.000000, 93.893, -131.5721
1430.000000, 93.941, -131.9376
1450.000000, 93.908, -132.0133
1475.000000, 93.859, -131.5499
1500.000000, 93.856, -130.9928
1525.000000, 93.827, -130.4746
1550.000000, 93.836, -129.6346
1575.000000, 93.833, -129.4188
1600.000000, 93.753, -128.8208
1625.000000, 93.696, -128.0089
1650.000000, 93.616, -126.8814
1675.000000, 93.611, -125.3870
1700.000000, 93.655, -124.1997
1725.000000, 93.685, -123.2226
1750.000000, 93.710, -122.1078
1775.000000, 93.742, -121.0531
1800.000000, 93.790, -119.9214
1825.000000, 93.880, -119.1108
1850.000000, 93.905, -118.6905
1875.000000, 93.863, -117.8979
1900.000000, 93.867, -116.5357
1925.000000, 93.893, -115.7406
1950.000000, 93.820, -114.4708
1975.000000, 93.879, -112.1855
2000.000000, 94.034, -111.1053
2030.000000, 94.100, -109.6746
2060.000000, 94.315, -108.1082
2090.000000, 94.462, -107.6787
2120.000000, 94.531, -107.5240
2140.000000, 94.472, -107.4883
2180.000000, 94.243, -105.6381
2200.000000, 94.127, -104.1756
2240.000000, 94.021, -98.9080
2270.000000, 94.316, -94.4946
2300.000000, 94.738, -91.5168
2330.000000, 95.229, -88.8812
2360.000000, 95.784, -87.3061
2400.000000, 96.589, -86.0910
2430.000000, 97.164, -87.1062
2470.000000, 97.616, -89.1750
2500.000000, 97.808, -90.5878
2540.000000, 98.015, -91.3205
2580.000000, 98.274, -92.5215
2620.000000, 98.355, -93.9056
2650.000000, 98.343, -94.3756
2690.000000, 98.391, -93.8681
2720.000000, 98.526, -93.7093
2760.000000, 98.709, -93.9727
2800.000000, 98.834, -94.6519
2850.000000, 98.932, -94.9133
2900.000000, 99.110, -95.5517
2950.000000, 99.189, -96.9999
3000.000000, 99.099, -98.4477
3040.000000, 98.926, -98.8861
3070.000000, 98.809, -98.8853
3110.000000, 98.630, -98.7699
3150.000000, 98.423, -98.0038
3200.000000, 98.245, -96.2548
3250.000000, 98.153, -94.4124
3300.000000, 98.109, -92.2143
3350.000000, 98.187, -89.9020
3400.000000, 98.348, -88.1395
3450.000000, 98.508, -86.8951
3500.000000, 98.679, -85.7620
3550.000000, 98.831, -85.6669
3600.000000, 98.696, -85.4480
3650.000000, 98.585, -82.8255
3700.000000, 98.722, -80.4528
3750.000000, 98.785, -78.5919
3820.000000, 99.035, -74.3425
3870.000000, 99.370, -72.1687
3950.000000, 99.854, -69.2118
4000.000000, 100.218, -67.0390
4060.000000, 100.822, -64.9521
4120.000000, 101.428, -63.8043
4180.000000, 102.208, -62.7249
4250.000000, 103.153, -64.6174
4310.000000, 103.681, -67.4668
4370.000000, 104.043, -70.5811
4440.000000, 104.222, -73.9300
4500.000000, 104.332, -75.9973
4550.000000, 104.445, -77.8272
4620.000000, 104.512, -80.6224
4680.000000, 104.518, -82.9939
4750.000000, 104.394, -85.9933
4820.000000, 104.098, -88.2935
4870.000000, 103.843, -89.3768
4940.000000, 103.435, -90.1483
5000.000000, 103.054, -89.8622
5080.000000, 102.619, -87.8634
5150.000000, 102.428, -84.9830
5220.000000, 102.483, -81.7640
5300.000000, 102.815, -78.9001
5380.000000, 103.311, -77.3366
5450.000000, 103.825, -77.3311
5520.000000, 104.294, -78.9199
5600.000000, 104.584, -82.0638
5700.000000, 104.514, -85.4171
5800.000000, 104.336, -86.0515
5900.000000, 104.506, -85.2158
6000.000000, 105.033, -85.7755
6080.000000, 105.548, -87.9260
6150.000000, 106.000, -91.1175
6220.000000, 106.399, -95.7926
6300.000000, 106.644, -102.9695
6400.000000, 106.361, -113.5257
6500.000000, 105.351, -122.8325
6600.000000, 103.941, -128.8269
6700.000000, 102.461, -132.1108
6800.000000, 100.965, -133.2582
6900.000000, 99.568, -132.2611
7000.000000, 98.379, -130.2271
7100.000000, 97.268, -127.8027
7200.000000, 96.165, -124.2980
7300.000000, 95.150, -119.4256
7400.000000, 94.292, -113.3810
7500.000000, 93.664, -106.4861
7620.000000, 93.316, -97.7983
7750.000000, 93.541, -90.0223
7880.000000, 93.922, -87.4034
8000.000000, 93.780, -89.0085
8120.000000, 92.870, -90.6589
8250.000000, 91.202, -87.9446
8380.000000, 89.477, -77.7882
8500.000000, 88.449, -63.2258
8620.000000, 88.449, -43.8231
8750.000000, 90.508, -23.3495
8850.000000, 92.756, -18.6698
9000.000000, 95.145, -25.6533
9120.000000, 95.804, -35.8621
9250.000000, 95.364, -45.9758
9380.000000, 94.161, -52.0247
9500.000000, 92.774, -53.5166
9620.000000, 91.380, -51.6800
9750.000000, 89.967, -46.8232
9880.000000, 88.714, -39.2037
10000.000000, 87.782, -29.6958
10150.000000, 87.145, -14.4561
10300.000000, 87.504, 2.7838
10440.000000, 88.809, 16.1364
10600.000000, 90.845, 24.1265
10750.000000, 92.596, 24.6333
10900.000000, 93.750, 20.8832
11060.000000, 94.272, 15.9029
11200.000000, 94.314, 12.6500
11380.000000, 94.129, 10.6263
11500.000000, 93.986, 10.4319
11720.000000, 93.907, 11.6710
11800.000000, 93.992, 12.2124
12060.000000, 94.629, 10.9426
12200.000000, 94.986, 7.1116
12410.000000, 95.004, -3.3391
12500.000000, 94.659, -9.0516
12650.000000, 93.449, -18.7615
12800.000000, 91.316, -26.3367
13150.000000, 85.520, 13.9336
13200.000000, 85.690, 23.3938
13400.000000, 87.616, 30.7481
13600.000000, 88.067, 22.6475
13800.000000, 87.094, 16.0065
