* Measurement data measured by REW V5.31.3
* Source: Headset (DS by VECLAN.COM), MICROPHONE (Master Volume), L, volume: 0.720. Timing signal peak level -6.1 dBFS, measurement signal peak level -6.2 dBFS
* Format: 2M Log Swept Sine, 1 sweep at -23.7 dBFS using an acoustic timing reference
* Dated: Oct 15, 2024 2:16:27 PM
* REW Settings:
*  C-weighting compensation: Off
*  Target level: 85.0 dB
* Note: ; Fosi DS1 Delay -0.0605 ms (-21 mm, -0.82 in) using estimated IR delay relative to Acoustic reference played from SPEAKER L with no timing offset Clock adjustment: -26.1 ppm
* Measurement: Misodiko L1
* Smoothing: 1/24 octave
* Frequency Step: 1/48 octave
* Start Frequency: 1.000 Hz
*
* Freq(Hz), SPL(dB), Phase(degrees)
1.000000, 57.041, 19.4891
1.015000, 56.994, 20.0801
1.030000, 56.951, 20.6702
1.044000, 56.915, 21.2182
1.060000, 56.879, 21.8393
1.075000, 56.851, 22.4143
1.090000, 56.829, 22.9823
1.106000, 56.812, 23.5921
1.120000, 56.802, 24.1509
1.138000, 56.798, 24.9153
1.150000, 56.800, 25.4506
1.172000, 56.811, 26.4688
1.180000, 56.818, 26.8445
1.206000, 56.849, 28.0870
1.220000, 56.870, 28.7608
1.241000, 56.908, 29.7638
1.250000, 56.926, 30.1872
1.265000, 56.957, 30.8797
1.280000, 56.991, 31.5507
1.315000, 57.077, 33.0030
1.320000, 57.090, 33.1948
1.340000, 57.142, 33.9159
1.360000, 57.195, 34.5571
1.380000, 57.247, 35.0708
1.400000, 57.298, 35.4719
1.430000, 57.369, 35.8738
1.450000, 57.413, 36.0028
1.475000, 57.462, 36.0337
1.500000, 57.506, 36.0025
1.525000, 57.548, 35.9457
1.550000, 57.587, 35.8597
1.575000, 57.627, 35.7195
1.600000, 57.666, 35.5038
1.625000, 57.706, 35.2360
1.650000, 57.749, 34.9095
1.675000, 57.794, 34.5183
1.700000, 57.844, 34.0570
1.725000, 57.899, 33.5203
1.750000, 57.959, 32.9040
1.775000, 58.027, 32.1897
1.800000, 58.102, 31.3611
1.825000, 58.186, 30.4491
1.850000, 58.279, 29.4794
1.875000, 58.381, 28.4918
1.900000, 58.490, 27.5029
1.925000, 58.606, 26.5165
1.950000, 58.728, 25.5335
1.975000, 58.856, 24.5422
2.000000, 58.988, 23.5302
2.030000, 59.152, 22.3144
2.060000, 59.319, 21.0906
2.090000, 59.490, 19.8527
2.120000, 59.662, 18.5941
2.140000, 59.777, 17.7403
2.180000, 60.005, 15.9704
2.200000, 60.119, 15.0471
2.240000, 60.350, 13.1933
2.270000, 60.527, 11.8206
2.300000, 60.708, 10.4734
2.330000, 60.891, 9.1555
2.360000, 61.076, 7.8677
2.400000, 61.324, 6.1587
2.430000, 61.510, 4.9033
2.470000, 61.757, 3.2650
2.500000, 61.941, 2.0573
2.540000, 62.181, 0.4663
2.580000, 62.418, -1.1250
2.620000, 62.652, -2.7265
2.650000, 62.827, -3.9048
2.690000, 63.060, -5.4370
2.720000, 63.233, -6.5528
2.760000, 63.462, -7.9915
2.800000, 63.687, -9.4116
2.850000, 63.963, -11.1180
2.900000, 64.232, -12.7495
2.950000, 64.492, -14.3237
3.000000, 64.745, -15.8874
3.040000, 64.943, -17.1174
3.070000, 65.088, -18.0165
3.110000, 65.279, -19.1792
3.150000, 65.465, -20.2963
3.200000, 65.692, -21.6538
3.250000, 65.913, -22.9476
3.300000, 66.128, -24.1700
3.350000, 66.335, -25.3428
3.400000, 66.536, -26.5045
3.450000, 66.729, -27.6328
3.500000, 66.918, -28.7074
3.550000, 67.101, -29.7191
3.600000, 67.280, -30.6886
3.650000, 67.455, -31.5992
3.700000, 67.627, -32.4506
3.750000, 67.793, -33.2589
3.820000, 68.018, -34.3510
3.870000, 68.174, -35.0844
3.950000, 68.420, -36.1552
4.000000, 68.572, -36.7793
4.060000, 68.753, -37.4714
4.120000, 68.930, -38.0986
4.180000, 69.105, -38.6775
4.250000, 69.306, -39.3203
4.310000, 69.479, -39.8221
4.370000, 69.652, -40.2843
4.440000, 69.856, -40.7942
4.500000, 70.032, -41.1809
4.550000, 70.178, -41.4732
4.620000, 70.384, -41.8748
4.680000, 70.561, -42.2070
4.750000, 70.770, -42.5820
4.820000, 70.981, -42.9581
4.870000, 71.133, -43.2124
4.940000, 71.346, -43.5496
5.000000, 71.530, -43.8476
5.080000, 71.774, -44.2669
5.150000, 71.987, -44.6484
5.220000, 72.200, -45.0527
5.300000, 72.443, -45.5198
5.380000, 72.683, -45.9959
5.450000, 72.888, -46.4464
5.520000, 73.089, -46.9112
5.600000, 73.314, -47.4682
5.700000, 73.587, -48.1915
5.800000, 73.849, -48.9217
5.900000, 74.100, -49.6713
6.000000, 74.339, -50.4356
6.080000, 74.521, -51.0533
6.150000, 74.675, -51.5745
6.220000, 74.822, -52.0925
6.300000, 74.982, -52.6697
6.400000, 75.171, -53.3772
6.500000, 75.350, -54.0561
6.600000, 75.520, -54.6762
6.700000, 75.682, -55.2564
6.800000, 75.835, -55.7900
6.900000, 75.983, -56.2750
7.000000, 76.127, -56.6913
7.100000, 76.266, -57.0540
7.200000, 76.403, -57.3640
7.300000, 76.540, -57.6331
7.400000, 76.681, -57.8511
7.500000, 76.824, -58.0296
7.620000, 76.998, -58.2092
7.750000, 77.193, -58.3825
7.880000, 77.394, -58.5429
8.000000, 77.583, -58.6923
8.120000, 77.776, -58.8723
8.250000, 77.989, -59.0938
8.380000, 78.202, -59.3491
8.500000, 78.395, -59.6310
8.620000, 78.586, -59.9469
8.750000, 78.787, -60.3219
8.850000, 78.937, -60.6351
9.000000, 79.154, -61.1329
9.120000, 79.320, -61.5467
9.250000, 79.491, -62.0012
9.380000, 79.653, -62.4545
9.500000, 79.796, -62.8682
9.620000, 79.932, -63.2611
9.750000, 80.072, -63.6679
9.880000, 80.199, -64.0442
10.000000, 80.305, -64.3538
10.150000, 80.423, -64.7306
10.300000, 80.533, -65.0544
10.440000, 80.631, -65.3108
10.600000, 80.741, -65.5631
10.750000, 80.849, -65.7688
10.900000, 80.961, -65.9535
11.060000, 81.086, -66.1749
11.200000, 81.200, -66.4131
11.380000, 81.347, -66.7293
11.500000, 81.445, -66.9503
11.720000, 81.623, -67.3779
11.800000, 81.687, -67.5415
12.060000, 81.895, -68.1160
12.200000, 82.006, -68.4708
12.410000, 82.168, -69.0033
12.500000, 82.234, -69.2271
12.650000, 82.340, -69.5916
12.800000, 82.441, -69.9393
13.150000, 82.667, -70.7115
13.200000, 82.699, -70.8198
13.400000, 82.827, -71.2240
13.600000, 82.956, -71.5862
13.800000, 83.088, -71.9134
14.000000, 83.224, -72.2244
14.300000, 83.434, -72.7489
14.500000, 83.576, -73.1130
14.750000, 83.753, -73.5946
15.000000, 83.928, -74.1108
15.250000, 84.101, -74.7011
15.500000, 84.266, -75.2949
15.750000, 84.420, -75.8656
16.000000, 84.566, -76.3916
16.250000, 84.707, -76.9051
16.500000, 84.848, -77.3627
16.750000, 84.991, -77.7765
17.000000, 85.141, -78.1749
17.250000, 85.296, -78.6125
17.500000, 85.451, -79.0775
17.750000, 85.603, -79.5714
18.000000, 85.748, -80.0894
18.250000, 85.884, -80.6411
18.500000, 86.011, -81.1741
18.750000, 86.131, -81.6652
19.000000, 86.248, -82.1047
19.250000, 86.365, -82.5239
19.500000, 86.486, -82.9087
19.750000, 86.609, -83.2781
20.000000, 86.735, -83.6524
20.299999, 86.886, -84.1581
20.600000, 87.032, -84.6915
20.900000, 87.170, -85.2401
21.200001, 87.299, -85.8053
21.400000, 87.380, -86.1805
21.799999, 87.531, -86.9051
22.000000, 87.601, -87.2564
22.400000, 87.730, -87.9568
22.700001, 87.812, -88.4308
23.000000, 87.882, -88.8205
23.299999, 87.945, -89.0974
23.600000, 88.009, -89.2198
24.000000, 88.116, -89.1582
24.299999, 88.227, -89.0311
24.700001, 88.418, -88.8911
25.000000, 88.587, -88.9066
25.400000, 88.824, -89.1813
25.799999, 89.051, -89.6985
26.200001, 89.254, -90.3722
26.500000, 89.390, -90.9158
26.900000, 89.555, -91.6188
27.200001, 89.671, -92.1223
27.600000, 89.819, -92.7578
28.000000, 89.962, -93.3523
28.500000, 90.136, -94.0622
29.000000, 90.309, -94.7068
29.500000, 90.487, -95.3226
30.000000, 90.668, -95.9660
30.400000, 90.809, -96.5426
30.700001, 90.911, -96.9957
31.100000, 91.040, -97.6095
31.500000, 91.160, -98.2157
32.000000, 91.303, -98.9301
32.500000, 91.445, -99.6161
33.000000, 91.588, -100.3002
33.500000, 91.728, -101.0313
34.000000, 91.864, -101.7831
34.500000, 91.995, -102.5312
35.000000, 92.122, -103.2678
35.500000, 92.247, -104.0149
36.000000, 92.371, -104.7789
36.500000, 92.490, -105.5687
37.000000, 92.601, -106.3650
37.500000, 92.705, -107.1618
38.200001, 92.843, -108.2444
38.700001, 92.937, -109.0036
39.500000, 93.081, -110.2153
40.000000, 93.164, -110.9782
40.599998, 93.252, -111.9205
41.200001, 93.323, -112.8435
41.799999, 93.376, -113.7120
42.500000, 93.417, -114.6073
43.099998, 93.440, -115.2293
43.700001, 93.461, -115.6779
44.400002, 93.493, -116.0067
45.000000, 93.539, -116.1568
45.500000, 93.594, -116.2142
46.200001, 93.701, -116.2902
46.799999, 93.820, -116.4421
47.500000, 93.976, -116.7785
48.200001, 94.134, -117.3068
48.700001, 94.241, -117.7754
49.400002, 94.379, -118.5146
50.000000, 94.483, -119.1879
50.799999, 94.603, -120.0796
51.500000, 94.695, -120.8204
52.200001, 94.784, -121.5097
53.000000, 94.887, -122.2694
53.799999, 94.987, -123.1194
54.500000, 95.061, -123.9123
55.200001, 95.122, -124.7134
56.000000, 95.174, -125.6087
57.000000, 95.218, -126.5821
58.000000, 95.258, -127.4099
59.000000, 95.292, -128.0776
60.000000, 95.335, -128.3655
60.799999, 95.421, -128.4963
61.500000, 95.525, -128.7307
62.200001, 95.631, -129.1034
63.000000, 95.746, -129.6067
64.000000, 95.892, -130.2651
65.000000, 96.029, -131.1445
66.000000, 96.145, -132.1033
67.000000, 96.246, -133.0177
68.000000, 96.338, -133.9821
69.000000, 96.418, -134.9624
70.000000, 96.481, -135.8999
71.000000, 96.537, -136.7960
72.000000, 96.588, -137.6538
73.000000, 96.631, -138.4323
74.000000, 96.677, -139.1622
75.000000, 96.727, -139.8893
76.199997, 96.787, -140.7728
77.500000, 96.851, -141.7222
78.800003, 96.915, -142.6707
80.000000, 96.970, -143.6012
81.199997, 97.016, -144.5362
82.500000, 97.056, -145.5203
83.800003, 97.090, -146.4335
85.000000, 97.119, -147.2582
86.199997, 97.147, -148.0995
87.500000, 97.176, -148.9694
88.500000, 97.195, -149.6733
90.000000, 97.216, -150.7547
91.199997, 97.224, -151.6347
92.500000, 97.223, -152.4859
93.800003, 97.213, -153.3046
95.000000, 97.190, -154.0504
96.199997, 97.156, -154.6835
97.500000, 97.112, -155.1935
98.800003, 97.076, -155.5606
100.000000, 97.059, -155.8032
101.500000, 97.071, -156.0428
103.000000, 97.117, -156.3456
104.400002, 97.171, -156.7609
106.000000, 97.228, -157.3725
107.500000, 97.273, -158.0133
109.000000, 97.312, -158.6955
110.599998, 97.346, -159.5277
112.000000, 97.370, -160.2554
113.800003, 97.398, -161.1745
115.000000, 97.411, -161.8208
117.199997, 97.414, -162.9830
118.000000, 97.410, -163.3788
120.599998, 97.383, -164.6538
122.000000, 97.371, -165.2903
124.099998, 97.361, -166.4490
125.000000, 97.346, -166.9717
126.500000, 97.311, -167.6992
128.000000, 97.272, -168.3836
131.500000, 97.159, -169.8179
132.000000, 97.140, -170.0037
134.000000, 97.063, -170.6689
136.000000, 96.994, -171.2365
138.000000, 96.934, -171.7558
140.000000, 96.875, -172.2234
143.000000, 96.782, -172.8354
145.000000, 96.714, -173.1524
147.500000, 96.635, -173.5014
150.000000, 96.565, -173.7862
152.500000, 96.509, -174.0013
155.000000, 96.463, -174.1640
157.500000, 96.420, -174.3097
160.000000, 96.385, -174.4850
162.500000, 96.362, -174.6663
165.000000, 96.349, -174.8246
167.500000, 96.337, -175.0243
170.000000, 96.320, -175.2387
172.500000, 96.299, -175.5318
175.000000, 96.271, -175.8994
177.500000, 96.237, -176.2472
180.000000, 96.201, -176.5855
182.500000, 96.165, -176.8322
185.000000, 96.129, -177.0623
187.500000, 96.092, -177.2591
190.000000, 96.053, -177.4831
192.500000, 96.019, -177.7131
195.000000, 95.993, -177.8380
197.500000, 95.973, -177.9340
200.000000, 95.952, -178.0679
203.000000, 95.920, -178.2501
206.000000, 95.890, -178.3961
209.000000, 95.865, -178.5319
212.000000, 95.846, -178.6584
214.000000, 95.843, -178.6918
218.000000, 95.857, -178.8169
220.000000, 95.869, -178.9977
224.000000, 95.890, -179.5457
227.000000, 95.891, 179.8950
230.000000, 95.869, 179.2277
233.000000, 95.821, 178.5429
236.000000, 95.749, 177.9308
240.000000, 95.620, 177.3179
243.000000, 95.512, 177.0314
247.000000, 95.370, 176.9081
250.000000, 95.272, 176.9803
254.000000, 95.161, 177.1986
258.000000, 95.079, 177.4437
262.000000, 95.019, 177.6221
265.000000, 94.982, 177.7289
269.000000, 94.936, 177.8253
272.000000, 94.899, 177.8638
276.000000, 94.849, 177.9274
280.000000, 94.805, 178.0937
285.000000, 94.764, 178.3065
290.000000, 94.730, 178.3965
295.000000, 94.692, 178.4008
300.000000, 94.659, 178.4119
304.000000, 94.633, 178.3835
307.000000, 94.609, 178.3954
311.000000, 94.574, 178.4188
315.000000, 94.537, 178.4032
320.000000, 94.488, 178.3749
325.000000, 94.439, 178.4841
330.000000, 94.396, 178.6699
335.000000, 94.362, 178.8081
340.000000, 94.325, 178.8660
345.000000, 94.284, 178.9519
350.000000, 94.240, 178.9916
355.000000, 94.191, 179.0107
360.000000, 94.142, 179.1296
365.000000, 94.093, 179.2653
370.000000, 94.043, 179.3294
375.000000, 93.992, 179.3589
382.000000, 93.914, 179.4851
387.000000, 93.857, 179.6826
395.000000, 93.771, 179.9973
400.000000, 93.721, -179.8523
406.000000, 93.652, -179.6667
412.000000, 93.572, -179.4839
418.000000, 93.490, -179.1759
425.000000, 93.406, -178.6414
431.000000, 93.351, -178.2180
437.000000, 93.292, -177.9169
444.000000, 93.221, -177.4511
450.000000, 93.180, -176.9652
455.000000, 93.150, -176.5697
462.000000, 93.108, -176.0318
468.000000, 93.087, -175.6411
475.000000, 93.056, -175.4395
482.000000, 92.977, -175.2610
487.000000, 92.917, -174.8831
494.000000, 92.859, -174.1407
500.000000, 92.816, -173.5402
508.000000, 92.758, -172.7581
515.000000, 92.717, -172.0504
522.000000, 92.690, -171.2670
530.000000, 92.678, -170.3073
538.000000, 92.684, -169.3847
545.000000, 92.710, -168.6382
552.000000, 92.744, -168.0298
560.000000, 92.784, -167.4422
570.000000, 92.828, -166.8748
580.000000, 92.854, -166.3338
590.000000, 92.888, -165.6202
600.000000, 92.943, -165.0487
608.000000, 92.973, -164.7480
615.000000, 92.981, -164.4874
622.000000, 92.975, -164.2330
630.000000, 92.960, -163.7638
640.000000, 92.988, -163.1102
650.000000, 93.025, -162.7434
660.000000, 93.035, -162.3170
670.000000, 93.049, -161.6483
680.000000, 93.101, -161.1372
690.000000, 93.148, -160.8767
700.000000, 93.185, -160.5009
710.000000, 93.232, -160.1225
720.000000, 93.278, -159.9715
730.000000, 93.281, -159.9925
740.000000, 93.243, -159.8119
750.000000, 93.212, -159.2671
762.000000, 93.242, -158.4842
775.000000, 93.296, -158.0804
788.000000, 93.316, -157.7164
800.000000, 93.360, -157.3024
812.000000, 93.400, -157.2163
825.000000, 93.381, -157.0577
838.000000, 93.368, -156.4071
850.000000, 93.433, -155.9055
862.000000, 93.503, -155.8970
875.000000, 93.528, -156.1781
885.000000, 93.505, -156.3304
900.000000, 93.436, -156.2429
912.000000, 93.396, -155.8201
925.000000, 93.400, -155.4767
938.000000, 93.407, -155.4038
950.000000, 93.405, -155.3864
962.000000, 93.388, -155.5655
975.000000, 93.314, -155.8912
988.000000, 93.179, -155.9580
1000.000000, 93.043, -155.5974
1015.000000, 92.916, -154.8095
1030.000000, 92.864, -153.9800
1044.000000, 92.819, -153.6536
1060.000000, 92.695, -153.1607
1075.000000, 92.597, -152.1395
1090.000000, 92.583, -151.2103
1106.000000, 92.555, -150.6698
1120.000000, 92.513, -149.8649
1138.000000, 92.558, -148.8112
1150.000000, 92.601, -148.4062
1172.000000, 92.634, -148.0633
1180.000000, 92.602, -148.1847
1206.000000, 92.405, -147.3546
1220.000000, 92.366, -146.5973
1241.000000, 92.315, -145.5573
1250.000000, 92.318, -145.0381
1265.000000, 92.336, -144.6793
1280.000000, 92.277, -144.6487
1315.000000, 92.084, -142.8924
1320.000000, 92.063, -142.6503
1340.000000, 91.962, -141.2825
1360.000000, 92.005, -139.5814
1380.000000, 92.028, -139.6364
1400.000000, 91.833, -139.0782
1430.000000, 91.829, -136.6998
1450.000000, 91.813, -136.8175
1475.000000, 91.538, -135.9498
1500.000000, 91.400, -133.9713
1525.000000, 91.242, -132.5998
1550.000000, 91.071, -130.2378
1575.000000, 90.992, -128.1037
1600.000000, 90.911, -125.3533
1625.000000, 90.990, -122.9965
1650.000000, 91.011, -121.3645
1675.000000, 90.995, -119.9271
1700.000000, 90.892, -117.9682
1725.000000, 90.888, -115.0675
1750.000000, 91.067, -112.9218
1775.000000, 91.146, -112.1420
1800.000000, 91.070, -110.8284
1825.000000, 91.000, -108.9253
1850.000000, 90.953, -106.8886
1875.000000, 90.869, -104.6837
1900.000000, 90.816, -101.2672
1925.000000, 90.995, -97.7391
1950.000000, 91.208, -95.8463
1975.000000, 91.257, -93.8493
2000.000000, 91.384, -90.5855
2030.000000, 91.770, -87.2018
2060.000000, 92.162, -85.2799
2090.000000, 92.514, -83.1266
2120.000000, 93.070, -81.4736
2140.000000, 93.413, -81.9382
2180.000000, 93.610, -83.7640
2200.000000, 93.576, -83.9852
2240.000000, 93.410, -83.4758
2270.000000, 93.191, -81.6526
2300.000000, 93.097, -78.0744
2330.000000, 93.244, -74.2153
2360.000000, 93.553, -70.5552
2400.000000, 94.244, -66.7728
2430.000000, 94.797, -65.7369
2470.000000, 95.402, -64.9706
2500.000000, 95.867, -64.6357
2540.000000, 96.437, -65.4175
2580.000000, 96.911, -66.5685
2620.000000, 97.365, -68.7393
2650.000000, 97.549, -71.1974
2690.000000, 97.536, -74.3959
2720.000000, 97.390, -76.2035
2760.000000, 97.070, -77.8230
2800.000000, 96.701, -78.1628
2850.000000, 96.233, -77.2800
2900.000000, 95.884, -75.0296
2950.000000, 95.640, -72.1300
3000.000000, 95.577, -68.7434
3040.000000, 95.622, -66.2736
3070.000000, 95.719, -64.3282
3110.000000, 95.991, -62.3468
3150.000000, 96.259, -61.8560
3200.000000, 96.428, -62.4166
3250.000000, 96.336, -62.9823
3300.000000, 96.157, -62.8201
3350.000000, 95.864, -62.3205
3400.000000, 95.491, -60.7003
3450.000000, 95.152, -57.7363
3500.000000, 94.987, -54.0464
3550.000000, 94.925, -50.7443
3600.000000, 94.834, -47.6059
3650.000000, 94.736, -43.4571
3700.000000, 94.850, -38.4395
3750.000000, 95.205, -34.0869
3820.000000, 95.838, -30.6199
3870.000000, 96.169, -29.7514
3950.000000, 96.331, -28.9493
4000.000000, 96.251, -27.9102
4060.000000, 96.029, -25.5747
4120.000000, 95.809, -21.4465
4180.000000, 95.741, -15.8532
4250.000000, 96.028, -8.5319
4310.000000, 96.539, -3.5734
4370.000000, 96.977, -0.5825
4440.000000, 97.110, 3.5999
4500.000000, 97.395, 10.9825
4550.000000, 98.125, 17.5884
4620.000000, 99.574, 23.3384
4680.000000, 100.840, 25.1548
4750.000000, 102.183, 24.8974
4820.000000, 103.309, 22.7655
4870.000000, 103.937, 20.4958
4940.000000, 104.530, 17.1021
5000.000000, 104.819, 14.9941
5080.000000, 105.177, 14.3192
5150.000000, 105.739, 14.7980
5220.000000, 106.528, 14.3653
5300.000000, 107.478, 12.0638
5380.000000, 108.390, 8.3127
5450.000000, 109.160, 3.7666
5520.000000, 109.820, -2.3233
5600.000000, 110.272, -10.9204
5700.000000, 110.220, -22.3578
5800.000000, 109.573, -32.1858
5900.000000, 108.636, -39.5457
6000.000000, 107.568, -44.9459
6080.000000, 106.676, -47.9476
6150.000000, 105.904, -49.9517
6220.000000, 105.114, -51.5445
6300.000000, 104.165, -52.5680
6400.000000, 103.008, -52.5971
6500.000000, 101.900, -52.0228
6600.000000, 100.745, -50.5534
6700.000000, 99.636, -47.5328
6800.000000, 98.725, -43.8913
6900.000000, 97.918, -40.8492
7000.000000, 97.020, -37.8995
7100.000000, 95.954, -33.6944
7200.000000, 94.836, -26.3483
7300.000000, 94.122, -15.3203
7400.000000, 94.161, -4.0439
7500.000000, 94.705, 4.0064
7620.000000, 95.487, 9.4408
7750.000000, 96.241, 11.9270
7880.000000, 96.690, 11.6499
8000.000000, 96.739, 9.9627
8120.000000, 96.497, 8.0699
8250.000000, 96.059, 6.0191
8380.000000, 95.483, 2.8435
8500.000000, 94.679, -1.7630
8620.000000, 93.386, -8.1254
8750.000000, 91.145, -16.1818
8850.000000, 88.717, -23.2502
9000.000000, 83.997, -43.4076
9120.000000, 82.135, -134.3983
9250.000000, 85.549, 172.7537
9380.000000, 89.117, 159.6892
9500.000000, 91.425, 151.6814
9620.000000, 93.001, 145.0757
9750.000000, 94.101, 139.0441
9880.000000, 94.721, 134.2935
10000.000000, 94.998, 131.1707
10150.000000, 95.082, 128.7416
10300.000000, 94.934, 127.8476
10440.000000, 94.654, 128.7495
10600.000000, 94.342, 132.1212
10750.000000, 94.313, 137.1906
10900.000000, 94.764, 141.9168
11060.000000, 95.524, 142.8566
11200.000000, 95.807, 139.5425
11380.000000, 94.955, 134.6698
11500.000000, 93.720, 135.6390
11720.000000, 91.737, 151.9060
11800.000000, 91.643, 160.6624
12060.000000, 93.514, -178.6117
12200.000000, 94.885, -174.4935
12410.000000, 96.775, -173.5018
12500.000000, 97.562, -174.5673
12650.000000, 98.815, -178.9260
12800.000000, 99.774, 173.0178
13150.000000, 99.422, 146.3887
13200.000000, 99.046, 142.8121
13400.000000, 96.955, 131.3008
13600.000000, 94.365, 124.3996
13800.000000, 91.582, 120.6477
14000.000000, 88.612, 118.8778
14300.000000, 83.453, 119.5050
14500.000000, 79.318, 122.7332
14750.000000, 73.663, 121.5511
