* Measurement data measured by REW V5.31.3
* Source: Headset (DS by VECLAN.COM), MICROPHONE (Master Volume), L, volume: 0.720. Timing signal peak level -8.2 dBFS, measurement signal peak level -8.2 dBFS
* Format: 2M Log Swept Sine, 1 sweep at -23.7 dBFS using an acoustic timing reference
* Dated: Oct 15, 2024 2:13:20 PM
* REW Settings:
*  C-weighting compensation: Off
*  Target level: 85.0 dB
* Note: ; Fosi DS1 Delay -0.0184 ms (-6.3 mm, -0.25 in) using estimated IR delay relative to Acoustic reference played from SPEAKER R with no timing offset Clock adjustment: -26.1 ppm
* Measurement: Misodiko R4
* Smoothing: 1/24 octave
* Frequency Step: 1/48 octave
* Start Frequency: 1.000 Hz
*
* Freq(Hz), SPL(dB), Phase(degrees)
1.000000, 55.793, -52.7028
1.015000, 55.884, -52.0347
1.030000, 55.974, -51.3564
1.044000, 56.056, -50.7136
1.060000, 56.149, -49.9671
1.075000, 56.235, -49.2554
1.090000, 56.320, -48.5319
1.106000, 56.410, -47.7474
1.120000, 56.487, -47.0514
1.138000, 56.584, -46.1447
1.150000, 56.646, -45.5334
1.172000, 56.757, -44.4038
1.180000, 56.796, -43.9935
1.206000, 56.919, -42.6468
1.220000, 56.982, -41.9141
1.241000, 57.073, -40.8066
1.250000, 57.110, -40.3294
1.265000, 57.171, -39.5309
1.280000, 57.229, -38.7292
1.315000, 57.356, -36.8509
1.320000, 57.374, -36.5822
1.340000, 57.439, -35.5070
1.360000, 57.500, -34.4322
1.380000, 57.557, -33.3980
1.400000, 57.610, -32.3836
1.430000, 57.680, -30.8764
1.450000, 57.721, -29.8838
1.475000, 57.763, -28.6535
1.500000, 57.793, -27.4210
1.525000, 57.808, -26.1831
1.550000, 57.812, -24.9448
1.575000, 57.805, -23.7288
1.600000, 57.791, -22.5540
1.625000, 57.771, -21.3947
1.650000, 57.747, -20.2553
1.675000, 57.722, -19.1400
1.700000, 57.699, -18.0523
1.725000, 57.678, -16.9956
1.750000, 57.662, -15.9726
1.775000, 57.654, -14.9996
1.800000, 57.655, -14.0918
1.825000, 57.667, -13.2204
1.850000, 57.689, -12.3758
1.875000, 57.719, -11.5442
1.900000, 57.755, -10.7235
1.925000, 57.796, -9.9167
1.950000, 57.841, -9.1269
1.975000, 57.891, -8.3682
2.000000, 57.943, -7.6538
2.030000, 58.009, -6.8292
2.060000, 58.078, -6.0450
2.090000, 58.148, -5.3041
2.120000, 58.219, -4.6093
2.140000, 58.266, -4.1727
2.180000, 58.358, -3.3842
2.200000, 58.402, -3.0386
2.240000, 58.493, -2.3886
2.270000, 58.562, -1.9275
2.300000, 58.633, -1.4879
2.330000, 58.706, -1.0704
2.360000, 58.779, -0.6758
2.400000, 58.877, -0.2239
2.430000, 58.950, 0.0819
2.470000, 59.047, 0.4518
2.500000, 59.118, 0.7003
2.540000, 59.211, 0.9927
2.580000, 59.300, 1.2275
2.620000, 59.388, 1.3964
2.650000, 59.453, 1.5044
2.690000, 59.538, 1.6263
2.720000, 59.601, 1.7034
2.760000, 59.684, 1.7910
2.800000, 59.765, 1.8257
2.850000, 59.864, 1.8439
2.900000, 59.960, 1.8436
2.950000, 60.053, 1.8243
3.000000, 60.142, 1.7535
3.040000, 60.211, 1.6714
3.070000, 60.262, 1.6035
3.110000, 60.328, 1.5079
3.150000, 60.393, 1.4099
3.200000, 60.473, 1.2597
3.250000, 60.553, 1.1032
3.300000, 60.633, 0.9574
3.350000, 60.712, 0.8186
3.400000, 60.789, 0.6560
3.450000, 60.865, 0.4860
3.500000, 60.941, 0.3228
3.550000, 61.019, 0.1708
3.600000, 61.099, 0.0071
3.650000, 61.184, -0.1494
3.700000, 61.271, -0.2842
3.750000, 61.361, -0.3982
3.820000, 61.490, -0.5602
3.870000, 61.586, -0.6703
3.950000, 61.749, -0.8358
4.000000, 61.858, -0.9583
4.060000, 61.998, -1.1041
4.120000, 62.144, -1.2198
4.180000, 62.299, -1.3205
4.250000, 62.488, -1.4657
4.310000, 62.658, -1.6080
4.370000, 62.836, -1.7816
4.440000, 63.054, -2.0321
4.500000, 63.250, -2.2391
4.550000, 63.420, -2.4103
4.620000, 63.664, -2.6951
4.680000, 63.879, -2.9839
4.750000, 64.134, -3.3802
4.820000, 64.395, -3.8431
4.870000, 64.585, -4.1878
4.940000, 64.857, -4.6860
5.000000, 65.091, -5.1541
5.080000, 65.404, -5.8474
5.150000, 65.675, -6.5117
5.220000, 65.946, -7.2311
5.300000, 66.255, -8.0851
5.380000, 66.560, -8.9656
5.450000, 66.822, -9.7791
5.520000, 67.076, -10.6152
5.600000, 67.359, -11.6073
5.700000, 67.703, -12.8776
5.800000, 68.033, -14.1374
5.900000, 68.347, -15.3923
6.000000, 68.646, -16.6469
6.080000, 68.874, -17.6402
6.150000, 69.067, -18.4701
6.220000, 69.252, -19.2751
6.300000, 69.454, -20.1578
6.400000, 69.694, -21.2195
6.500000, 69.921, -22.2157
6.600000, 70.140, -23.1090
6.700000, 70.350, -23.9211
6.800000, 70.552, -24.6520
6.900000, 70.748, -25.3013
7.000000, 70.942, -25.8484
7.100000, 71.132, -26.3109
7.200000, 71.321, -26.6965
7.300000, 71.513, -27.0243
7.400000, 71.709, -27.2866
7.500000, 71.908, -27.4955
7.620000, 72.152, -27.7018
7.750000, 72.420, -27.9020
7.880000, 72.695, -28.0868
8.000000, 72.950, -28.2551
8.120000, 73.205, -28.4514
8.250000, 73.481, -28.6868
8.380000, 73.752, -28.9408
8.500000, 73.996, -29.2024
8.620000, 74.233, -29.4802
8.750000, 74.481, -29.7863
8.850000, 74.666, -30.0223
9.000000, 74.934, -30.3689
9.120000, 75.141, -30.6368
9.250000, 75.360, -30.9083
9.380000, 75.572, -31.1595
9.500000, 75.765, -31.3874
9.620000, 75.957, -31.6017
9.750000, 76.160, -31.8288
9.880000, 76.356, -32.0621
10.000000, 76.526, -32.2814
10.150000, 76.726, -32.6018
10.300000, 76.916, -32.9452
10.440000, 77.083, -33.2889
10.600000, 77.264, -33.7021
10.750000, 77.425, -34.1071
10.900000, 77.579, -34.5176
11.060000, 77.735, -34.9721
11.200000, 77.865, -35.3978
11.380000, 78.025, -35.9017
11.500000, 78.127, -36.2047
11.720000, 78.315, -36.7067
11.800000, 78.386, -36.8745
12.060000, 78.629, -37.4280
12.200000, 78.771, -37.7875
12.410000, 78.993, -38.3954
12.500000, 79.088, -38.6958
12.650000, 79.246, -39.2525
12.800000, 79.397, -39.8770
13.150000, 79.705, -41.6033
13.200000, 79.743, -41.8698
13.400000, 79.873, -42.9287
13.600000, 79.975, -43.8954
13.800000, 80.049, -44.6958
14.000000, 80.111, -45.2616
14.300000, 80.209, -45.6772
14.500000, 80.304, -45.6485
14.750000, 80.480, -45.4143
15.000000, 80.728, -45.1594
15.250000, 81.042, -45.1600
15.500000, 81.390, -45.5008
15.750000, 81.737, -46.2023
16.000000, 82.056, -47.1988
16.250000, 82.332, -48.3959
16.500000, 82.562, -49.6089
16.750000, 82.753, -50.7080
17.000000, 82.922, -51.6202
17.250000, 83.085, -52.3589
17.500000, 83.256, -52.9249
17.750000, 83.441, -53.3851
18.000000, 83.640, -53.8161
18.250000, 83.850, -54.3041
18.500000, 84.062, -54.8489
18.750000, 84.269, -55.4457
19.000000, 84.469, -56.0789
19.250000, 84.661, -56.7544
19.500000, 84.845, -57.4280
19.750000, 85.021, -58.0926
20.000000, 85.192, -58.7502
20.299999, 85.391, -59.5713
20.600000, 85.582, -60.3970
20.900000, 85.764, -61.2264
21.200001, 85.936, -62.0724
21.400000, 86.044, -62.6370
21.799999, 86.251, -63.7432
22.000000, 86.349, -64.2840
22.400000, 86.538, -65.3619
22.700001, 86.672, -66.1358
23.000000, 86.802, -66.8752
23.299999, 86.929, -67.5930
23.600000, 87.055, -68.2800
24.000000, 87.221, -69.1597
24.299999, 87.342, -69.8116
24.700001, 87.492, -70.6203
25.000000, 87.597, -71.1418
25.400000, 87.730, -71.6815
25.799999, 87.874, -71.9940
26.200001, 88.045, -72.1438
26.500000, 88.198, -72.2237
26.900000, 88.432, -72.3822
27.200001, 88.623, -72.6032
27.600000, 88.885, -73.0661
28.000000, 89.142, -73.7101
28.500000, 89.443, -74.7438
29.000000, 89.709, -75.9165
29.500000, 89.938, -77.1227
30.000000, 90.136, -78.2608
30.400000, 90.283, -79.1095
30.700001, 90.392, -79.7067
31.100000, 90.542, -80.4845
31.500000, 90.696, -81.2869
32.000000, 90.887, -82.3539
32.500000, 91.069, -83.5007
33.000000, 91.239, -84.6870
33.500000, 91.396, -85.9000
34.000000, 91.545, -87.0943
34.500000, 91.688, -88.2649
35.000000, 91.825, -89.4356
35.500000, 91.953, -90.6399
36.000000, 92.064, -91.8556
36.500000, 92.152, -93.0336
37.000000, 92.221, -94.1066
37.500000, 92.279, -95.0599
38.200001, 92.352, -96.1988
38.700001, 92.401, -96.8814
39.500000, 92.486, -97.6879
40.000000, 92.559, -98.0309
40.599998, 92.680, -98.4209
41.200001, 92.828, -98.8768
41.799999, 92.992, -99.4495
42.500000, 93.195, -100.3061
43.099998, 93.363, -101.2224
43.700001, 93.511, -102.2348
44.400002, 93.653, -103.4049
45.000000, 93.764, -104.3416
45.500000, 93.853, -105.0944
46.200001, 93.966, -106.1563
46.799999, 94.050, -107.0327
47.500000, 94.142, -107.9392
48.200001, 94.240, -108.7849
48.700001, 94.311, -109.3911
49.400002, 94.409, -110.2419
50.000000, 94.490, -110.9493
50.799999, 94.595, -111.8300
51.500000, 94.693, -112.5487
52.200001, 94.800, -113.2408
53.000000, 94.932, -114.0186
53.799999, 95.072, -114.8450
54.500000, 95.201, -115.6246
55.200001, 95.332, -116.4989
56.000000, 95.473, -117.6105
57.000000, 95.629, -119.0932
58.000000, 95.763, -120.6396
59.000000, 95.883, -122.2274
60.000000, 95.963, -123.8187
60.799999, 96.007, -124.9515
61.500000, 96.050, -125.8190
62.200001, 96.094, -126.6635
63.000000, 96.138, -127.5925
64.000000, 96.192, -128.5980
65.000000, 96.251, -129.6080
66.000000, 96.322, -130.6472
67.000000, 96.382, -131.7466
68.000000, 96.427, -132.8338
69.000000, 96.476, -133.8368
70.000000, 96.533, -134.8357
71.000000, 96.588, -135.9078
72.000000, 96.634, -136.9564
73.000000, 96.680, -137.9361
74.000000, 96.723, -138.9481
75.000000, 96.759, -139.9252
76.199997, 96.804, -141.0926
77.500000, 96.841, -142.3620
78.800003, 96.875, -143.5854
80.000000, 96.903, -144.7739
81.199997, 96.916, -145.9652
82.500000, 96.916, -147.1742
83.800003, 96.911, -148.2549
85.000000, 96.907, -149.2049
86.199997, 96.900, -150.1865
87.500000, 96.877, -151.2097
88.500000, 96.845, -151.9481
90.000000, 96.791, -152.8399
91.199997, 96.763, -153.3726
92.500000, 96.764, -153.7807
93.800003, 96.793, -154.2422
95.000000, 96.830, -154.8074
96.199997, 96.866, -155.4227
97.500000, 96.908, -156.1435
98.800003, 96.946, -156.9825
100.000000, 96.973, -157.8443
101.500000, 96.989, -158.9635
103.000000, 96.992, -160.0349
104.400002, 96.984, -161.0192
106.000000, 96.961, -162.1173
107.500000, 96.930, -163.0894
109.000000, 96.893, -163.9717
110.599998, 96.854, -164.8788
112.000000, 96.822, -165.6247
113.800003, 96.777, -166.5291
115.000000, 96.746, -167.1229
117.199997, 96.686, -168.1606
118.000000, 96.663, -168.4996
120.599998, 96.594, -169.5239
122.000000, 96.560, -170.1203
124.099998, 96.492, -171.1171
125.000000, 96.456, -171.5005
126.500000, 96.401, -171.9789
128.000000, 96.357, -172.4359
131.500000, 96.266, -173.5322
132.000000, 96.250, -173.6988
134.000000, 96.184, -174.3348
136.000000, 96.121, -174.9121
138.000000, 96.063, -175.4582
140.000000, 96.010, -175.9673
143.000000, 95.945, -176.7987
145.000000, 95.908, -177.3334
147.500000, 95.845, -178.0117
150.000000, 95.753, -178.4048
152.500000, 95.670, -178.8516
155.000000, 95.584, -179.4068
157.500000, 95.494, -179.8645
160.000000, 95.402, 179.7543
162.500000, 95.307, 179.4390
165.000000, 95.214, 179.2552
167.500000, 95.128, 179.2067
170.000000, 95.048, 179.2639
172.500000, 94.979, 179.3095
175.000000, 94.923, 179.3455
177.500000, 94.874, 179.4560
180.000000, 94.836, 179.5733
182.500000, 94.814, 179.6846
185.000000, 94.804, 179.7106
187.500000, 94.802, 179.7174
190.000000, 94.800, 179.6369
192.500000, 94.802, 179.5302
195.000000, 94.809, 179.5049
197.500000, 94.820, 179.4615
200.000000, 94.832, 179.2601
203.000000, 94.839, 178.8145
206.000000, 94.836, 178.3930
209.000000, 94.821, 178.0712
212.000000, 94.810, 177.7934
214.000000, 94.814, 177.5504
218.000000, 94.829, 176.8483
220.000000, 94.822, 176.4076
224.000000, 94.767, 175.6713
227.000000, 94.716, 175.1784
230.000000, 94.654, 174.6584
233.000000, 94.573, 174.2780
236.000000, 94.487, 174.0692
240.000000, 94.383, 173.9202
243.000000, 94.316, 173.8108
247.000000, 94.233, 173.7218
250.000000, 94.174, 173.7110
254.000000, 94.100, 173.7094
258.000000, 94.044, 173.6710
262.000000, 93.997, 173.5652
265.000000, 93.965, 173.4400
269.000000, 93.919, 173.2635
272.000000, 93.880, 173.1632
276.000000, 93.815, 173.0813
280.000000, 93.746, 173.0717
285.000000, 93.675, 173.0522
290.000000, 93.619, 172.9518
295.000000, 93.564, 172.8395
300.000000, 93.504, 172.8130
304.000000, 93.457, 172.7863
307.000000, 93.420, 172.7830
311.000000, 93.371, 172.7567
315.000000, 93.321, 172.6891
320.000000, 93.250, 172.6196
325.000000, 93.177, 172.6727
330.000000, 93.104, 172.7563
335.000000, 93.045, 172.9460
340.000000, 93.011, 173.1412
345.000000, 92.974, 173.1242
350.000000, 92.910, 173.0479
355.000000, 92.830, 173.0189
360.000000, 92.746, 173.1030
365.000000, 92.664, 173.2393
370.000000, 92.585, 173.4701
375.000000, 92.511, 173.7714
382.000000, 92.422, 174.2151
387.000000, 92.364, 174.5628
395.000000, 92.283, 175.1853
400.000000, 92.253, 175.5561
406.000000, 92.204, 175.7684
412.000000, 92.127, 175.9664
418.000000, 92.042, 176.4442
425.000000, 91.962, 177.1417
431.000000, 91.913, 177.7678
437.000000, 91.880, 178.3058
444.000000, 91.864, 178.9568
450.000000, 91.858, 179.4875
455.000000, 91.854, 179.8458
462.000000, 91.853, -179.6732
468.000000, 91.841, -179.1666
475.000000, 91.818, -178.5609
482.000000, 91.827, -177.9612
487.000000, 91.843, -177.5416
494.000000, 91.874, -176.9533
500.000000, 91.908, -176.5217
508.000000, 91.977, -176.0119
515.000000, 92.060, -175.9444
522.000000, 92.058, -176.6455
530.000000, 91.877, -176.4594
538.000000, 91.823, -174.8247
545.000000, 91.885, -173.8597
552.000000, 91.969, -173.3610
560.000000, 92.054, -173.0742
570.000000, 92.124, -172.8155
580.000000, 92.194, -172.4127
590.000000, 92.270, -172.0436
600.000000, 92.328, -171.7963
608.000000, 92.372, -171.6257
615.000000, 92.409, -171.5813
622.000000, 92.446, -171.5724
630.000000, 92.486, -171.5510
640.000000, 92.533, -171.5209
650.000000, 92.574, -171.5580
660.000000, 92.589, -171.6074
670.000000, 92.587, -171.6142
680.000000, 92.582, -171.5204
690.000000, 92.585, -171.3156
700.000000, 92.616, -171.0771
710.000000, 92.655, -170.9747
720.000000, 92.679, -170.9231
730.000000, 92.710, -170.8237
740.000000, 92.753, -170.9084
750.000000, 92.777, -171.0801
762.000000, 92.785, -171.1088
775.000000, 92.796, -171.1820
788.000000, 92.788, -171.2973
800.000000, 92.796, -171.1950
812.000000, 92.817, -171.3599
825.000000, 92.812, -171.6895
838.000000, 92.795, -171.8231
850.000000, 92.770, -171.9802
862.000000, 92.741, -172.0805
875.000000, 92.727, -172.1174
885.000000, 92.719, -172.1164
900.000000, 92.716, -172.3835
912.000000, 92.663, -172.9240
925.000000, 92.550, -173.3020
938.000000, 92.444, -173.2244
950.000000, 92.377, -173.0145
962.000000, 92.328, -172.8349
975.000000, 92.288, -172.8560
988.000000, 92.194, -173.2129
1000.000000, 92.039, -173.2582
1015.000000, 91.889, -172.8430
1030.000000, 91.743, -172.5260
1044.000000, 91.601, -171.9693
1060.000000, 91.407, -170.9342
1075.000000, 91.294, -169.0041
1090.000000, 91.404, -167.3193
1106.000000, 91.579, -166.8015
1120.000000, 91.685, -166.8993
1138.000000, 91.683, -167.3218
1150.000000, 91.622, -167.2427
1172.000000, 91.636, -166.4627
1180.000000, 91.678, -166.3848
1206.000000, 91.728, -166.9541
1220.000000, 91.674, -167.2662
1241.000000, 91.538, -167.3156
1250.000000, 91.504, -167.2014
1265.000000, 91.489, -167.2702
1280.000000, 91.417, -167.6993
1315.000000, 91.016, -167.5648
1320.000000, 90.956, -167.3407
1340.000000, 90.764, -166.1369
1360.000000, 90.593, -164.9832
1380.000000, 90.453, -164.0350
1400.000000, 90.271, -162.8523
1430.000000, 90.202, -159.6670
1450.000000, 90.263, -158.7124
1475.000000, 90.235, -158.2418
1500.000000, 90.051, -157.1409
1525.000000, 89.880, -155.1190
1550.000000, 89.813, -152.5671
1575.000000, 89.925, -150.1388
1600.000000, 90.128, -149.1886
1625.000000, 90.141, -149.3961
1650.000000, 89.912, -148.4743
1675.000000, 89.803, -145.9175
1700.000000, 89.873, -143.7106
1725.000000, 89.989, -142.2838
1750.000000, 90.063, -140.8849
1775.000000, 90.145, -139.7934
1800.000000, 90.139, -139.1042
1825.000000, 90.089, -137.3021
1850.000000, 90.272, -135.3063
1875.000000, 90.469, -135.3577
1900.000000, 90.363, -135.9508
1925.000000, 90.125, -135.0187
1950.000000, 89.967, -133.0552
1975.000000, 89.866, -130.9087
2000.000000, 89.822, -128.2098
2030.000000, 89.865, -125.2114
2060.000000, 89.946, -122.1097
2090.000000, 90.148, -118.9084
2120.000000, 90.458, -115.9018
2140.000000, 90.746, -114.4843
2180.000000, 91.191, -113.2207
2200.000000, 91.386, -112.4633
2240.000000, 91.681, -112.3304
2270.000000, 91.604, -111.4814
2300.000000, 91.665, -108.1175
2330.000000, 92.000, -105.3516
2360.000000, 92.415, -103.1219
2400.000000, 93.132, -101.4746
2430.000000, 93.580, -101.7771
2470.000000, 94.059, -101.9185
2500.000000, 94.412, -102.4825
2540.000000, 94.756, -103.2229
2580.000000, 95.169, -103.6999
2620.000000, 95.536, -105.2792
2650.000000, 95.738, -106.7089
2690.000000, 95.886, -108.7946
2720.000000, 95.900, -110.2981
2760.000000, 95.842, -111.4937
2800.000000, 95.825, -112.4037
2850.000000, 95.756, -113.4267
2900.000000, 95.678, -114.4827
2950.000000, 95.435, -115.5687
3000.000000, 95.049, -114.8627
3040.000000, 94.904, -112.9616
3070.000000, 94.922, -111.8564
3110.000000, 94.969, -111.3487
3150.000000, 94.902, -111.3435
3200.000000, 94.667, -110.5733
3250.000000, 94.428, -108.3943
3300.000000, 94.317, -104.8671
3350.000000, 94.542, -100.8581
3400.000000, 95.063, -98.4891
3450.000000, 95.594, -98.7954
3500.000000, 95.839, -100.8137
3550.000000, 95.745, -102.6744
3600.000000, 95.526, -102.6800
3650.000000, 95.427, -102.6663
3700.000000, 95.112, -103.5121
3750.000000, 94.455, -102.0554
3820.000000, 93.870, -94.6472
3870.000000, 93.869, -89.1017
3950.000000, 94.304, -80.8185
4000.000000, 94.767, -76.8756
4060.000000, 95.381, -72.9485
4120.000000, 96.096, -69.9257
4180.000000, 96.815, -68.4970
4250.000000, 97.452, -68.0871
4310.000000, 97.866, -67.5196
4370.000000, 98.208, -66.7245
4440.000000, 98.582, -64.4348
4500.000000, 99.186, -61.6149
4550.000000, 99.859, -60.4911
4620.000000, 100.740, -60.7478
4680.000000, 101.454, -61.6349
4750.000000, 102.201, -63.9291
4820.000000, 102.732, -66.7603
4870.000000, 103.035, -68.6224
4940.000000, 103.370, -71.1978
5000.000000, 103.556, -72.9624
5080.000000, 103.810, -74.0909
5150.000000, 104.173, -74.4200
5220.000000, 104.694, -74.9753
5300.000000, 105.415, -76.4992
5380.000000, 106.241, -79.1847
5450.000000, 107.008, -83.0504
5520.000000, 107.681, -88.5950
5600.000000, 108.194, -96.3937
5700.000000, 108.426, -106.8707
5800.000000, 108.251, -117.4885
5900.000000, 107.645, -127.3875
6000.000000, 106.687, -135.5312
6080.000000, 105.772, -140.3231
6150.000000, 104.953, -143.3018
6220.000000, 104.167, -145.4064
6300.000000, 103.334, -147.1800
6400.000000, 102.336, -148.9231
6500.000000, 101.328, -149.9020
6600.000000, 100.353, -149.9825
6700.000000, 99.439, -149.6634
6800.000000, 98.517, -148.8731
6900.000000, 97.631, -147.0959
7000.000000, 96.871, -144.6392
7100.000000, 96.195, -142.0169
7200.000000, 95.522, -138.9548
7300.000000, 94.910, -134.6887
7400.000000, 94.507, -129.6257
7500.000000, 94.330, -124.6509
7620.000000, 94.406, -119.1277
7750.000000, 94.877, -114.8043
7880.000000, 95.469, -114.0803
8000.000000, 95.801, -116.8219
8120.000000, 95.707, -121.5607
8250.000000, 95.087, -126.6832
8380.000000, 94.124, -131.1833
8500.000000, 92.874, -135.1194
8620.000000, 91.096, -137.6257
8750.000000, 88.527, -135.2235
8850.000000, 86.378, -126.6181
9000.000000, 84.196, -101.9605
9120.000000, 84.213, -80.7394
9250.000000, 85.353, -65.6152
9380.000000, 86.700, -57.6173
9500.000000, 87.795, -54.2844
9620.000000, 88.632, -53.5604
9750.000000, 89.193, -54.5096
9880.000000, 89.374, -56.3651
10000.000000, 89.149, -57.9878
10150.000000, 88.398, -57.6890
10300.000000, 87.471, -53.0830
10440.000000, 86.836, -45.1723
10600.000000, 86.682, -33.9929
10750.000000, 87.077, -23.8815
10900.000000, 87.864, -14.8071
11060.000000, 89.174, -6.5110
11200.000000, 90.749, -1.8167
11380.000000, 93.046, -2.1843
11500.000000, 94.357, -7.1696
11720.000000, 95.312, -22.4482
11800.000000, 95.108, -27.7017
12060.000000, 93.588, -35.4330
12200.000000, 93.094, -35.0599
12410.000000, 93.124, -35.7987
12500.000000, 93.227, -37.6953
12650.000000, 93.263, -42.8123
12800.000000, 92.988, -49.6096
13150.000000, 90.706, -66.5707
13200.000000, 90.182, -68.4836
13400.000000, 87.766, -73.4169
13600.000000, 85.239, -75.5176
13800.000000, 82.472, -78.2595
14000.000000, 78.651, -77.9634
14300.000000, 72.226, -19.9680
14500.000000, 72.900, 27.5966
