* Measurement data measured by REW V5.31
* Source: Headset (DS by VECLAN.COM), MICROPHONE (Master Volume), L, volume: 0.720. Timing signal peak level -18.0 dBFS, measurement signal peak level -17.9 dBFS
* Format: 4M Log Swept Sine, 1 sweep at -12.0 dBFS using an acoustic timing reference
* Dated: Apr 21, 2024 6:02:39 AM
* REW Settings:
*  C-weighting compensation: Off
*  Target level: 75.0 dB
* Note: ; Delay -0.0748 ms (-26 mm, -1.01 in) using estimated IR delay relative to Acoustic reference played from HEADPHONE L with no timing offset
* Measurement: Philips SHP9500 L4
* Smoothing: 1/24 octave
* Frequency Step: 1/48 octave
* Start Frequency: 1.000 Hz
*
* Freq(Hz), SPL(dB), Phase(degrees)
1.000000, 61.344, 27.6350
1.015000, 61.405, 27.2558
1.030000, 61.467, 26.8615
1.044000, 61.523, 26.4788
1.060000, 61.588, 26.0230
1.075000, 61.649, 25.5767
1.090000, 61.709, 25.1102
1.106000, 61.775, 24.5875
1.120000, 61.833, 24.1060
1.138000, 61.911, 23.4535
1.150000, 61.964, 22.9989
1.172000, 62.062, 22.1216
1.180000, 62.098, 21.7849
1.206000, 62.216, 20.6542
1.220000, 62.279, 20.0243
1.241000, 62.373, 19.0555
1.250000, 62.412, 18.6324
1.265000, 62.477, 17.9178
1.280000, 62.540, 17.1926
1.315000, 62.677, 15.4671
1.320000, 62.695, 15.2174
1.340000, 62.765, 14.2124
1.360000, 62.828, 13.2004
1.380000, 62.884, 12.1445
1.400000, 62.932, 11.0698
1.430000, 62.985, 9.4535
1.450000, 63.008, 8.3741
1.475000, 63.019, 7.0197
1.500000, 63.006, 5.6498
1.525000, 62.971, 4.2632
1.550000, 62.917, 2.8650
1.575000, 62.847, 1.4392
1.600000, 62.765, -0.0263
1.625000, 62.674, -1.4876
1.650000, 62.579, -2.9405
1.675000, 62.482, -4.3811
1.700000, 62.388, -5.8058
1.725000, 62.300, -7.2117
1.750000, 62.221, -8.5961
1.775000, 62.156, -9.9739
1.800000, 62.108, -11.3597
1.825000, 62.078, -12.7190
1.850000, 62.067, -14.0536
1.875000, 62.068, -15.3644
1.900000, 62.079, -16.6500
1.925000, 62.099, -17.9084
1.950000, 62.128, -19.1371
1.975000, 62.163, -20.3512
2.000000, 62.205, -21.5652
2.030000, 62.264, -22.9757
2.060000, 62.329, -24.3359
2.090000, 62.400, -25.6447
2.120000, 62.475, -26.9012
2.140000, 62.526, -27.7096
2.180000, 62.633, -29.2768
2.200000, 62.687, -30.0443
2.240000, 62.802, -31.5058
2.270000, 62.896, -32.5392
2.300000, 62.997, -33.5222
2.330000, 63.102, -34.4582
2.360000, 63.212, -35.3504
2.400000, 63.365, -36.5245
2.430000, 63.483, -37.3670
2.470000, 63.644, -38.4345
2.500000, 63.767, -39.1957
2.540000, 63.930, -40.1599
2.580000, 64.095, -41.0804
2.620000, 64.263, -41.9649
2.650000, 64.393, -42.5800
2.690000, 64.569, -43.3458
2.720000, 64.703, -43.8855
2.760000, 64.884, -44.5654
2.800000, 65.067, -45.2498
2.850000, 65.298, -46.0730
2.900000, 65.528, -46.8631
2.950000, 65.759, -47.6150
3.000000, 65.991, -48.3339
3.040000, 66.178, -48.8737
3.070000, 66.319, -49.2567
3.110000, 66.508, -49.7457
3.150000, 66.697, -50.2178
3.200000, 66.933, -50.8262
3.250000, 67.168, -51.4463
3.300000, 67.402, -52.0661
3.350000, 67.635, -52.6652
3.400000, 67.868, -53.2642
3.450000, 68.100, -53.8503
3.500000, 68.332, -54.4203
3.550000, 68.561, -54.9837
3.600000, 68.787, -55.5765
3.650000, 69.009, -56.1894
3.700000, 69.227, -56.8058
3.750000, 69.443, -57.4131
3.820000, 69.741, -58.2791
3.870000, 69.950, -58.8948
3.950000, 70.276, -59.8715
4.000000, 70.474, -60.5048
4.060000, 70.706, -61.2811
4.120000, 70.933, -62.0578
4.180000, 71.154, -62.8351
4.250000, 71.404, -63.7608
4.310000, 71.612, -64.5386
4.370000, 71.812, -65.3080
4.440000, 72.037, -66.2324
4.500000, 72.221, -67.0246
4.550000, 72.370, -67.6789
4.620000, 72.571, -68.6045
4.680000, 72.736, -69.3805
4.750000, 72.921, -70.2541
4.820000, 73.097, -71.1290
4.870000, 73.218, -71.7520
4.940000, 73.379, -72.6079
5.000000, 73.511, -73.3326
5.080000, 73.678, -74.2647
5.150000, 73.817, -75.0351
5.220000, 73.947, -75.8015
5.300000, 74.086, -76.6568
5.380000, 74.216, -77.4697
5.450000, 74.324, -78.1515
5.520000, 74.426, -78.7845
5.600000, 74.536, -79.4764
5.700000, 74.663, -80.2995
5.800000, 74.780, -81.0447
5.900000, 74.890, -81.7130
6.000000, 74.991, -82.3099
6.080000, 75.067, -82.7491
6.150000, 75.131, -83.0849
6.220000, 75.193, -83.3897
6.300000, 75.262, -83.6871
6.400000, 75.344, -83.9949
6.500000, 75.425, -84.2411
6.600000, 75.506, -84.4109
6.700000, 75.587, -84.5151
6.800000, 75.669, -84.5524
6.900000, 75.755, -84.5413
7.000000, 75.847, -84.4745
7.100000, 75.944, -84.3592
7.200000, 76.046, -84.2039
7.300000, 76.156, -84.0358
7.400000, 76.274, -83.8509
7.500000, 76.399, -83.6586
7.620000, 76.559, -83.4368
7.750000, 76.743, -83.2414
7.880000, 76.939, -83.0947
8.000000, 77.126, -83.0189
8.120000, 77.316, -83.0313
8.250000, 77.526, -83.1326
8.380000, 77.733, -83.3251
8.500000, 77.918, -83.5978
8.620000, 78.097, -83.9473
8.750000, 78.281, -84.3934
8.850000, 78.412, -84.7801
9.000000, 78.594, -85.4186
9.120000, 78.726, -85.9552
9.250000, 78.854, -86.5460
9.380000, 78.967, -87.1393
9.500000, 79.060, -87.6729
9.620000, 79.143, -88.1743
9.750000, 79.222, -88.6653
9.880000, 79.287, -89.1043
10.000000, 79.335, -89.4603
10.150000, 79.380, -89.8839
10.300000, 79.418, -90.2433
10.440000, 79.451, -90.5254
10.600000, 79.489, -90.8082
10.750000, 79.529, -91.0532
10.900000, 79.574, -91.2860
11.060000, 79.624, -91.5628
11.200000, 79.669, -91.8469
11.380000, 79.722, -92.2037
11.500000, 79.752, -92.4328
11.720000, 79.802, -92.8053
11.800000, 79.819, -92.9171
12.060000, 79.875, -93.2014
12.200000, 79.910, -93.3191
12.410000, 79.975, -93.4046
12.500000, 80.008, -93.4150
12.650000, 80.071, -93.4060
12.800000, 80.145, -93.3917
13.150000, 80.361, -93.5121
13.200000, 80.395, -93.5625
13.400000, 80.539, -93.8369
13.600000, 80.682, -94.2266
13.800000, 80.815, -94.7184
14.000000, 80.932, -95.2689
14.300000, 81.072, -96.1716
14.500000, 81.144, -96.6931
14.750000, 81.218, -97.1879
15.000000, 81.294, -97.4943
15.250000, 81.391, -97.7045
15.500000, 81.511, -97.8525
15.750000, 81.650, -98.0258
16.000000, 81.797, -98.2980
16.250000, 81.938, -98.7252
16.500000, 82.061, -99.2211
16.750000, 82.156, -99.7034
17.000000, 82.231, -100.0813
17.250000, 82.296, -100.3192
17.500000, 82.365, -100.3714
17.750000, 82.455, -100.2871
18.000000, 82.574, -100.1708
18.250000, 82.720, -100.1620
18.500000, 82.881, -100.3355
18.750000, 83.037, -100.7182
19.000000, 83.171, -101.2790
19.250000, 83.271, -101.9481
19.500000, 83.333, -102.5826
19.750000, 83.365, -103.0748
20.000000, 83.382, -103.3530
20.299999, 83.412, -103.4368
20.600000, 83.478, -103.3305
20.900000, 83.587, -103.2285
21.200001, 83.723, -103.3198
21.400000, 83.816, -103.5174
21.799999, 83.975, -104.1451
22.000000, 84.034, -104.5013
22.400000, 84.124, -105.1507
22.700001, 84.188, -105.5110
23.000000, 84.268, -105.8357
23.299999, 84.362, -106.2660
23.600000, 84.452, -106.8679
24.000000, 84.524, -107.8806
24.299999, 84.521, -108.6241
24.700001, 84.450, -109.1969
25.000000, 84.386, -109.1486
25.400000, 84.357, -108.5440
25.799999, 84.432, -107.7280
26.200001, 84.583, -107.1884
26.500000, 84.705, -107.0487
26.900000, 84.840, -107.0321
27.200001, 84.923, -106.9861
27.600000, 85.040, -106.7636
28.000000, 85.195, -106.4680
28.500000, 85.437, -106.3679
29.000000, 85.669, -106.6940
29.500000, 85.848, -107.2021
30.000000, 85.989, -107.5991
30.400000, 86.095, -107.8211
30.700001, 86.175, -107.9494
31.100000, 86.278, -108.0781
31.500000, 86.380, -108.1455
32.000000, 86.524, -108.1377
32.500000, 86.696, -108.1935
33.000000, 86.875, -108.4497
33.500000, 87.033, -108.8741
34.000000, 87.170, -109.3143
34.500000, 87.303, -109.7546
35.000000, 87.428, -110.2509
35.500000, 87.530, -110.7535
36.000000, 87.618, -111.0921
36.500000, 87.733, -111.2734
37.000000, 87.896, -111.5731
37.500000, 88.070, -112.2589
38.200001, 88.227, -113.6128
38.700001, 88.279, -114.3922
39.500000, 88.383, -115.1187
40.000000, 88.481, -115.5846
40.599998, 88.582, -116.3059
41.200001, 88.649, -116.9658
41.799999, 88.706, -117.4420
42.500000, 88.777, -117.8740
43.099998, 88.837, -118.1382
43.700001, 88.915, -118.3074
44.400002, 89.042, -118.6640
45.000000, 89.137, -119.2554
45.500000, 89.182, -119.8047
46.200001, 89.214, -120.3628
46.799999, 89.250, -120.6519
47.500000, 89.305, -120.8998
48.200001, 89.374, -121.0326
48.700001, 89.443, -121.1239
49.400002, 89.545, -121.4377
50.000000, 89.592, -121.7757
50.799999, 89.607, -121.7299
51.500000, 89.677, -121.2138
52.200001, 89.819, -120.8690
53.000000, 89.979, -120.8985
53.799999, 90.119, -121.0319
54.500000, 90.250, -121.2199
55.200001, 90.373, -121.4726
56.000000, 90.526, -121.7072
57.000000, 90.748, -122.1544
58.000000, 90.968, -122.4693
59.000000, 91.300, -123.0729
60.000000, 91.506, -124.9706
60.799999, 91.467, -125.9218
61.500000, 91.455, -125.8096
62.200001, 91.530, -125.5904
63.000000, 91.645, -125.7111
64.000000, 91.783, -126.1412
65.000000, 91.912, -126.8749
66.000000, 92.018, -127.6678
67.000000, 92.133, -128.4641
68.000000, 92.242, -129.2353
69.000000, 92.366, -129.8828
70.000000, 92.502, -130.6156
71.000000, 92.621, -131.4292
72.000000, 92.724, -132.2159
73.000000, 92.823, -132.9875
74.000000, 92.917, -133.8137
75.000000, 93.002, -134.6535
76.199997, 93.102, -135.6399
77.500000, 93.205, -136.7360
78.800003, 93.289, -137.8297
80.000000, 93.354, -138.8168
81.199997, 93.410, -139.8130
82.500000, 93.461, -140.8990
83.800003, 93.511, -141.9625
85.000000, 93.564, -142.9479
86.199997, 93.612, -143.9638
87.500000, 93.647, -145.0471
88.500000, 93.662, -145.8434
90.000000, 93.668, -147.0097
91.199997, 93.667, -147.9510
92.500000, 93.656, -149.0188
93.800003, 93.632, -150.0147
95.000000, 93.606, -150.7965
96.199997, 93.577, -151.4638
97.500000, 93.532, -152.0827
98.800003, 93.466, -152.5627
100.000000, 93.396, -152.8280
101.500000, 93.343, -152.9640
103.000000, 93.338, -153.3271
104.400002, 93.339, -153.7875
106.000000, 93.359, -154.3189
107.500000, 93.365, -154.8952
109.000000, 93.350, -155.4458
110.599998, 93.318, -156.0194
112.000000, 93.284, -156.5100
113.800003, 93.245, -156.9998
115.000000, 93.231, -157.2386
117.199997, 93.199, -157.6863
118.000000, 93.173, -157.8274
120.599998, 93.095, -158.1730
122.000000, 93.068, -158.4330
124.099998, 93.092, -158.8940
125.000000, 93.113, -159.1918
126.500000, 93.131, -159.6860
128.000000, 93.128, -160.0305
131.500000, 93.112, -160.5129
132.000000, 93.112, -160.6045
134.000000, 93.105, -161.0380
136.000000, 93.096, -161.4176
138.000000, 93.097, -161.8024
140.000000, 93.099, -162.2768
143.000000, 93.076, -163.0191
145.000000, 93.027, -163.4656
147.500000, 92.917, -164.0578
150.000000, 92.797, -164.3710
152.500000, 92.749, -164.6175
155.000000, 92.709, -164.5051
157.500000, 92.691, -164.2080
160.000000, 92.677, -164.1760
162.500000, 92.662, -164.2969
165.000000, 92.652, -164.4200
167.500000, 92.630, -164.5473
170.000000, 92.598, -164.6596
172.500000, 92.571, -164.7587
175.000000, 92.543, -164.8604
177.500000, 92.502, -164.9002
180.000000, 92.461, -164.8492
182.500000, 92.444, -164.7687
185.000000, 92.436, -164.7173
187.500000, 92.421, -164.6653
190.000000, 92.398, -164.6252
192.500000, 92.375, -164.5936
195.000000, 92.355, -164.5083
197.500000, 92.340, -164.4043
200.000000, 92.328, -164.3170
203.000000, 92.314, -164.1830
206.000000, 92.306, -163.9427
209.000000, 92.328, -163.6635
212.000000, 92.372, -163.5621
214.000000, 92.400, -163.5633
218.000000, 92.438, -163.9087
220.000000, 92.442, -164.1866
224.000000, 92.419, -164.6821
227.000000, 92.377, -164.8759
230.000000, 92.324, -164.9320
233.000000, 92.271, -164.8713
236.000000, 92.225, -164.7391
240.000000, 92.177, -164.4997
243.000000, 92.155, -164.2067
247.000000, 92.147, -163.8327
250.000000, 92.155, -163.6344
254.000000, 92.168, -163.4444
258.000000, 92.176, -163.3253
262.000000, 92.180, -163.2420
265.000000, 92.178, -163.1613
269.000000, 92.176, -163.0357
272.000000, 92.177, -162.9398
276.000000, 92.176, -162.8109
280.000000, 92.175, -162.6826
285.000000, 92.178, -162.5290
290.000000, 92.174, -162.3860
295.000000, 92.164, -162.3214
300.000000, 92.139, -162.2541
304.000000, 92.128, -162.0716
307.000000, 92.121, -161.8836
311.000000, 92.108, -161.5907
315.000000, 92.107, -161.2386
320.000000, 92.125, -160.8735
325.000000, 92.149, -160.6354
330.000000, 92.164, -160.4034
335.000000, 92.175, -160.1879
340.000000, 92.180, -159.9572
345.000000, 92.178, -159.7303
350.000000, 92.177, -159.4883
355.000000, 92.175, -159.2346
360.000000, 92.178, -158.9372
365.000000, 92.188, -158.6465
370.000000, 92.203, -158.3730
375.000000, 92.215, -158.1326
382.000000, 92.225, -157.8099
387.000000, 92.229, -157.5802
395.000000, 92.235, -157.1684
400.000000, 92.240, -156.8701
406.000000, 92.247, -156.4878
412.000000, 92.261, -156.1201
418.000000, 92.278, -155.7689
425.000000, 92.302, -155.4327
431.000000, 92.321, -155.1560
437.000000, 92.338, -154.8581
444.000000, 92.358, -154.4754
450.000000, 92.378, -154.1716
455.000000, 92.399, -153.9354
462.000000, 92.435, -153.6802
468.000000, 92.464, -153.6219
475.000000, 92.440, -153.7367
482.000000, 92.377, -153.2412
487.000000, 92.370, -152.6446
494.000000, 92.405, -151.9639
500.000000, 92.444, -151.5595
508.000000, 92.487, -151.1257
515.000000, 92.523, -150.7648
522.000000, 92.562, -150.3792
530.000000, 92.597, -149.9971
538.000000, 92.631, -149.6228
545.000000, 92.669, -149.3015
552.000000, 92.703, -148.9977
560.000000, 92.732, -148.6635
570.000000, 92.760, -148.1802
580.000000, 92.794, -147.6072
590.000000, 92.848, -147.0521
600.000000, 92.905, -146.5997
608.000000, 92.942, -146.2426
615.000000, 92.975, -145.9105
622.000000, 93.013, -145.5779
630.000000, 93.055, -145.2376
640.000000, 93.099, -144.8475
650.000000, 93.144, -144.4384
660.000000, 93.180, -144.0899
670.000000, 93.206, -143.7549
680.000000, 93.232, -143.3587
690.000000, 93.268, -142.8868
700.000000, 93.307, -142.3988
710.000000, 93.350, -141.8973
720.000000, 93.397, -141.4172
730.000000, 93.450, -140.9516
740.000000, 93.507, -140.4829
750.000000, 93.565, -140.0634
762.000000, 93.629, -139.6065
775.000000, 93.707, -139.0877
788.000000, 93.783, -138.6702
800.000000, 93.842, -138.3530
812.000000, 93.896, -137.9951
825.000000, 93.958, -137.5491
838.000000, 94.026, -137.1547
850.000000, 94.087, -136.8352
862.000000, 94.142, -136.5328
875.000000, 94.200, -136.2632
885.000000, 94.238, -136.0938
900.000000, 94.282, -135.7768
912.000000, 94.326, -135.4732
925.000000, 94.362, -135.2998
938.000000, 94.369, -135.0742
950.000000, 94.383, -134.7036
962.000000, 94.401, -134.3422
975.000000, 94.418, -133.8696
988.000000, 94.431, -133.3858
1000.000000, 94.440, -132.8131
1015.000000, 94.497, -132.0586
1030.000000, 94.566, -131.5384
1044.000000, 94.605, -131.1222
1060.000000, 94.631, -130.4326
1075.000000, 94.672, -129.5870
1090.000000, 94.761, -128.6526
1106.000000, 94.917, -127.9252
1120.000000, 95.059, -127.5731
1138.000000, 95.228, -127.2798
1150.000000, 95.333, -127.1589
1172.000000, 95.509, -127.0988
1180.000000, 95.565, -127.1162
1206.000000, 95.739, -127.2486
1220.000000, 95.821, -127.4383
1241.000000, 95.908, -127.8838
1250.000000, 95.929, -128.0647
1265.000000, 95.944, -128.3279
1280.000000, 95.936, -128.4985
1315.000000, 95.872, -128.2663
1320.000000, 95.860, -128.1926
1340.000000, 95.791, -127.7225
1360.000000, 95.712, -126.6895
1380.000000, 95.711, -125.3369
1400.000000, 95.820, -124.0045
1430.000000, 96.088, -122.9567
1450.000000, 96.248, -123.0055
1475.000000, 96.326, -123.3388
1500.000000, 96.345, -123.2654
1525.000000, 96.379, -122.6998
1550.000000, 96.475, -122.6760
1575.000000, 96.415, -123.3546
1600.000000, 96.176, -122.7045
1625.000000, 96.118, -120.0587
1650.000000, 96.377, -118.2398
1675.000000, 96.572, -118.4772
1700.000000, 96.561, -118.3418
1725.000000, 96.661, -117.2077
1750.000000, 96.834, -117.1963
1775.000000, 96.918, -117.9495
1800.000000, 96.816, -118.9811
1825.000000, 96.542, -118.9054
1850.000000, 96.298, -117.1039
1875.000000, 96.277, -114.6172
1900.000000, 96.414, -112.8102
1925.000000, 96.586, -111.7489
1950.000000, 96.753, -111.2504
1975.000000, 96.872, -111.4511
2000.000000, 96.849, -111.9081
2030.000000, 96.695, -111.5127
2060.000000, 96.616, -109.8191
2090.000000, 96.741, -108.7220
2120.000000, 96.708, -109.3748
2140.000000, 96.516, -109.2267
2180.000000, 96.154, -106.5804
2200.000000, 96.026, -104.8438
2240.000000, 95.915, -99.8986
2270.000000, 96.141, -96.0800
2300.000000, 96.467, -93.8305
2330.000000, 96.743, -92.2222
2360.000000, 97.038, -91.1509
2400.000000, 97.177, -91.3706
2430.000000, 96.962, -89.7932
2470.000000, 97.077, -83.9186
2500.000000, 97.535, -80.4971
2540.000000, 98.349, -77.8676
2580.000000, 99.067, -78.6647
2620.000000, 99.291, -80.2261
2650.000000, 99.295, -79.9174
2690.000000, 99.434, -76.9551
2720.000000, 99.908, -74.0454
2760.000000, 100.783, -73.4102
2800.000000, 101.427, -74.9600
2850.000000, 102.115, -77.4755
2900.000000, 102.542, -81.3924
2950.000000, 102.670, -84.5572
3000.000000, 102.771, -87.2367
3040.000000, 102.730, -89.5637
3070.000000, 102.614, -90.7060
3110.000000, 102.509, -91.1368
3150.000000, 102.585, -91.5984
3200.000000, 102.665, -93.9591
3250.000000, 102.449, -96.7092
3300.000000, 102.054, -98.2563
3350.000000, 101.615, -98.7354
3400.000000, 101.241, -97.8504
3450.000000, 101.045, -97.2298
3500.000000, 100.749, -97.4428
3550.000000, 100.264, -96.9533
3600.000000, 99.670, -94.6373
3650.000000, 99.251, -89.4909
3700.000000, 99.337, -83.9657
3750.000000, 99.593, -81.2004
3820.000000, 99.620, -77.5356
3870.000000, 99.853, -72.7406
3950.000000, 101.022, -68.8147
4000.000000, 101.536, -70.8763
4060.000000, 101.505, -73.7364
4120.000000, 101.117, -72.2437
4180.000000, 101.350, -67.6586
4250.000000, 102.085, -67.2323
4310.000000, 102.292, -69.9635
4370.000000, 101.938, -71.2459
4440.000000, 101.524, -68.5660
4500.000000, 101.454, -64.6511
4550.000000, 101.692, -61.1292
4620.000000, 102.311, -57.9408
4680.000000, 102.975, -57.1339
4750.000000, 103.638, -58.7399
4820.000000, 103.956, -62.1443
4870.000000, 103.912, -64.5545
4940.000000, 103.558, -66.5559
5000.000000, 103.118, -66.0569
5080.000000, 102.736, -61.9976
5150.000000, 102.875, -57.0452
5220.000000, 103.442, -53.0799
5300.000000, 104.340, -51.2970
5380.000000, 105.241, -52.2445
5450.000000, 105.913, -54.8747
5520.000000, 106.420, -58.8088
5600.000000, 106.680, -64.4543
5700.000000, 106.419, -71.0058
5800.000000, 105.751, -74.2654
5900.000000, 105.315, -73.1029
6000.000000, 105.679, -72.2859
6080.000000, 106.184, -75.4754
6150.000000, 106.358, -80.8888
6220.000000, 106.098, -87.1441
6300.000000, 105.318, -92.9894
6400.000000, 104.033, -97.0459
6500.000000, 102.696, -98.5525
6600.000000, 101.302, -97.8539
6700.000000, 99.954, -94.2075
6800.000000, 98.946, -88.1835
6900.000000, 98.321, -82.2340
7000.000000, 97.854, -76.3358
7100.000000, 97.560, -69.7714
7200.000000, 97.553, -62.6326
7300.000000, 97.955, -56.2108
7400.000000, 98.572, -52.5798
7500.000000, 99.100, -51.3063
7620.000000, 99.567, -50.9715
7750.000000, 100.009, -51.5085
7880.000000, 100.326, -53.7016
8000.000000, 100.331, -58.1048
8120.000000, 99.660, -63.2752
8250.000000, 98.210, -64.4207
8380.000000, 96.934, -58.2421
8500.000000, 96.725, -50.8480
8620.000000, 97.062, -47.9729
8750.000000, 97.197, -49.1359
8850.000000, 97.019, -51.0222
9000.000000, 96.315, -53.8545
9120.000000, 95.463, -54.9014
9250.000000, 94.447, -54.3759
9380.000000, 93.486, -52.9752
9500.000000, 92.613, -51.6321
9620.000000, 91.702, -50.2597
9750.000000, 90.660, -48.7960
9880.000000, 89.507, -48.2499
10000.000000, 88.101, -48.3755
10150.000000, 85.651, -48.4053
10300.000000, 81.992, -43.4877
10440.000000, 79.544, 23.6101
10600.000000, 83.000, 78.2720
10750.000000, 86.681, 81.3706
10900.000000, 89.134, 78.8438
11060.000000, 90.895, 75.6101
11200.000000, 92.042, 72.8096
11380.000000, 93.110, 68.8981
11500.000000, 93.615, 66.3407
11720.000000, 94.276, 62.1445
11800.000000, 94.487, 60.7696
12060.000000, 95.157, 54.9794
12200.000000, 95.425, 50.6834
12410.000000, 95.726, 42.4500
12500.000000, 95.827, 37.8153
12650.000000, 95.855, 27.9222
12800.000000, 95.471, 15.1183
13150.000000, 91.512, -17.9477
13200.000000, 90.561, -21.7794
13400.000000, 86.014, -32.5490
13600.000000, 80.754, -35.9195
