* Measurement data measured by REW V5.31.3
* Source: Headset (DS by VECLAN.COM), MICROPHONE (Master Volume), L, volume: 0.720. Timing signal peak level -9.2 dBFS, measurement signal peak level -9.1 dBFS
* Format: 2M Log Swept Sine, 1 sweep at -23.7 dBFS using an acoustic timing reference
* Dated: Oct 15, 2024 2:00:08 PM
* REW Settings:
*  C-weighting compensation: Off
*  Target level: 85.0 dB
* Note: ; Fosi DS1 Delay -0.0215 ms (-7.4 mm, -0.29 in) using estimated IR delay relative to Acoustic reference played from SPEAKER R with no timing offset Clock adjustment: -26.2 ppm
* Measurement: Philips SHP9500 R5
* Smoothing: 1/24 octave
* Frequency Step: 1/48 octave
* Start Frequency: 1.000 Hz
*
* Freq(Hz), SPL(dB), Phase(degrees)
1.000000, 54.293, 24.2630
1.015000, 54.238, 24.9096
1.030000, 54.188, 25.5313
1.044000, 54.146, 26.0850
1.060000, 54.105, 26.6810
1.075000, 54.072, 27.1998
1.090000, 54.046, 27.6783
1.106000, 54.026, 28.1606
1.120000, 54.015, 28.5912
1.138000, 54.010, 29.1754
1.150000, 54.012, 29.5811
1.172000, 54.026, 30.3407
1.180000, 54.034, 30.6152
1.206000, 54.070, 31.5005
1.220000, 54.096, 31.9634
1.241000, 54.140, 32.6249
1.250000, 54.162, 32.8926
1.265000, 54.200, 33.3128
1.280000, 54.241, 33.6957
1.315000, 54.344, 34.4142
1.320000, 54.359, 34.4942
1.340000, 54.422, 34.7505
1.360000, 54.485, 34.8989
1.380000, 54.549, 34.8917
1.400000, 54.611, 34.7431
1.430000, 54.699, 34.2648
1.450000, 54.752, 33.7681
1.475000, 54.814, 32.9725
1.500000, 54.869, 32.0730
1.525000, 54.922, 31.1203
1.550000, 54.972, 30.1245
1.575000, 55.021, 29.0716
1.600000, 55.071, 27.9490
1.625000, 55.123, 26.7870
1.650000, 55.177, 25.5837
1.675000, 55.237, 24.3365
1.700000, 55.302, 23.0418
1.725000, 55.374, 21.6958
1.750000, 55.454, 20.2942
1.775000, 55.544, 18.8185
1.800000, 55.645, 17.2514
1.825000, 55.758, 15.6227
1.850000, 55.885, 13.9555
1.875000, 56.024, 12.2909
1.900000, 56.175, 10.6518
1.925000, 56.337, 9.0483
1.950000, 56.508, 7.4857
1.975000, 56.686, 5.9552
2.000000, 56.871, 4.4459
2.030000, 57.098, 2.6890
2.060000, 57.330, 0.9840
2.090000, 57.564, -0.6770
2.120000, 57.798, -2.3032
2.140000, 57.952, -3.3727
2.180000, 58.254, -5.5081
2.200000, 58.402, -6.5845
2.240000, 58.699, -8.6997
2.270000, 58.924, -10.2342
2.300000, 59.152, -11.7144
2.330000, 59.381, -13.1361
2.360000, 59.611, -14.4985
2.400000, 59.916, -16.2621
2.430000, 60.143, -17.5254
2.470000, 60.440, -19.1311
2.500000, 60.658, -20.2826
2.540000, 60.941, -21.7581
2.580000, 61.213, -23.1944
2.620000, 61.479, -24.6177
2.650000, 61.673, -25.6528
2.690000, 61.928, -26.9828
2.720000, 62.115, -27.9383
2.760000, 62.360, -29.1510
2.800000, 62.598, -30.3293
2.850000, 62.887, -31.7081
2.900000, 63.167, -32.9799
2.950000, 63.436, -34.1619
3.000000, 63.694, -35.3132
3.040000, 63.892, -36.2060
3.070000, 64.037, -36.8497
3.110000, 64.225, -37.6690
3.150000, 64.408, -38.4396
3.200000, 64.631, -39.3585
3.250000, 64.848, -40.2048
3.300000, 65.059, -40.9665
3.350000, 65.265, -41.6614
3.400000, 65.462, -42.3312
3.450000, 65.652, -42.9617
3.500000, 65.838, -43.5391
3.550000, 66.020, -44.0591
3.600000, 66.200, -44.5454
3.650000, 66.379, -44.9809
3.700000, 66.557, -45.3571
3.750000, 66.732, -45.6822
3.820000, 66.972, -46.0935
3.870000, 67.142, -46.3495
3.950000, 67.413, -46.6936
4.000000, 67.583, -46.8948
4.060000, 67.789, -47.1074
4.120000, 67.996, -47.2690
4.180000, 68.203, -47.3953
4.250000, 68.445, -47.5400
4.310000, 68.654, -47.6518
4.370000, 68.863, -47.7659
4.440000, 69.109, -47.9202
4.500000, 69.321, -48.0335
4.550000, 69.499, -48.1170
4.620000, 69.748, -48.2558
4.680000, 69.961, -48.3908
4.750000, 70.207, -48.5704
4.820000, 70.452, -48.7888
4.870000, 70.626, -48.9510
4.940000, 70.869, -49.1806
5.000000, 71.075, -49.4002
5.080000, 71.345, -49.7263
5.150000, 71.576, -50.0346
5.220000, 71.803, -50.3780
5.300000, 72.057, -50.7882
5.380000, 72.305, -51.2099
5.450000, 72.515, -51.6066
5.520000, 72.720, -52.0087
5.600000, 72.945, -52.4875
5.700000, 73.217, -53.1082
5.800000, 73.477, -53.7280
5.900000, 73.727, -54.3534
6.000000, 73.965, -54.9781
6.080000, 74.148, -55.4812
6.150000, 74.304, -55.9066
6.220000, 74.454, -56.3349
6.300000, 74.621, -56.8133
6.400000, 74.820, -57.4009
6.500000, 75.012, -57.9796
6.600000, 75.197, -58.5350
6.700000, 75.376, -59.0829
6.800000, 75.548, -59.6124
6.900000, 75.715, -60.1300
7.000000, 75.875, -60.6238
7.100000, 76.028, -61.1065
7.200000, 76.176, -61.5697
7.300000, 76.320, -62.0194
7.400000, 76.461, -62.4471
7.500000, 76.597, -62.8625
7.620000, 76.757, -63.3381
7.750000, 76.924, -63.8250
7.880000, 77.085, -64.2947
8.000000, 77.229, -64.7033
8.120000, 77.371, -65.0974
8.250000, 77.523, -65.5062
8.380000, 77.671, -65.8978
8.500000, 77.806, -66.2527
8.620000, 77.939, -66.5972
8.750000, 78.082, -66.9664
8.850000, 78.190, -67.2528
9.000000, 78.350, -67.6792
9.120000, 78.476, -68.0262
9.250000, 78.610, -68.4095
9.380000, 78.740, -68.7942
9.500000, 78.856, -69.1555
9.620000, 78.969, -69.5119
9.750000, 79.085, -69.8941
9.880000, 79.190, -70.2592
10.000000, 79.275, -70.5701
10.150000, 79.368, -70.9586
10.300000, 79.453, -71.2950
10.440000, 79.527, -71.5608
10.600000, 79.613, -71.8183
10.750000, 79.702, -72.0201
10.900000, 79.798, -72.1983
11.060000, 79.913, -72.4212
11.200000, 80.022, -72.6723
11.380000, 80.171, -73.0422
11.500000, 80.273, -73.3283
11.720000, 80.462, -73.9444
11.800000, 80.530, -74.2019
12.060000, 80.747, -75.1618
12.200000, 80.856, -75.7659
12.410000, 81.007, -76.7043
12.500000, 81.064, -77.1039
12.650000, 81.149, -77.7583
12.800000, 81.224, -78.3781
13.150000, 81.373, -79.6640
13.200000, 81.393, -79.8294
13.400000, 81.474, -80.4196
13.600000, 81.559, -80.9117
13.800000, 81.652, -81.3255
14.000000, 81.753, -81.7002
14.300000, 81.919, -82.3030
14.500000, 82.034, -82.7147
14.750000, 82.174, -83.2368
15.000000, 82.311, -83.7520
15.250000, 82.447, -84.2766
15.500000, 82.583, -84.7390
15.750000, 82.719, -85.1345
16.000000, 82.863, -85.4855
16.250000, 83.015, -85.8776
16.500000, 83.174, -86.3032
16.750000, 83.333, -86.7864
17.000000, 83.487, -87.3285
17.250000, 83.630, -87.9343
17.500000, 83.758, -88.5339
17.750000, 83.872, -89.0827
18.000000, 83.979, -89.5611
18.250000, 84.084, -89.9942
18.500000, 84.194, -90.3748
18.750000, 84.308, -90.7321
19.000000, 84.428, -91.0984
19.250000, 84.548, -91.5219
19.500000, 84.663, -91.9710
19.750000, 84.769, -92.4264
20.000000, 84.864, -92.8602
20.299999, 84.970, -93.3519
20.600000, 85.072, -93.7605
20.900000, 85.176, -94.1009
21.200001, 85.285, -94.4308
21.400000, 85.360, -94.6598
21.799999, 85.506, -95.1440
22.000000, 85.574, -95.3953
22.400000, 85.698, -95.8995
22.700001, 85.782, -96.2179
23.000000, 85.863, -96.4699
23.299999, 85.947, -96.6781
23.600000, 86.035, -96.8500
24.000000, 86.157, -97.0528
24.299999, 86.250, -97.2060
24.700001, 86.374, -97.3657
25.000000, 86.469, -97.4357
25.400000, 86.609, -97.4933
25.799999, 86.768, -97.5474
26.200001, 86.944, -97.6942
26.500000, 87.081, -97.8974
26.900000, 87.261, -98.2745
27.200001, 87.391, -98.6224
27.600000, 87.555, -99.1315
28.000000, 87.712, -99.6633
28.500000, 87.901, -100.3809
29.000000, 88.083, -101.1318
29.500000, 88.253, -101.9044
30.000000, 88.413, -102.6792
30.400000, 88.536, -103.3199
30.700001, 88.624, -103.8054
31.100000, 88.737, -104.4620
31.500000, 88.842, -105.1265
32.000000, 88.959, -105.9320
32.500000, 89.066, -106.6953
33.000000, 89.164, -107.4052
33.500000, 89.255, -108.0922
34.000000, 89.339, -108.7286
34.500000, 89.418, -109.2922
35.000000, 89.496, -109.7775
35.500000, 89.576, -110.2143
36.000000, 89.662, -110.6241
36.500000, 89.749, -111.0326
37.000000, 89.837, -111.4350
37.500000, 89.924, -111.8377
38.200001, 90.047, -112.3907
38.700001, 90.133, -112.7839
39.500000, 90.265, -113.3578
40.000000, 90.350, -113.6526
40.599998, 90.462, -113.9885
41.200001, 90.587, -114.3393
41.799999, 90.718, -114.7499
42.500000, 90.873, -115.3321
43.099998, 91.003, -115.9335
43.700001, 91.122, -116.6170
44.400002, 91.238, -117.4953
45.000000, 91.312, -118.2488
45.500000, 91.356, -118.8083
46.200001, 91.398, -119.4081
46.799999, 91.433, -119.7019
47.500000, 91.499, -119.8085
48.200001, 91.604, -119.8218
48.700001, 91.700, -119.8490
49.400002, 91.858, -119.9702
50.000000, 92.010, -120.1932
50.799999, 92.220, -120.7143
51.500000, 92.398, -121.3863
52.200001, 92.559, -122.1923
53.000000, 92.721, -123.1654
53.799999, 92.871, -124.2076
54.500000, 92.992, -125.1677
55.200001, 93.100, -126.1554
56.000000, 93.210, -127.2682
57.000000, 93.335, -128.5312
58.000000, 93.472, -129.7176
59.000000, 93.610, -131.0786
60.000000, 93.683, -132.4263
60.799999, 93.725, -133.2363
61.500000, 93.781, -133.8510
62.200001, 93.837, -134.5256
63.000000, 93.888, -135.3120
64.000000, 93.949, -136.2156
65.000000, 94.001, -137.1964
66.000000, 94.062, -138.1089
67.000000, 94.135, -139.1302
68.000000, 94.182, -140.2700
69.000000, 94.222, -141.2754
70.000000, 94.268, -142.2611
71.000000, 94.307, -143.2799
72.000000, 94.340, -144.2577
73.000000, 94.370, -145.2015
74.000000, 94.395, -146.1610
75.000000, 94.412, -147.1169
76.199997, 94.424, -148.2185
77.500000, 94.433, -149.3408
78.800003, 94.441, -150.4366
80.000000, 94.441, -151.4861
81.199997, 94.433, -152.5279
82.500000, 94.416, -153.6737
83.800003, 94.380, -154.7998
85.000000, 94.330, -155.7818
86.199997, 94.263, -156.7121
87.500000, 94.171, -157.5156
88.500000, 94.095, -157.9862
90.000000, 93.988, -158.4076
91.199997, 93.930, -158.5426
92.500000, 93.907, -158.5349
93.800003, 93.920, -158.6146
95.000000, 93.942, -158.8791
96.199997, 93.963, -159.2475
97.500000, 93.976, -159.7430
98.800003, 93.975, -160.3232
100.000000, 93.961, -160.8678
101.500000, 93.939, -161.4878
103.000000, 93.917, -162.0214
104.400002, 93.899, -162.4633
106.000000, 93.883, -162.9919
107.500000, 93.863, -163.5151
109.000000, 93.841, -164.0040
110.599998, 93.812, -164.5638
112.000000, 93.781, -164.9693
113.800003, 93.743, -165.3749
115.000000, 93.722, -165.6709
117.199997, 93.680, -166.2762
118.000000, 93.670, -166.4720
120.599998, 93.639, -167.2588
122.000000, 93.605, -167.6528
124.099998, 93.556, -168.0255
125.000000, 93.538, -168.1752
126.500000, 93.506, -168.3515
128.000000, 93.470, -168.5389
131.500000, 93.400, -168.8080
132.000000, 93.392, -168.8722
134.000000, 93.356, -169.1714
136.000000, 93.325, -169.4154
138.000000, 93.310, -169.6389
140.000000, 93.304, -169.8934
143.000000, 93.263, -170.4178
145.000000, 93.207, -170.6555
147.500000, 93.149, -170.8192
150.000000, 93.111, -171.0711
152.500000, 93.088, -171.3835
155.000000, 93.068, -171.5635
157.500000, 93.038, -171.5723
160.000000, 92.989, -171.6829
162.500000, 92.935, -171.9111
165.000000, 92.893, -172.1003
167.500000, 92.856, -172.1446
170.000000, 92.814, -172.1251
172.500000, 92.771, -172.1654
175.000000, 92.738, -172.2380
177.500000, 92.710, -172.2396
180.000000, 92.683, -172.2245
182.500000, 92.659, -172.1423
185.000000, 92.641, -172.0743
187.500000, 92.625, -172.0274
190.000000, 92.607, -172.0622
192.500000, 92.590, -172.1098
195.000000, 92.578, -172.0804
197.500000, 92.574, -172.0475
200.000000, 92.586, -171.9934
203.000000, 92.611, -172.0109
206.000000, 92.626, -172.1122
209.000000, 92.637, -172.2933
212.000000, 92.645, -172.5885
214.000000, 92.642, -172.7958
218.000000, 92.614, -173.2660
220.000000, 92.590, -173.5601
224.000000, 92.510, -174.1156
227.000000, 92.426, -174.4060
230.000000, 92.331, -174.5554
233.000000, 92.232, -174.5047
236.000000, 92.139, -174.3616
240.000000, 92.028, -174.0403
243.000000, 91.964, -173.6924
247.000000, 91.902, -173.1883
250.000000, 91.871, -172.8384
254.000000, 91.840, -172.4242
258.000000, 91.812, -172.0010
262.000000, 91.794, -171.5492
265.000000, 91.783, -171.2733
269.000000, 91.766, -170.9253
272.000000, 91.752, -170.6755
276.000000, 91.735, -170.4445
280.000000, 91.725, -170.1288
285.000000, 91.720, -169.7681
290.000000, 91.720, -169.5013
295.000000, 91.711, -169.1875
300.000000, 91.705, -168.8456
304.000000, 91.701, -168.6060
307.000000, 91.692, -168.4262
311.000000, 91.681, -168.1768
315.000000, 91.676, -167.9386
320.000000, 91.666, -167.6477
325.000000, 91.642, -167.2072
330.000000, 91.621, -166.5974
335.000000, 91.635, -165.8420
340.000000, 91.685, -165.2222
345.000000, 91.738, -164.8733
350.000000, 91.773, -164.6933
355.000000, 91.795, -164.5168
360.000000, 91.803, -164.2590
365.000000, 91.815, -163.9185
370.000000, 91.841, -163.5963
375.000000, 91.867, -163.3172
382.000000, 91.897, -162.9171
387.000000, 91.914, -162.6789
395.000000, 91.941, -162.2938
400.000000, 91.962, -162.0765
406.000000, 91.978, -161.8377
412.000000, 91.990, -161.6243
418.000000, 92.007, -161.3592
425.000000, 92.014, -161.1469
431.000000, 91.993, -160.9414
437.000000, 91.984, -160.5538
444.000000, 92.020, -159.9086
450.000000, 92.066, -159.4671
455.000000, 92.098, -159.2042
462.000000, 92.137, -158.8898
468.000000, 92.166, -158.6274
475.000000, 92.194, -158.3018
482.000000, 92.222, -157.9927
487.000000, 92.246, -157.7928
494.000000, 92.276, -157.5323
500.000000, 92.306, -157.4172
508.000000, 92.353, -157.3505
515.000000, 92.337, -157.3683
522.000000, 92.278, -156.7219
530.000000, 92.324, -155.6046
538.000000, 92.418, -155.0828
545.000000, 92.484, -154.8065
552.000000, 92.535, -154.5909
560.000000, 92.583, -154.3864
570.000000, 92.636, -154.0269
580.000000, 92.693, -153.6802
590.000000, 92.761, -153.3244
600.000000, 92.824, -152.9969
608.000000, 92.869, -152.7321
615.000000, 92.908, -152.5477
622.000000, 92.941, -152.3718
630.000000, 92.973, -152.1650
640.000000, 93.015, -151.9100
650.000000, 93.057, -151.6841
660.000000, 93.094, -151.4536
670.000000, 93.128, -151.1560
680.000000, 93.161, -150.8912
690.000000, 93.202, -150.6049
700.000000, 93.253, -150.2579
710.000000, 93.301, -149.9628
720.000000, 93.346, -149.6727
730.000000, 93.394, -149.3539
740.000000, 93.445, -149.1249
750.000000, 93.485, -148.9890
762.000000, 93.530, -148.6969
775.000000, 93.590, -148.3574
788.000000, 93.634, -148.0237
800.000000, 93.687, -147.6641
812.000000, 93.756, -147.4065
825.000000, 93.814, -147.2565
838.000000, 93.869, -147.0525
850.000000, 93.922, -146.8365
862.000000, 93.967, -146.5398
875.000000, 94.034, -146.3091
885.000000, 94.085, -146.2029
900.000000, 94.156, -146.1799
912.000000, 94.185, -146.2620
925.000000, 94.195, -146.2816
938.000000, 94.203, -146.1008
950.000000, 94.210, -145.8761
962.000000, 94.226, -145.7127
975.000000, 94.258, -145.6158
988.000000, 94.267, -145.6552
1000.000000, 94.233, -145.5150
1015.000000, 94.205, -145.0880
1030.000000, 94.202, -144.4491
1044.000000, 94.244, -143.8704
1060.000000, 94.258, -143.5688
1075.000000, 94.264, -142.7828
1090.000000, 94.366, -142.0712
1106.000000, 94.495, -141.8174
1120.000000, 94.589, -141.8488
1138.000000, 94.664, -141.9768
1150.000000, 94.689, -141.9025
1172.000000, 94.755, -141.4447
1180.000000, 94.784, -141.3336
1206.000000, 94.881, -141.1471
1220.000000, 94.922, -141.1019
1241.000000, 94.968, -140.9171
1250.000000, 95.001, -140.7447
1265.000000, 95.087, -140.7009
1280.000000, 95.148, -141.0770
1315.000000, 95.138, -141.3524
1320.000000, 95.125, -141.3037
1340.000000, 95.088, -140.8788
1360.000000, 95.051, -140.3979
1380.000000, 95.021, -139.9205
1400.000000, 94.961, -139.4500
1430.000000, 95.048, -137.6320
1450.000000, 95.212, -137.3582
1475.000000, 95.297, -137.8429
1500.000000, 95.280, -137.4955
1525.000000, 95.303, -137.0160
1550.000000, 95.312, -136.8092
1575.000000, 95.312, -136.2583
1600.000000, 95.400, -135.8736
1625.000000, 95.421, -136.5305
1650.000000, 95.217, -136.7460
1675.000000, 95.010, -134.8919
1700.000000, 95.061, -132.7588
1725.000000, 95.191, -131.9330
1750.000000, 95.293, -131.2733
1775.000000, 95.417, -131.3017
1800.000000, 95.380, -131.8074
1825.000000, 95.255, -131.0444
1850.000000, 95.324, -129.9300
1875.000000, 95.378, -130.4893
1900.000000, 95.178, -131.0366
1925.000000, 94.902, -130.0950
1950.000000, 94.721, -128.4182
1975.000000, 94.544, -126.5455
2000.000000, 94.431, -123.7808
2030.000000, 94.478, -120.5502
2060.000000, 94.649, -117.2804
2090.000000, 95.032, -114.8874
2120.000000, 95.379, -114.0759
2140.000000, 95.559, -114.0054
2180.000000, 95.657, -113.9340
2200.000000, 95.687, -113.3382
2240.000000, 95.717, -112.7004
2270.000000, 95.598, -111.5259
2300.000000, 95.542, -109.0987
2330.000000, 95.579, -106.2898
2360.000000, 95.786, -102.4975
2400.000000, 96.505, -98.6151
2430.000000, 97.044, -98.0896
2470.000000, 97.576, -98.3949
2500.000000, 97.853, -99.0753
2540.000000, 98.094, -99.2613
2580.000000, 98.386, -98.5738
2620.000000, 98.827, -98.1434
2650.000000, 99.178, -98.8625
2690.000000, 99.478, -100.5925
2720.000000, 99.622, -101.6282
2760.000000, 99.799, -102.8297
2800.000000, 99.967, -104.5148
2850.000000, 99.984, -107.1036
2900.000000, 99.727, -109.0876
2950.000000, 99.368, -108.6255
3000.000000, 99.299, -106.7063
3040.000000, 99.403, -106.1891
3070.000000, 99.443, -106.2786
3110.000000, 99.435, -106.5738
3150.000000, 99.328, -106.8887
3200.000000, 99.078, -106.2987
3250.000000, 98.865, -104.3737
3300.000000, 98.780, -101.6876
3350.000000, 98.869, -98.8229
3400.000000, 99.123, -96.4143
3450.000000, 99.448, -95.2667
3500.000000, 99.706, -94.9290
3550.000000, 99.871, -94.9105
3600.000000, 99.983, -94.9368
3650.000000, 99.962, -95.4619
3700.000000, 99.708, -95.0638
3750.000000, 99.446, -92.3940
3820.000000, 99.381, -87.4059
3870.000000, 99.467, -82.8110
3950.000000, 100.301, -74.5608
4000.000000, 101.186, -71.3420
4060.000000, 102.288, -70.7485
4120.000000, 103.129, -72.2189
4180.000000, 103.837, -73.8198
4250.000000, 104.585, -77.0465
4310.000000, 104.927, -80.6895
4370.000000, 105.007, -83.3779
4440.000000, 105.093, -84.3303
4500.000000, 105.408, -84.6441
4550.000000, 105.771, -85.9460
4620.000000, 106.169, -89.2595
4680.000000, 106.334, -92.6492
4750.000000, 106.345, -96.4932
4820.000000, 106.185, -100.0078
4870.000000, 105.963, -102.0193
4940.000000, 105.573, -103.6885
5000.000000, 105.231, -104.0948
5080.000000, 104.844, -103.1789
5150.000000, 104.678, -101.2659
5220.000000, 104.743, -99.0527
5300.000000, 105.089, -97.3357
5380.000000, 105.581, -97.3223
5450.000000, 106.007, -98.9497
5520.000000, 106.268, -101.9139
5600.000000, 106.245, -105.5874
5700.000000, 105.902, -108.0360
5800.000000, 105.688, -107.8298
5900.000000, 105.842, -107.1033
6000.000000, 106.265, -107.8554
6080.000000, 106.663, -109.9181
6150.000000, 106.999, -112.8139
6220.000000, 107.279, -116.8277
6300.000000, 107.422, -122.8244
6400.000000, 107.131, -131.3311
6500.000000, 106.295, -138.6256
6600.000000, 105.198, -143.2559
6700.000000, 104.086, -145.9774
6800.000000, 102.972, -147.3074
6900.000000, 101.915, -147.1562
7000.000000, 100.990, -146.1610
7100.000000, 100.116, -144.6738
7200.000000, 99.262, -142.2472
7300.000000, 98.489, -138.7146
7400.000000, 97.867, -134.1656
7500.000000, 97.478, -129.0161
7620.000000, 97.362, -123.0730
7750.000000, 97.647, -117.9207
7880.000000, 98.144, -115.9981
8000.000000, 98.474, -117.8059
8120.000000, 98.349, -122.0792
8250.000000, 97.504, -126.0211
8380.000000, 96.306, -125.6728
8500.000000, 95.464, -122.7265
8620.000000, 94.840, -119.7458
8750.000000, 94.425, -115.2463
8850.000000, 94.567, -113.0474
9000.000000, 94.863, -117.0131
9120.000000, 94.412, -124.8244
9250.000000, 92.858, -133.5907
9380.000000, 90.263, -138.4420
9500.000000, 87.208, -136.7424
9620.000000, 83.838, -126.3105
9750.000000, 80.583, -101.5151
9880.000000, 79.216, -63.5035
10000.000000, 80.562, -28.9211
10150.000000, 83.963, -5.8830
10300.000000, 87.126, 0.8037
10440.000000, 89.374, 0.4810
10600.000000, 91.151, -3.0451
10750.000000, 92.223, -7.0426
10900.000000, 92.945, -10.6310
11060.000000, 93.526, -14.1561
11200.000000, 93.928, -17.5349
11380.000000, 94.228, -22.9871
11500.000000, 94.178, -27.1856
11720.000000, 93.471, -33.5287
11800.000000, 93.118, -34.8608
12060.000000, 92.253, -38.4023
12200.000000, 91.892, -42.9194
12410.000000, 90.799, -56.5882
12500.000000, 89.923, -65.5912
12650.000000, 88.065, -87.2435
12800.000000, 87.504, 161.6513
13150.000000, 92.225, 52.7015
13200.000000, 92.566, 46.1964
13400.000000, 92.761, 24.7061
