* Measurement data measured by REW V5.31
* Source: Headset (DS by VECLAN.COM), MICROPHONE (Master Volume), L, volume: 0.720. Timing signal peak level -17.1 dBFS, measurement signal peak level -17.1 dBFS
* Format: 4M Log Swept Sine, 1 sweep at -12.0 dBFS using an acoustic timing reference
* Dated: Apr 21, 2024 5:59:00 AM
* REW Settings:
*  C-weighting compensation: Off
*  Target level: 75.0 dB
* Note: ; Delay -0.0718 ms (-25 mm, -0.97 in) using estimated IR delay relative to Acoustic reference played from HEADPHONE L with no timing offset
* Measurement: Philips SHP9500 L1
* Smoothing: 1/24 octave
* Frequency Step: 1/48 octave
* Start Frequency: 1.000 Hz
*
* Freq(Hz), SPL(dB), Phase(degrees)
1.000000, 56.735, 14.8428
1.015000, 56.589, 15.4190
1.030000, 56.453, 15.9717
1.044000, 56.333, 16.4612
1.060000, 56.208, 16.9826
1.075000, 56.101, 17.4285
1.090000, 56.007, 17.8307
1.106000, 55.919, 18.2331
1.120000, 55.852, 18.6071
1.138000, 55.775, 19.1455
1.150000, 55.731, 19.5371
1.172000, 55.663, 20.2986
1.180000, 55.642, 20.5798
1.206000, 55.587, 21.5082
1.220000, 55.566, 22.0026
1.241000, 55.544, 22.7122
1.250000, 55.538, 22.9982
1.265000, 55.532, 23.4422
1.280000, 55.532, 23.8359
1.315000, 55.550, 24.5018
1.320000, 55.555, 24.5627
1.340000, 55.577, 24.7063
1.360000, 55.606, 24.6752
1.380000, 55.640, 24.4095
1.400000, 55.679, 23.9127
1.430000, 55.745, 22.7220
1.450000, 55.793, 21.6123
1.475000, 55.858, 19.9104
1.500000, 55.929, 18.0244
1.525000, 56.010, 16.0628
1.550000, 56.100, 14.0624
1.575000, 56.199, 12.0221
1.600000, 56.308, 9.9374
1.625000, 56.427, 7.8540
1.650000, 56.556, 5.7732
1.675000, 56.696, 3.6924
1.700000, 56.846, 1.6064
1.725000, 57.007, -0.4916
1.750000, 57.179, -2.6091
1.775000, 57.363, -4.7701
1.800000, 57.558, -6.9965
1.825000, 57.766, -9.2484
1.850000, 57.991, -11.4789
1.875000, 58.237, -13.6139
1.900000, 58.503, -15.6212
1.925000, 58.787, -17.4963
1.950000, 59.085, -19.2443
1.975000, 59.394, -20.8922
2.000000, 59.711, -22.4691
2.030000, 60.098, -24.2430
2.060000, 60.486, -25.9136
2.090000, 60.870, -27.5051
2.120000, 61.244, -29.0401
2.140000, 61.486, -30.0425
2.180000, 61.944, -32.0405
2.200000, 62.160, -33.0489
2.240000, 62.575, -35.0162
2.270000, 62.879, -36.4223
2.300000, 63.176, -37.7588
2.330000, 63.468, -39.0242
2.360000, 63.752, -40.2211
2.400000, 64.121, -41.7660
2.430000, 64.389, -42.8654
2.470000, 64.734, -44.2574
2.500000, 64.983, -45.2564
2.540000, 65.303, -46.5450
2.580000, 65.606, -47.8248
2.620000, 65.893, -49.1324
2.650000, 66.099, -50.0991
2.690000, 66.360, -51.3542
2.720000, 66.547, -52.2615
2.760000, 66.784, -53.4153
2.800000, 67.010, -54.5415
2.850000, 67.276, -55.8567
2.900000, 67.526, -57.0662
2.950000, 67.759, -58.2016
3.000000, 67.974, -59.3562
3.040000, 68.132, -60.2843
3.070000, 68.243, -60.9656
3.110000, 68.382, -61.8414
3.150000, 68.511, -62.6675
3.200000, 68.661, -63.6432
3.250000, 68.800, -64.5209
3.300000, 68.929, -65.2881
3.350000, 69.045, -65.9920
3.400000, 69.147, -66.7013
3.450000, 69.236, -67.3847
3.500000, 69.315, -68.0063
3.550000, 69.386, -68.5437
3.600000, 69.453, -69.0039
3.650000, 69.516, -69.3590
3.700000, 69.575, -69.6107
3.750000, 69.625, -69.7896
3.820000, 69.683, -69.9704
3.870000, 69.721, -70.0287
3.950000, 69.785, -69.9714
4.000000, 69.833, -69.8535
4.060000, 69.898, -69.6083
4.120000, 69.967, -69.2403
4.180000, 70.041, -68.7828
4.250000, 70.136, -68.2025
4.310000, 70.230, -67.6686
4.370000, 70.337, -67.1268
4.440000, 70.484, -66.4987
4.500000, 70.626, -65.9097
4.550000, 70.754, -65.3994
4.620000, 70.946, -64.7340
4.680000, 71.120, -64.2320
4.750000, 71.333, -63.7530
4.820000, 71.558, -63.3886
4.870000, 71.728, -63.1632
4.940000, 71.974, -62.8987
5.000000, 72.190, -62.7573
5.080000, 72.473, -62.7163
5.150000, 72.716, -62.8170
5.220000, 72.955, -63.0419
5.300000, 73.226, -63.4002
5.380000, 73.489, -63.8491
5.450000, 73.708, -64.3320
5.520000, 73.914, -64.8839
5.600000, 74.137, -65.6129
5.700000, 74.395, -66.6307
5.800000, 74.629, -67.6915
5.900000, 74.838, -68.7860
6.000000, 75.020, -69.9358
6.080000, 75.148, -70.8816
6.150000, 75.249, -71.6800
6.220000, 75.340, -72.4528
6.300000, 75.432, -73.3019
6.400000, 75.528, -74.3378
6.500000, 75.608, -75.3198
6.600000, 75.678, -76.1916
6.700000, 75.738, -76.9667
6.800000, 75.788, -77.6560
6.900000, 75.836, -78.2631
7.000000, 75.886, -78.7647
7.100000, 75.939, -79.1710
7.200000, 75.995, -79.5007
7.300000, 76.059, -79.7868
7.400000, 76.134, -80.0252
7.500000, 76.217, -80.2257
7.620000, 76.329, -80.4477
7.750000, 76.464, -80.7154
7.880000, 76.613, -81.0134
8.000000, 76.758, -81.3272
8.120000, 76.905, -81.7116
8.250000, 77.067, -82.1974
8.380000, 77.226, -82.7369
8.500000, 77.366, -83.2880
8.620000, 77.499, -83.8789
8.750000, 77.635, -84.5345
8.850000, 77.732, -85.0387
9.000000, 77.866, -85.7881
9.120000, 77.964, -86.3635
9.250000, 78.064, -86.9454
9.380000, 78.156, -87.4823
9.500000, 78.238, -87.9350
9.620000, 78.320, -88.3336
9.750000, 78.405, -88.7135
9.880000, 78.485, -89.0521
10.000000, 78.552, -89.3214
10.150000, 78.629, -89.6488
10.300000, 78.704, -89.9385
10.440000, 78.773, -90.1815
10.600000, 78.853, -90.4413
10.750000, 78.933, -90.6795
10.900000, 79.016, -90.9156
11.060000, 79.106, -91.1987
11.200000, 79.186, -91.4900
11.380000, 79.286, -91.8684
11.500000, 79.349, -92.1225
11.720000, 79.458, -92.5833
11.800000, 79.496, -92.7471
12.060000, 79.613, -93.2777
12.200000, 79.673, -93.5797
12.410000, 79.757, -93.9854
12.500000, 79.791, -94.1361
12.650000, 79.842, -94.3542
12.800000, 79.891, -94.5264
13.150000, 80.008, -94.7962
13.200000, 80.027, -94.8262
13.400000, 80.108, -94.9093
13.600000, 80.200, -94.9628
13.800000, 80.306, -95.0189
14.000000, 80.423, -95.1245
14.300000, 80.608, -95.5003
14.500000, 80.729, -95.8630
14.750000, 80.865, -96.4151
15.000000, 80.980, -97.0283
15.250000, 81.074, -97.6755
15.500000, 81.148, -98.2225
15.750000, 81.209, -98.6119
16.000000, 81.270, -98.8224
16.250000, 81.345, -98.9275
16.500000, 81.442, -98.9394
16.750000, 81.563, -98.9331
17.000000, 81.706, -98.9810
17.250000, 81.862, -99.1523
17.500000, 82.020, -99.4339
17.750000, 82.171, -99.8080
18.000000, 82.310, -100.2475
18.250000, 82.435, -100.7363
18.500000, 82.544, -101.2150
18.750000, 82.638, -101.6472
19.000000, 82.722, -102.0059
19.250000, 82.800, -102.2973
19.500000, 82.876, -102.4931
19.750000, 82.955, -102.6054
20.000000, 83.042, -102.6642
20.299999, 83.157, -102.7524
20.600000, 83.279, -102.8887
20.900000, 83.400, -103.1094
21.200001, 83.508, -103.4248
21.400000, 83.569, -103.6615
21.799999, 83.667, -104.1174
22.000000, 83.709, -104.3240
22.400000, 83.784, -104.7533
22.700001, 83.834, -105.1192
23.000000, 83.866, -105.5549
23.299999, 83.865, -106.0314
23.600000, 83.819, -106.3932
24.000000, 83.703, -106.3554
24.299999, 83.616, -105.7583
24.700001, 83.596, -104.2322
25.000000, 83.703, -102.8918
25.400000, 84.004, -101.6112
25.799999, 84.386, -101.4111
26.200001, 84.721, -102.2385
26.500000, 84.899, -103.2229
26.900000, 85.037, -104.5387
27.200001, 85.095, -105.3201
27.600000, 85.161, -106.0137
28.000000, 85.248, -106.4601
28.500000, 85.382, -106.9994
29.000000, 85.503, -107.5711
29.500000, 85.597, -107.9836
30.000000, 85.696, -108.1054
30.400000, 85.800, -108.0894
30.700001, 85.893, -108.0775
31.100000, 86.028, -108.1225
31.500000, 86.167, -108.2605
32.000000, 86.338, -108.5140
32.500000, 86.504, -108.8353
33.000000, 86.667, -109.1939
33.500000, 86.830, -109.6180
34.000000, 86.991, -110.1337
34.500000, 87.136, -110.7466
35.000000, 87.256, -111.3473
35.500000, 87.360, -111.8150
36.000000, 87.476, -112.1537
36.500000, 87.615, -112.5559
37.000000, 87.750, -113.1803
37.500000, 87.842, -113.9661
38.200001, 87.881, -114.8466
38.700001, 87.890, -115.1105
39.500000, 87.947, -115.1798
40.000000, 88.005, -115.2510
40.599998, 88.072, -115.4202
41.200001, 88.130, -115.5777
41.799999, 88.190, -115.6714
42.500000, 88.275, -115.7171
43.099998, 88.363, -115.7172
43.700001, 88.466, -115.6499
44.400002, 88.625, -115.4674
45.000000, 88.808, -115.3883
45.500000, 88.979, -115.5339
46.200001, 89.198, -116.0445
46.799999, 89.349, -116.5444
47.500000, 89.507, -117.0522
48.200001, 89.652, -117.5653
48.700001, 89.738, -117.8996
49.400002, 89.855, -118.1993
50.000000, 89.984, -118.4245
50.799999, 90.177, -119.0964
51.500000, 90.302, -119.9246
52.200001, 90.397, -120.6064
53.000000, 90.522, -121.2093
53.799999, 90.658, -121.7916
54.500000, 90.784, -122.2396
55.200001, 90.922, -122.7298
56.000000, 91.060, -123.3786
57.000000, 91.210, -124.1044
58.000000, 91.326, -125.0425
59.000000, 91.360, -125.4780
60.000000, 91.565, -125.5879
60.799999, 91.781, -126.8837
61.500000, 91.850, -128.4834
62.200001, 91.855, -129.7216
63.000000, 91.892, -130.7504
64.000000, 91.966, -132.0470
65.000000, 92.041, -133.1928
66.000000, 92.126, -134.2559
67.000000, 92.187, -135.2351
68.000000, 92.237, -136.0581
69.000000, 92.280, -136.8337
70.000000, 92.318, -137.6027
71.000000, 92.353, -138.4379
72.000000, 92.377, -139.2828
73.000000, 92.406, -140.0654
74.000000, 92.438, -140.8790
75.000000, 92.455, -141.6648
76.199997, 92.470, -142.4556
77.500000, 92.487, -143.2821
78.800003, 92.484, -144.1150
80.000000, 92.477, -144.7831
81.199997, 92.479, -145.4229
82.500000, 92.486, -146.0708
83.800003, 92.503, -146.6485
85.000000, 92.523, -147.1536
86.199997, 92.544, -147.6183
87.500000, 92.571, -148.1499
88.500000, 92.594, -148.6002
90.000000, 92.620, -149.3921
91.199997, 92.636, -150.0377
92.500000, 92.650, -150.7843
93.800003, 92.651, -151.5134
95.000000, 92.640, -152.1467
96.199997, 92.614, -152.7150
97.500000, 92.572, -153.2376
98.800003, 92.519, -153.6321
100.000000, 92.479, -153.8229
101.500000, 92.477, -154.0482
103.000000, 92.486, -154.5204
104.400002, 92.489, -154.9470
106.000000, 92.494, -155.3934
107.500000, 92.493, -155.6953
109.000000, 92.506, -156.0255
110.599998, 92.495, -156.4935
112.000000, 92.480, -156.7443
113.800003, 92.487, -157.0519
115.000000, 92.497, -157.2842
117.199997, 92.513, -157.6835
118.000000, 92.519, -157.8241
120.599998, 92.527, -158.6615
122.000000, 92.487, -159.0946
124.099998, 92.474, -159.4561
125.000000, 92.478, -159.6818
126.500000, 92.484, -160.0261
128.000000, 92.486, -160.3661
131.500000, 92.454, -161.1236
132.000000, 92.448, -161.2231
134.000000, 92.427, -161.6416
136.000000, 92.402, -162.0970
138.000000, 92.370, -162.5052
140.000000, 92.328, -162.9593
143.000000, 92.222, -163.5549
145.000000, 92.133, -163.7539
147.500000, 92.034, -163.7374
150.000000, 91.974, -163.6183
152.500000, 91.976, -163.3253
155.000000, 92.026, -163.4177
157.500000, 92.029, -163.5689
160.000000, 92.031, -163.5264
162.500000, 92.036, -163.5219
165.000000, 92.031, -163.5791
167.500000, 92.015, -163.6426
170.000000, 92.004, -163.7372
172.500000, 91.993, -163.8796
175.000000, 91.974, -164.0363
177.500000, 91.945, -164.1866
180.000000, 91.915, -164.2229
182.500000, 91.907, -164.1950
185.000000, 91.897, -164.2113
187.500000, 91.874, -164.2220
190.000000, 91.848, -164.2449
192.500000, 91.829, -164.2445
195.000000, 91.816, -164.1746
197.500000, 91.807, -164.0741
200.000000, 91.801, -164.0004
203.000000, 91.803, -163.9255
206.000000, 91.819, -163.8426
209.000000, 91.843, -163.8589
212.000000, 91.863, -164.0189
214.000000, 91.872, -164.1563
218.000000, 91.867, -164.5587
220.000000, 91.849, -164.8106
224.000000, 91.776, -165.2482
227.000000, 91.700, -165.3449
230.000000, 91.622, -165.2540
233.000000, 91.552, -165.0339
236.000000, 91.500, -164.6943
240.000000, 91.458, -164.1843
243.000000, 91.437, -163.8273
247.000000, 91.429, -163.3727
250.000000, 91.432, -163.0839
254.000000, 91.437, -162.7649
258.000000, 91.446, -162.4899
262.000000, 91.458, -162.2744
265.000000, 91.461, -162.1323
269.000000, 91.462, -161.9461
272.000000, 91.464, -161.8154
276.000000, 91.469, -161.6172
280.000000, 91.472, -161.3850
285.000000, 91.470, -161.1175
290.000000, 91.462, -160.8137
295.000000, 91.459, -160.4210
300.000000, 91.482, -159.8570
304.000000, 91.513, -159.5350
307.000000, 91.538, -159.4066
311.000000, 91.567, -159.3309
315.000000, 91.582, -159.2365
320.000000, 91.591, -159.0230
325.000000, 91.605, -158.7822
330.000000, 91.627, -158.5493
335.000000, 91.648, -158.3439
340.000000, 91.660, -158.1237
345.000000, 91.667, -157.8746
350.000000, 91.674, -157.6105
355.000000, 91.684, -157.3673
360.000000, 91.695, -157.1165
365.000000, 91.710, -156.8449
370.000000, 91.728, -156.5948
375.000000, 91.743, -156.4070
382.000000, 91.751, -156.1501
387.000000, 91.751, -155.9072
395.000000, 91.755, -155.4243
400.000000, 91.762, -155.0927
406.000000, 91.776, -154.6863
412.000000, 91.798, -154.2858
418.000000, 91.829, -153.9189
425.000000, 91.870, -153.5833
431.000000, 91.896, -153.3313
437.000000, 91.916, -153.0535
444.000000, 91.944, -152.7187
450.000000, 91.969, -152.4706
455.000000, 91.991, -152.2649
462.000000, 92.027, -152.0297
468.000000, 92.057, -151.9487
475.000000, 92.040, -152.0617
482.000000, 91.978, -151.6268
487.000000, 91.971, -151.0679
494.000000, 92.003, -150.4402
500.000000, 92.036, -150.0892
508.000000, 92.065, -149.6782
515.000000, 92.090, -149.2324
522.000000, 92.127, -148.7543
530.000000, 92.170, -148.3206
538.000000, 92.209, -147.8822
545.000000, 92.245, -147.5230
552.000000, 92.279, -147.2130
560.000000, 92.311, -146.8568
570.000000, 92.344, -146.2976
580.000000, 92.387, -145.6617
590.000000, 92.451, -145.0632
600.000000, 92.512, -144.5971
608.000000, 92.550, -144.1828
615.000000, 92.589, -143.7787
622.000000, 92.634, -143.4185
630.000000, 92.683, -143.0806
640.000000, 92.735, -142.6552
650.000000, 92.793, -142.1992
660.000000, 92.856, -141.8354
670.000000, 92.907, -141.5113
680.000000, 92.952, -141.1337
690.000000, 93.001, -140.7188
700.000000, 93.049, -140.3553
710.000000, 93.090, -139.9647
720.000000, 93.138, -139.5295
730.000000, 93.193, -139.1123
740.000000, 93.248, -138.7294
750.000000, 93.297, -138.3669
762.000000, 93.353, -137.9128
775.000000, 93.420, -137.3494
788.000000, 93.496, -136.8535
800.000000, 93.563, -136.4317
812.000000, 93.634, -136.0512
825.000000, 93.707, -135.7010
838.000000, 93.771, -135.3255
850.000000, 93.832, -134.9453
862.000000, 93.900, -134.5917
875.000000, 93.979, -134.2785
885.000000, 94.033, -134.1564
900.000000, 94.075, -133.9857
912.000000, 94.108, -133.6846
925.000000, 94.150, -133.3804
938.000000, 94.182, -133.0275
950.000000, 94.217, -132.6218
962.000000, 94.258, -132.2061
975.000000, 94.321, -131.7698
988.000000, 94.385, -131.5572
1000.000000, 94.424, -131.4109
1015.000000, 94.456, -131.2144
1030.000000, 94.456, -130.9976
1044.000000, 94.440, -130.5022
1060.000000, 94.450, -129.5345
1075.000000, 94.524, -128.5352
1090.000000, 94.650, -127.8495
1106.000000, 94.796, -127.5398
1120.000000, 94.897, -127.3909
1138.000000, 95.011, -127.1382
1150.000000, 95.080, -126.9772
1172.000000, 95.219, -126.6197
1180.000000, 95.275, -126.6049
1206.000000, 95.432, -126.6463
1220.000000, 95.496, -126.8591
1241.000000, 95.528, -127.0630
1250.000000, 95.534, -127.0180
1265.000000, 95.542, -126.8110
1280.000000, 95.570, -126.5042
1315.000000, 95.660, -126.0764
1320.000000, 95.662, -126.0409
1340.000000, 95.640, -125.6788
1360.000000, 95.617, -124.8246
1380.000000, 95.659, -123.7952
1400.000000, 95.781, -122.9160
1430.000000, 96.010, -122.5782
1450.000000, 96.134, -122.6607
1475.000000, 96.214, -123.1056
1500.000000, 96.253, -123.6188
1525.000000, 96.153, -124.3628
1550.000000, 95.897, -124.2531
1575.000000, 95.624, -122.4244
1600.000000, 95.634, -118.9098
1625.000000, 95.973, -117.0051
1650.000000, 96.196, -116.9870
1675.000000, 96.320, -116.4763
1700.000000, 96.513, -116.2479
1725.000000, 96.690, -116.9036
1750.000000, 96.714, -118.2464
1775.000000, 96.531, -119.2772
1800.000000, 96.252, -119.0552
1825.000000, 96.014, -117.8016
1850.000000, 95.849, -116.1476
1875.000000, 95.745, -113.9482
1900.000000, 95.768, -111.5850
1925.000000, 95.868, -109.3335
1950.000000, 96.119, -106.9671
1975.000000, 96.550, -105.9204
2000.000000, 96.898, -107.2217
2030.000000, 96.920, -109.7410
2060.000000, 96.626, -111.2109
2090.000000, 96.148, -111.3103
2120.000000, 95.579, -109.1792
2140.000000, 95.257, -106.2794
2180.000000, 95.141, -97.7010
2200.000000, 95.452, -93.3049
2240.000000, 96.596, -89.2677
2270.000000, 97.224, -90.8096
2300.000000, 97.454, -93.5902
2330.000000, 97.235, -96.3851
2360.000000, 96.517, -96.1789
2400.000000, 95.918, -86.5631
2430.000000, 96.541, -78.4714
2470.000000, 97.830, -75.3537
2500.000000, 98.518, -76.3925
2540.000000, 98.992, -78.6877
2580.000000, 99.151, -79.5875
2620.000000, 99.248, -79.6215
2650.000000, 99.261, -78.5134
2690.000000, 99.573, -75.2262
2720.000000, 100.059, -73.7649
2760.000000, 100.715, -73.7560
2800.000000, 101.247, -75.1100
2850.000000, 101.614, -77.1626
2900.000000, 101.961, -77.9700
2950.000000, 102.412, -79.8057
3000.000000, 102.670, -82.4525
3040.000000, 102.759, -84.5338
3070.000000, 102.758, -85.9178
3110.000000, 102.708, -87.1514
3150.000000, 102.721, -87.7425
3200.000000, 102.834, -89.0739
3250.000000, 102.879, -91.2089
3300.000000, 102.794, -93.6642
3350.000000, 102.533, -96.1329
3400.000000, 102.083, -97.6311
3450.000000, 101.619, -97.8033
3500.000000, 101.192, -97.4313
3550.000000, 100.776, -96.4751
3600.000000, 100.313, -95.2024
3650.000000, 99.790, -92.0087
3700.000000, 99.567, -86.8808
3750.000000, 99.687, -82.6583
3820.000000, 99.914, -78.9700
3870.000000, 100.021, -76.3446
3950.000000, 100.497, -71.3453
4000.000000, 100.989, -70.1829
4060.000000, 101.329, -70.7755
4120.000000, 101.367, -70.8633
4180.000000, 101.428, -69.0766
4250.000000, 101.753, -67.6137
4310.000000, 101.997, -67.6121
4370.000000, 102.078, -68.2468
4440.000000, 101.857, -68.4055
4500.000000, 101.556, -65.7034
4550.000000, 101.622, -61.3438
4620.000000, 102.363, -56.9057
4680.000000, 103.134, -56.8780
4750.000000, 103.654, -59.7521
4820.000000, 103.742, -62.6090
4870.000000, 103.660, -64.1164
4940.000000, 103.380, -65.3767
5000.000000, 102.983, -64.9333
5080.000000, 102.580, -60.7952
5150.000000, 102.696, -55.5090
5220.000000, 103.252, -51.2363
5300.000000, 104.119, -49.0204
5380.000000, 104.997, -49.1897
5450.000000, 105.697, -50.9431
5520.000000, 106.282, -53.9484
5600.000000, 106.712, -58.7320
5700.000000, 106.695, -65.0559
5800.000000, 106.246, -68.3471
5900.000000, 106.052, -67.9520
6000.000000, 106.514, -68.1524
6080.000000, 107.082, -71.6033
6150.000000, 107.365, -77.1870
6220.000000, 107.263, -83.9302
6300.000000, 106.662, -91.0474
6400.000000, 105.460, -97.3309
6500.000000, 104.064, -100.7461
6600.000000, 102.557, -101.5852
6700.000000, 101.042, -99.1293
6800.000000, 99.844, -93.8405
6900.000000, 99.067, -88.3130
7000.000000, 98.457, -83.0232
7100.000000, 97.984, -76.7679
7200.000000, 97.805, -69.9011
7300.000000, 97.982, -63.4649
7400.000000, 98.428, -59.1484
7500.000000, 98.850, -57.2359
7620.000000, 99.217, -56.1513
7750.000000, 99.620, -55.9163
7880.000000, 99.934, -57.7911
8000.000000, 99.956, -62.3132
8120.000000, 99.279, -68.4344
8250.000000, 97.617, -71.4984
8380.000000, 95.689, -66.7864
8500.000000, 94.607, -56.6208
8620.000000, 94.487, -48.5338
8750.000000, 94.419, -44.5084
8850.000000, 94.244, -41.8329
9000.000000, 93.890, -38.4188
9120.000000, 93.557, -35.4150
9250.000000, 93.201, -32.8224
9380.000000, 92.681, -30.5709
9500.000000, 92.040, -27.7927
9620.000000, 91.350, -23.7278
9750.000000, 90.664, -18.2177
9880.000000, 90.042, -12.0028
10000.000000, 89.539, -5.2542
10150.000000, 89.085, 4.1077
10300.000000, 88.843, 14.3436
10440.000000, 88.892, 24.9499
10600.000000, 89.520, 37.6004
10750.000000, 90.705, 46.8754
10900.000000, 92.025, 51.5904
11060.000000, 93.262, 53.2068
11200.000000, 94.131, 52.7534
11380.000000, 94.878, 50.7299
11500.000000, 95.178, 49.4141
11720.000000, 95.626, 48.0589
11800.000000, 95.845, 47.6515
12060.000000, 96.669, 43.4905
12200.000000, 96.982, 39.4175
12410.000000, 97.256, 31.8036
12500.000000, 97.349, 27.8241
12650.000000, 97.468, 19.5151
12800.000000, 97.380, 8.3374
13150.000000, 94.748, -25.0338
13200.000000, 94.012, -29.5372
13400.000000, 90.288, -44.2361
13600.000000, 85.764, -52.4897
