* Measurement data measured by REW V5.31
* Source: Headset (DS by VECLAN.COM), MICROPHONE (Master Volume), L, volume: 0.720. Timing signal peak level -17.4 dBFS, measurement signal peak level -17.3 dBFS
* Format: 4M Log Swept Sine, 1 sweep at -12.0 dBFS using an acoustic timing reference
* Dated: Apr 21, 2024 6:00:11 AM
* REW Settings:
*  C-weighting compensation: Off
*  Target level: 75.0 dB
* Note: ; Delay -0.0654 ms (-22 mm, -0.88 in) using estimated IR delay relative to Acoustic reference played from HEADPHONE L with no timing offset
* Measurement: Philips SHP9500 L2
* Smoothing: 1/24 octave
* Frequency Step: 1/48 octave
* Start Frequency: 1.000 Hz
*
* Freq(Hz), SPL(dB), Phase(degrees)
1.000000, 65.147, 10.0755
1.015000, 65.294, 9.4109
1.030000, 65.438, 8.7595
1.044000, 65.572, 8.1617
1.060000, 65.722, 7.4880
1.075000, 65.861, 6.8633
1.090000, 65.998, 6.2414
1.106000, 66.144, 5.5712
1.120000, 66.272, 4.9659
1.138000, 66.437, 4.1569
1.150000, 66.547, 3.6006
1.172000, 66.748, 2.5476
1.180000, 66.821, 2.1514
1.206000, 67.053, 0.8499
1.220000, 67.176, 0.1446
1.241000, 67.355, -0.9115
1.250000, 67.430, -1.3616
1.265000, 67.552, -2.1059
1.280000, 67.669, -2.8408
1.315000, 67.925, -4.5044
1.320000, 67.959, -4.7351
1.340000, 68.088, -5.6373
1.360000, 68.205, -6.5026
1.380000, 68.310, -7.3667
1.400000, 68.400, -8.2033
1.430000, 68.506, -9.3746
1.450000, 68.555, -10.0991
1.475000, 68.590, -10.9583
1.500000, 68.592, -11.8133
1.525000, 68.562, -12.6827
1.550000, 68.503, -13.5617
1.575000, 68.421, -14.4640
1.600000, 68.317, -15.3989
1.625000, 68.197, -16.3195
1.650000, 68.065, -17.2181
1.675000, 67.923, -18.0869
1.700000, 67.777, -18.9186
1.725000, 67.630, -19.7060
1.750000, 67.486, -20.4421
1.775000, 67.349, -21.1374
1.800000, 67.223, -21.8024
1.825000, 67.109, -22.4024
1.850000, 67.006, -22.9560
1.875000, 66.904, -23.4905
1.900000, 66.802, -24.0146
1.925000, 66.699, -24.5274
1.950000, 66.596, -25.0255
1.975000, 66.493, -25.5217
2.000000, 66.392, -26.0280
2.030000, 66.272, -26.5971
2.060000, 66.156, -27.1174
2.090000, 66.044, -27.5790
2.120000, 65.937, -27.9713
2.140000, 65.869, -28.1890
2.180000, 65.742, -28.5265
2.200000, 65.682, -28.6520
2.240000, 65.567, -28.7865
2.270000, 65.482, -28.8003
2.300000, 65.399, -28.7509
2.330000, 65.320, -28.6466
2.360000, 65.246, -28.4949
2.400000, 65.159, -28.2775
2.430000, 65.103, -28.0810
2.470000, 65.046, -27.7747
2.500000, 65.017, -27.5172
2.540000, 65.001, -27.1400
2.580000, 65.011, -26.7179
2.620000, 65.046, -26.2108
2.650000, 65.088, -25.7516
2.690000, 65.161, -25.0740
2.720000, 65.229, -24.5452
2.760000, 65.335, -23.8503
2.800000, 65.457, -23.2480
2.850000, 65.631, -22.6320
2.900000, 65.825, -22.2086
2.950000, 66.042, -21.9478
3.000000, 66.289, -21.7340
3.040000, 66.510, -21.5681
3.070000, 66.685, -21.4602
3.110000, 66.930, -21.3648
3.150000, 67.182, -21.3506
3.200000, 67.503, -21.5139
3.250000, 67.822, -21.8904
3.300000, 68.134, -22.4662
3.350000, 68.445, -23.1574
3.400000, 68.762, -23.9249
3.450000, 69.082, -24.7460
3.500000, 69.402, -25.6218
3.550000, 69.717, -26.5693
3.600000, 70.024, -27.6339
3.650000, 70.320, -28.8152
3.700000, 70.605, -30.0934
3.750000, 70.882, -31.4328
3.820000, 71.258, -33.3928
3.870000, 71.517, -34.8171
3.950000, 71.913, -37.1161
4.000000, 72.148, -38.5970
4.060000, 72.416, -40.4347
4.120000, 72.670, -42.3398
4.180000, 72.911, -44.2859
4.250000, 73.175, -46.5783
4.310000, 73.386, -48.5021
4.370000, 73.583, -50.3870
4.440000, 73.795, -52.6131
4.500000, 73.962, -54.5614
4.550000, 74.090, -56.1954
4.620000, 74.254, -58.4770
4.680000, 74.380, -60.3693
4.750000, 74.512, -62.4739
4.820000, 74.626, -64.5459
4.870000, 74.697, -66.0344
4.940000, 74.781, -68.1014
5.000000, 74.841, -69.8324
5.080000, 74.902, -72.0107
5.150000, 74.940, -73.7702
5.220000, 74.962, -75.4795
5.300000, 74.967, -77.3786
5.380000, 74.956, -79.1608
5.450000, 74.935, -80.5876
5.520000, 74.905, -81.8500
5.600000, 74.856, -83.1503
5.700000, 74.777, -84.5959
5.800000, 74.691, -85.7820
5.900000, 74.606, -86.6570
6.000000, 74.517, -87.2168
6.080000, 74.448, -87.4822
6.150000, 74.397, -87.5828
6.220000, 74.359, -87.5802
6.300000, 74.333, -87.4198
6.400000, 74.323, -86.9975
6.500000, 74.341, -86.4352
6.600000, 74.396, -85.8171
6.700000, 74.492, -85.1496
6.800000, 74.623, -84.4419
6.900000, 74.780, -83.8047
7.000000, 74.960, -83.2923
7.100000, 75.164, -82.8903
7.200000, 75.384, -82.5951
7.300000, 75.609, -82.4474
7.400000, 75.831, -82.4507
7.500000, 76.055, -82.5891
7.620000, 76.315, -82.8848
7.750000, 76.578, -83.3479
7.880000, 76.820, -83.9528
8.000000, 77.024, -84.5697
8.120000, 77.208, -85.2141
8.250000, 77.384, -85.9437
8.380000, 77.539, -86.6565
8.500000, 77.666, -87.2739
8.620000, 77.777, -87.8534
8.750000, 77.885, -88.4205
8.850000, 77.961, -88.8016
9.000000, 78.064, -89.2861
9.120000, 78.142, -89.6061
9.250000, 78.223, -89.8831
9.380000, 78.303, -90.0906
9.500000, 78.378, -90.2370
9.620000, 78.455, -90.3379
9.750000, 78.539, -90.4052
9.880000, 78.619, -90.4492
10.000000, 78.688, -90.4672
10.150000, 78.768, -90.5058
10.300000, 78.846, -90.5337
10.440000, 78.917, -90.5560
10.600000, 79.001, -90.5895
10.750000, 79.083, -90.6392
10.900000, 79.168, -90.7095
11.060000, 79.261, -90.8423
11.200000, 79.344, -91.0241
11.380000, 79.445, -91.2909
11.500000, 79.509, -91.4887
11.720000, 79.617, -91.8760
11.800000, 79.653, -92.0208
12.060000, 79.764, -92.5093
12.200000, 79.820, -92.7945
12.410000, 79.897, -93.1790
12.500000, 79.927, -93.3214
12.650000, 79.976, -93.5266
12.800000, 80.023, -93.6908
13.150000, 80.142, -93.9764
13.200000, 80.162, -94.0144
13.400000, 80.246, -94.1458
13.600000, 80.342, -94.2701
13.800000, 80.448, -94.4127
14.000000, 80.560, -94.6036
14.300000, 80.733, -95.0740
14.500000, 80.843, -95.4578
14.750000, 80.969, -95.9818
15.000000, 81.079, -96.5144
15.250000, 81.179, -97.0532
15.500000, 81.269, -97.4997
15.750000, 81.355, -97.8300
16.000000, 81.445, -98.0510
16.250000, 81.546, -98.2453
16.500000, 81.660, -98.4148
16.750000, 81.784, -98.6065
17.000000, 81.913, -98.8519
17.250000, 82.040, -99.1791
17.500000, 82.159, -99.5401
17.750000, 82.266, -99.8959
18.000000, 82.363, -100.2194
18.250000, 82.456, -100.5151
18.500000, 82.548, -100.7672
18.750000, 82.643, -100.9939
19.000000, 82.741, -101.2198
19.250000, 82.839, -101.4867
19.500000, 82.932, -101.7662
19.750000, 83.018, -102.0413
20.000000, 83.097, -102.2891
20.299999, 83.189, -102.5638
20.600000, 83.285, -102.7966
20.900000, 83.388, -103.0391
21.200001, 83.494, -103.3670
21.400000, 83.559, -103.6380
21.799999, 83.662, -104.2190
22.000000, 83.697, -104.4685
22.400000, 83.747, -104.7542
22.700001, 83.795, -104.7082
23.000000, 83.880, -104.5293
23.299999, 84.010, -104.4203
23.600000, 84.170, -104.5456
24.000000, 84.372, -105.1852
24.299999, 84.473, -105.9015
24.700001, 84.515, -106.7116
25.000000, 84.503, -106.9118
25.400000, 84.507, -106.4889
25.799999, 84.621, -105.5722
26.200001, 84.861, -104.8475
26.500000, 85.079, -104.7297
26.900000, 85.343, -105.1242
27.200001, 85.491, -105.6368
27.600000, 85.623, -106.2466
28.000000, 85.722, -106.5437
28.500000, 85.871, -106.5801
29.000000, 86.062, -106.6190
29.500000, 86.251, -106.8544
30.000000, 86.419, -107.1166
30.400000, 86.552, -107.2776
30.700001, 86.664, -107.4028
31.100000, 86.825, -107.6813
31.500000, 86.985, -108.1658
32.000000, 87.151, -108.9698
32.500000, 87.271, -109.7738
33.000000, 87.375, -110.3888
33.500000, 87.498, -110.9006
34.000000, 87.643, -111.5184
34.500000, 87.779, -112.3577
35.000000, 87.872, -113.2706
35.500000, 87.926, -114.0099
36.000000, 87.978, -114.4600
36.500000, 88.061, -114.7835
37.000000, 88.168, -115.2284
37.500000, 88.257, -115.8718
38.200001, 88.312, -116.7349
38.700001, 88.326, -117.0546
39.500000, 88.398, -117.1772
40.000000, 88.479, -117.2961
40.599998, 88.579, -117.6001
41.200001, 88.668, -117.9430
41.799999, 88.762, -118.2492
42.500000, 88.890, -118.6830
43.099998, 88.997, -119.1961
43.700001, 89.082, -119.7309
44.400002, 89.169, -120.1956
45.000000, 89.256, -120.4751
45.500000, 89.341, -120.7043
46.200001, 89.471, -121.0750
46.799999, 89.589, -121.4490
47.500000, 89.731, -121.9652
48.200001, 89.873, -122.5619
48.700001, 89.975, -123.0617
49.400002, 90.107, -123.9265
50.000000, 90.181, -124.7381
50.799999, 90.227, -125.5052
51.500000, 90.279, -125.7320
52.200001, 90.379, -125.8501
53.000000, 90.512, -126.1600
53.799999, 90.623, -126.5281
54.500000, 90.718, -126.7718
55.200001, 90.826, -127.0950
56.000000, 90.932, -127.7166
57.000000, 91.016, -128.5952
58.000000, 91.080, -129.6778
59.000000, 91.046, -130.6228
60.000000, 91.100, -130.5479
60.799999, 91.304, -131.0103
61.500000, 91.447, -132.1831
62.200001, 91.512, -133.3652
63.000000, 91.571, -134.3790
64.000000, 91.646, -135.5879
65.000000, 91.672, -136.5902
66.000000, 91.693, -137.2197
67.000000, 91.722, -137.7127
68.000000, 91.757, -138.1920
69.000000, 91.787, -138.6764
70.000000, 91.823, -139.0919
71.000000, 91.883, -139.5518
72.000000, 91.947, -140.1416
73.000000, 92.004, -140.7287
74.000000, 92.065, -141.2894
75.000000, 92.124, -141.8931
76.199997, 92.177, -142.6167
77.500000, 92.231, -143.3508
78.800003, 92.282, -144.1621
80.000000, 92.315, -144.9856
81.199997, 92.331, -145.7582
82.500000, 92.340, -146.4754
83.800003, 92.354, -147.0304
85.000000, 92.383, -147.5344
86.199997, 92.411, -148.1147
87.500000, 92.435, -148.7689
88.500000, 92.450, -149.2749
90.000000, 92.469, -150.0319
91.199997, 92.482, -150.6244
92.500000, 92.489, -151.2455
93.800003, 92.486, -151.8203
95.000000, 92.474, -152.3571
96.199997, 92.446, -152.8849
97.500000, 92.401, -153.3935
98.800003, 92.359, -153.7614
100.000000, 92.344, -154.0424
101.500000, 92.348, -154.3980
103.000000, 92.378, -154.6776
104.400002, 92.419, -155.0758
106.000000, 92.425, -155.5204
107.500000, 92.414, -155.7344
109.000000, 92.407, -155.9185
110.599998, 92.407, -156.1098
112.000000, 92.427, -156.3751
113.800003, 92.457, -156.8732
115.000000, 92.480, -157.2622
117.199997, 92.490, -158.0296
118.000000, 92.483, -158.1925
120.599998, 92.518, -158.4835
122.000000, 92.539, -158.9915
124.099998, 92.487, -159.7882
125.000000, 92.459, -159.9911
126.500000, 92.429, -160.3237
128.000000, 92.409, -160.7186
131.500000, 92.376, -161.4561
132.000000, 92.373, -161.5524
134.000000, 92.353, -161.9219
136.000000, 92.326, -162.2123
138.000000, 92.305, -162.4590
140.000000, 92.286, -162.6501
143.000000, 92.277, -162.8860
145.000000, 92.264, -163.2115
147.500000, 92.237, -163.5427
150.000000, 92.253, -163.7986
152.500000, 92.252, -164.2132
155.000000, 92.218, -164.2265
157.500000, 92.197, -164.2942
160.000000, 92.173, -164.4538
162.500000, 92.162, -164.6465
165.000000, 92.142, -164.7684
167.500000, 92.108, -164.8485
170.000000, 92.071, -164.9572
172.500000, 92.046, -165.1407
175.000000, 92.035, -165.3448
177.500000, 92.022, -165.3967
180.000000, 92.011, -165.3482
182.500000, 91.992, -165.4210
185.000000, 91.971, -165.4699
187.500000, 91.960, -165.4518
190.000000, 91.954, -165.4212
192.500000, 91.943, -165.4177
195.000000, 91.935, -165.4395
197.500000, 91.932, -165.4909
200.000000, 91.934, -165.5220
203.000000, 91.944, -165.5749
206.000000, 91.962, -165.7170
209.000000, 91.982, -165.9534
212.000000, 91.996, -166.1969
214.000000, 91.997, -166.3633
218.000000, 91.970, -166.8665
220.000000, 91.939, -167.1451
224.000000, 91.849, -167.5392
227.000000, 91.767, -167.6804
230.000000, 91.684, -167.7084
233.000000, 91.608, -167.5513
236.000000, 91.539, -167.2305
240.000000, 91.466, -166.7155
243.000000, 91.443, -166.3812
247.000000, 91.434, -165.9482
250.000000, 91.431, -165.6260
254.000000, 91.429, -165.2989
258.000000, 91.433, -165.0405
262.000000, 91.443, -164.8012
265.000000, 91.450, -164.6752
269.000000, 91.452, -164.5278
272.000000, 91.451, -164.3937
276.000000, 91.451, -164.2069
280.000000, 91.454, -164.0226
285.000000, 91.454, -163.8179
290.000000, 91.450, -163.5629
295.000000, 91.443, -163.2923
300.000000, 91.432, -162.9721
304.000000, 91.445, -162.7508
307.000000, 91.464, -162.6141
311.000000, 91.484, -162.4280
315.000000, 91.492, -162.2546
320.000000, 91.492, -162.0125
325.000000, 91.502, -161.6907
330.000000, 91.524, -161.3707
335.000000, 91.554, -161.1555
340.000000, 91.576, -161.0065
345.000000, 91.586, -160.8573
350.000000, 91.588, -160.7014
355.000000, 91.588, -160.5151
360.000000, 91.587, -160.2661
365.000000, 91.596, -160.0091
370.000000, 91.612, -159.7719
375.000000, 91.625, -159.5917
382.000000, 91.632, -159.3517
387.000000, 91.633, -159.1681
395.000000, 91.627, -158.8305
400.000000, 91.621, -158.5590
406.000000, 91.619, -158.1641
412.000000, 91.631, -157.7450
418.000000, 91.658, -157.3967
425.000000, 91.685, -157.1279
431.000000, 91.687, -156.9089
437.000000, 91.680, -156.5500
444.000000, 91.698, -155.9952
450.000000, 91.738, -155.6071
455.000000, 91.776, -155.3710
462.000000, 91.828, -155.1746
468.000000, 91.863, -155.2173
475.000000, 91.820, -155.5544
482.000000, 91.706, -154.8862
487.000000, 91.713, -153.9720
494.000000, 91.796, -153.2835
500.000000, 91.852, -153.0345
508.000000, 91.898, -152.7588
515.000000, 91.933, -152.4704
522.000000, 91.972, -152.1594
530.000000, 92.004, -151.8886
538.000000, 92.027, -151.5565
545.000000, 92.056, -151.2491
552.000000, 92.085, -150.9392
560.000000, 92.105, -150.5903
570.000000, 92.127, -150.0723
580.000000, 92.165, -149.4797
590.000000, 92.222, -148.9246
600.000000, 92.284, -148.4383
608.000000, 92.331, -148.0638
615.000000, 92.370, -147.7397
622.000000, 92.410, -147.4470
630.000000, 92.452, -147.1565
640.000000, 92.498, -146.7815
650.000000, 92.544, -146.3494
660.000000, 92.594, -146.0210
670.000000, 92.637, -145.7256
680.000000, 92.681, -145.3538
690.000000, 92.728, -144.9610
700.000000, 92.774, -144.6396
710.000000, 92.813, -144.2903
720.000000, 92.855, -143.8903
730.000000, 92.906, -143.5182
740.000000, 92.959, -143.1560
750.000000, 93.008, -142.8376
762.000000, 93.061, -142.4890
775.000000, 93.118, -142.0299
788.000000, 93.180, -141.5811
800.000000, 93.240, -141.1968
812.000000, 93.301, -140.8441
825.000000, 93.360, -140.4847
838.000000, 93.419, -140.1044
850.000000, 93.474, -139.7926
862.000000, 93.531, -139.4785
875.000000, 93.600, -139.1581
885.000000, 93.647, -139.0470
900.000000, 93.680, -138.8677
912.000000, 93.710, -138.5530
925.000000, 93.751, -138.2825
938.000000, 93.786, -137.9710
950.000000, 93.821, -137.6403
962.000000, 93.857, -137.3114
975.000000, 93.911, -136.9053
988.000000, 93.966, -136.6493
1000.000000, 94.008, -136.4132
1015.000000, 94.060, -136.1864
1030.000000, 94.069, -136.0618
1044.000000, 94.047, -135.6893
1060.000000, 94.043, -134.8148
1075.000000, 94.112, -133.8385
1090.000000, 94.246, -133.1350
1106.000000, 94.399, -132.9054
1120.000000, 94.499, -132.8459
1138.000000, 94.613, -132.6814
1150.000000, 94.687, -132.5992
1172.000000, 94.820, -132.5098
1180.000000, 94.865, -132.5450
1206.000000, 94.992, -132.6678
1220.000000, 95.045, -132.8806
1241.000000, 95.069, -133.1115
1250.000000, 95.075, -133.0808
1265.000000, 95.089, -132.9183
1280.000000, 95.118, -132.7205
1315.000000, 95.184, -132.5320
1320.000000, 95.186, -132.5213
1340.000000, 95.163, -132.3808
1360.000000, 95.099, -131.7774
1380.000000, 95.096, -130.7819
1400.000000, 95.188, -129.8350
1430.000000, 95.398, -129.3513
1450.000000, 95.520, -129.4640
1475.000000, 95.585, -129.9296
1500.000000, 95.607, -130.3575
1525.000000, 95.559, -130.8876
1550.000000, 95.375, -131.5505
1575.000000, 94.973, -130.7294
1600.000000, 94.786, -126.6381
1625.000000, 95.136, -123.5187
1650.000000, 95.445, -123.2988
1675.000000, 95.609, -123.1094
1700.000000, 95.796, -123.1801
1725.000000, 95.950, -123.9575
1750.000000, 95.947, -125.3956
1775.000000, 95.741, -126.5371
1800.000000, 95.412, -126.4068
1825.000000, 95.136, -124.9958
1850.000000, 94.944, -123.3299
1875.000000, 94.789, -121.0118
1900.000000, 94.768, -118.3737
1925.000000, 94.793, -115.7711
1950.000000, 94.985, -112.2398
1975.000000, 95.542, -109.4667
2000.000000, 96.166, -110.0043
2030.000000, 96.538, -113.2548
2060.000000, 96.457, -117.0464
2090.000000, 95.903, -119.9194
2120.000000, 94.980, -119.4155
2140.000000, 94.372, -116.2406
2180.000000, 93.966, -104.9209
2200.000000, 94.280, -99.4199
2240.000000, 95.520, -93.2022
2270.000000, 96.447, -93.2745
2300.000000, 97.025, -96.2932
2330.000000, 97.008, -100.2440
2360.000000, 96.417, -101.1456
2400.000000, 95.893, -94.1716
2430.000000, 96.344, -87.7953
2470.000000, 97.476, -84.5031
2500.000000, 98.190, -85.3545
2540.000000, 98.715, -88.0161
2580.000000, 98.927, -89.5248
2620.000000, 99.087, -90.7153
2650.000000, 99.085, -90.9908
2690.000000, 99.209, -89.5268
2720.000000, 99.511, -88.6485
2760.000000, 99.982, -89.0502
2800.000000, 100.330, -90.8434
2850.000000, 100.439, -93.2663
2900.000000, 100.475, -93.8642
2950.000000, 100.638, -94.8153
3000.000000, 100.764, -96.0988
3040.000000, 100.832, -97.8727
3070.000000, 100.737, -99.5049
3110.000000, 100.420, -100.5452
3150.000000, 100.138, -99.6715
3200.000000, 100.099, -97.9102
3250.000000, 100.237, -97.6784
3300.000000, 100.242, -98.7057
3350.000000, 100.056, -99.6075
3400.000000, 99.752, -99.6452
3450.000000, 99.475, -98.4704
3500.000000, 99.317, -97.3526
3550.000000, 99.092, -96.6721
3600.000000, 98.705, -95.3753
3650.000000, 98.279, -91.8091
3700.000000, 98.170, -86.4664
3750.000000, 98.393, -82.0297
3820.000000, 98.744, -78.1900
3870.000000, 98.932, -75.2884
3950.000000, 99.484, -69.8346
4000.000000, 100.062, -67.4089
4060.000000, 100.736, -66.5703
4120.000000, 101.211, -66.8967
4180.000000, 101.565, -66.5642
4250.000000, 102.105, -66.4732
4310.000000, 102.507, -67.6824
4370.000000, 102.681, -69.5544
4440.000000, 102.530, -70.7762
4500.000000, 102.274, -68.8649
4550.000000, 102.402, -64.8769
4620.000000, 103.293, -61.1445
4680.000000, 104.221, -62.0063
4750.000000, 104.877, -66.4974
4820.000000, 105.034, -71.0227
4870.000000, 104.997, -73.7012
4940.000000, 104.761, -76.8128
5000.000000, 104.361, -78.1489
5080.000000, 103.855, -76.5715
5150.000000, 103.774, -73.4239
5220.000000, 104.036, -70.7368
5300.000000, 104.557, -69.2542
5380.000000, 105.156, -69.5929
5450.000000, 105.631, -71.4026
5520.000000, 105.972, -74.2593
5600.000000, 106.127, -78.2445
5700.000000, 105.898, -82.7230
5800.000000, 105.412, -84.4421
5900.000000, 105.104, -83.1553
6000.000000, 105.325, -80.9240
6080.000000, 105.873, -80.7348
6150.000000, 106.435, -82.7083
6220.000000, 106.909, -86.6847
6300.000000, 107.180, -92.9515
6400.000000, 107.021, -101.8187
6500.000000, 106.304, -110.3436
6600.000000, 105.069, -116.5768
6700.000000, 103.613, -119.0599
6800.000000, 102.326, -118.4884
6900.000000, 101.329, -117.2033
7000.000000, 100.422, -115.8665
7100.000000, 99.503, -113.6154
7200.000000, 98.645, -109.8027
7300.000000, 98.035, -104.4109
7400.000000, 97.822, -99.0304
7500.000000, 97.888, -95.4919
7620.000000, 98.015, -93.7459
7750.000000, 98.117, -93.8389
7880.000000, 98.006, -96.4511
8000.000000, 97.514, -100.9950
8120.000000, 96.402, -106.5390
8250.000000, 94.350, -110.0745
8380.000000, 91.769, -109.6982
8500.000000, 88.770, -104.8893
8620.000000, 85.677, -80.1416
8750.000000, 87.148, -15.5769
8850.000000, 90.584, -4.0991
9000.000000, 93.715, -14.0035
9120.000000, 94.295, -25.3034
9250.000000, 93.655, -33.6871
9380.000000, 92.375, -35.9030
9500.000000, 91.123, -32.8438
9620.000000, 90.105, -26.0614
9750.000000, 89.423, -16.4685
9880.000000, 89.130, -6.0465
10000.000000, 89.184, 4.5108
10150.000000, 89.892, 18.2693
10300.000000, 91.389, 29.6657
10440.000000, 93.217, 35.3342
10600.000000, 95.158, 34.5511
10750.000000, 96.233, 29.0388
10900.000000, 96.467, 23.2486
11060.000000, 96.206, 20.1969
11200.000000, 95.950, 20.1534
11380.000000, 95.792, 21.6504
11500.000000, 95.763, 23.1841
11720.000000, 96.056, 27.4417
11800.000000, 96.374, 28.8987
12060.000000, 97.930, 27.7718
12200.000000, 98.682, 22.6390
12410.000000, 99.167, 10.1286
12500.000000, 99.051, 3.6091
12650.000000, 98.385, -7.9051
12800.000000, 97.107, -19.7667
13150.000000, 90.701, -39.3341
13200.000000, 89.322, -37.7766
13400.000000, 83.820, -3.2850
13600.000000, 82.278, 40.2491
