* Measurement data measured by REW V5.31.3
* Source: Headset (DS by VECLAN.COM), MICROPHONE (Master Volume), L, volume: 0.720. Timing signal peak level -8.8 dBFS, measurement signal peak level -8.9 dBFS
* Format: 2M Log Swept Sine, 1 sweep at -23.7 dBFS using an acoustic timing reference
* Dated: Oct 15, 2024 1:57:26 PM
* REW Settings:
*  C-weighting compensation: Off
*  Target level: 85.0 dB
* Note: ; Fosi DS1 Delay -0.0213 ms (-7.3 mm, -0.29 in) using estimated IR delay relative to Acoustic reference played from SPEAKER R with no timing offset Clock adjustment: -26.2 ppm
* Measurement: Philips SHP9500 R2
* Smoothing: 1/24 octave
* Frequency Step: 1/48 octave
* Start Frequency: 1.000 Hz
*
* Freq(Hz), SPL(dB), Phase(degrees)
1.000000, 49.853, -74.7523
1.015000, 49.805, -74.8796
1.030000, 49.759, -74.8995
1.044000, 49.718, -74.8125
1.060000, 49.675, -74.5776
1.075000, 49.637, -74.2161
1.090000, 49.603, -73.7087
1.106000, 49.568, -73.0035
1.120000, 49.533, -72.2552
1.138000, 49.481, -71.1250
1.150000, 49.442, -70.2718
1.172000, 49.363, -68.5174
1.180000, 49.332, -67.8248
1.206000, 49.230, -65.3722
1.220000, 49.174, -63.9334
1.241000, 49.092, -61.6358
1.250000, 49.058, -60.6040
1.265000, 49.005, -58.8276
1.280000, 48.955, -56.9865
1.315000, 48.862, -52.4788
1.320000, 48.852, -51.8145
1.340000, 48.821, -49.1161
1.360000, 48.808, -46.3624
1.380000, 48.816, -43.6054
1.400000, 48.846, -40.8347
1.430000, 48.941, -36.6505
1.450000, 49.042, -33.8698
1.475000, 49.214, -30.5797
1.500000, 49.440, -27.5699
1.525000, 49.718, -24.6884
1.550000, 50.040, -21.9560
1.575000, 50.401, -19.4357
1.600000, 50.792, -17.1730
1.625000, 51.207, -15.1555
1.650000, 51.640, -13.3905
1.675000, 52.084, -11.8771
1.700000, 52.531, -10.6090
1.725000, 52.976, -9.5763
1.750000, 53.411, -8.7672
1.775000, 53.830, -8.1827
1.800000, 54.226, -7.8215
1.825000, 54.596, -7.6289
1.850000, 54.946, -7.5367
1.875000, 55.287, -7.4669
1.900000, 55.624, -7.4020
1.925000, 55.957, -7.3488
1.950000, 56.286, -7.3159
1.975000, 56.610, -7.3215
2.000000, 56.929, -7.3820
2.030000, 57.304, -7.5047
2.060000, 57.671, -7.6895
2.090000, 58.029, -7.9416
2.120000, 58.376, -8.2651
2.140000, 58.602, -8.5221
2.180000, 59.039, -9.1548
2.200000, 59.250, -9.5318
2.240000, 59.655, -10.3156
2.270000, 59.945, -10.9004
2.300000, 60.224, -11.4770
2.330000, 60.493, -12.0460
2.360000, 60.753, -12.6097
2.400000, 61.086, -13.3950
2.430000, 61.328, -13.9897
2.470000, 61.641, -14.7894
2.500000, 61.870, -15.3987
2.540000, 62.169, -16.2295
2.580000, 62.460, -17.0977
2.620000, 62.740, -18.0057
2.650000, 62.943, -18.6829
2.690000, 63.203, -19.5739
2.720000, 63.391, -20.2296
2.760000, 63.634, -21.0830
2.800000, 63.868, -21.9490
2.850000, 64.151, -23.0045
2.900000, 64.425, -24.0273
2.950000, 64.690, -25.0287
3.000000, 64.943, -26.0503
3.040000, 65.136, -26.8683
3.070000, 65.276, -27.4714
3.110000, 65.458, -28.2566
3.150000, 65.633, -29.0157
3.200000, 65.845, -29.9518
3.250000, 66.051, -30.8509
3.300000, 66.250, -31.7019
3.350000, 66.443, -32.5217
3.400000, 66.626, -33.3466
3.450000, 66.803, -34.1554
3.500000, 66.972, -34.9288
3.550000, 67.137, -35.6583
3.600000, 67.299, -36.3645
3.650000, 67.457, -37.0297
3.700000, 67.613, -37.6497
3.750000, 67.764, -38.2367
3.820000, 67.968, -39.0365
3.870000, 68.110, -39.5757
3.950000, 68.334, -40.3648
4.000000, 68.474, -40.8322
4.060000, 68.641, -41.3540
4.120000, 68.806, -41.8246
4.180000, 68.969, -42.2590
4.250000, 69.159, -42.7509
4.310000, 69.322, -43.1405
4.370000, 69.487, -43.5080
4.440000, 69.682, -43.9282
4.500000, 69.850, -44.2519
4.550000, 69.991, -44.5003
4.620000, 70.189, -44.8533
4.680000, 70.361, -45.1556
4.750000, 70.562, -45.5098
4.820000, 70.766, -45.8796
4.870000, 70.913, -46.1373
4.940000, 71.120, -46.4883
5.000000, 71.298, -46.8049
5.080000, 71.534, -47.2570
5.150000, 71.740, -47.6736
5.220000, 71.946, -48.1194
5.300000, 72.180, -48.6408
5.380000, 72.411, -49.1763
5.450000, 72.610, -49.6812
5.520000, 72.804, -50.2022
5.600000, 73.021, -50.8252
5.700000, 73.285, -51.6350
5.800000, 73.539, -52.4566
5.900000, 73.782, -53.3018
6.000000, 74.015, -54.1647
6.080000, 74.194, -54.8646
6.150000, 74.345, -55.4621
6.220000, 74.490, -56.0610
6.300000, 74.648, -56.7359
6.400000, 74.835, -57.5721
6.500000, 75.013, -58.3890
6.600000, 75.182, -59.1592
6.700000, 75.343, -59.9023
6.800000, 75.495, -60.6095
6.900000, 75.641, -61.2770
7.000000, 75.781, -61.8850
7.100000, 75.915, -62.4500
7.200000, 76.044, -62.9679
7.300000, 76.172, -63.4442
7.400000, 76.301, -63.8681
7.500000, 76.428, -64.2519
7.620000, 76.582, -64.6666
7.750000, 76.751, -65.0697
7.880000, 76.922, -65.4363
8.000000, 77.082, -65.7485
8.120000, 77.246, -66.0581
8.250000, 77.426, -66.3860
8.380000, 77.608, -66.7150
8.500000, 77.775, -67.0354
8.620000, 77.943, -67.3647
8.750000, 78.123, -67.7354
8.850000, 78.259, -68.0351
9.000000, 78.462, -68.4984
9.120000, 78.620, -68.8834
9.250000, 78.787, -69.3119
9.380000, 78.950, -69.7459
9.500000, 79.096, -70.1562
9.620000, 79.239, -70.5635
9.750000, 79.387, -71.0054
9.880000, 79.525, -71.4417
10.000000, 79.639, -71.8311
10.150000, 79.769, -72.3374
10.300000, 79.887, -72.8225
10.440000, 79.990, -73.2568
10.600000, 80.101, -73.7349
10.750000, 80.204, -74.1681
10.900000, 80.305, -74.5880
11.060000, 80.412, -75.0550
11.200000, 80.504, -75.4995
11.380000, 80.617, -76.0539
11.500000, 80.688, -76.4123
11.720000, 80.811, -77.0393
11.800000, 80.855, -77.2558
12.060000, 80.995, -77.9339
12.200000, 81.070, -78.3022
12.410000, 81.183, -78.8102
12.500000, 81.230, -79.0114
12.650000, 81.307, -79.3260
12.800000, 81.384, -79.6181
13.150000, 81.566, -80.2793
13.200000, 81.593, -80.3775
13.400000, 81.702, -80.7607
13.600000, 81.812, -81.1339
13.800000, 81.923, -81.5010
14.000000, 82.032, -81.8667
14.300000, 82.194, -82.4706
14.500000, 82.298, -82.8623
14.750000, 82.425, -83.3325
15.000000, 82.552, -83.7833
15.250000, 82.683, -84.2672
15.500000, 82.814, -84.7403
15.750000, 82.943, -85.2037
16.000000, 83.068, -85.6590
16.250000, 83.190, -86.1463
16.500000, 83.308, -86.6145
16.750000, 83.424, -87.0563
17.000000, 83.541, -87.4756
17.250000, 83.660, -87.9094
17.500000, 83.780, -88.3387
17.750000, 83.900, -88.7726
18.000000, 84.019, -89.2227
18.250000, 84.133, -89.7175
18.500000, 84.242, -90.2189
18.750000, 84.344, -90.7077
19.000000, 84.441, -91.1692
19.250000, 84.535, -91.6223
19.500000, 84.630, -92.0403
19.750000, 84.725, -92.4342
20.000000, 84.823, -92.8226
20.299999, 84.941, -93.3375
20.600000, 85.054, -93.8772
20.900000, 85.157, -94.4255
21.200001, 85.248, -94.9664
21.400000, 85.303, -95.2999
21.799999, 85.406, -95.8640
22.000000, 85.460, -96.1026
22.400000, 85.574, -96.5705
22.700001, 85.663, -96.9336
23.000000, 85.747, -97.3224
23.299999, 85.819, -97.7236
23.600000, 85.876, -98.0661
24.000000, 85.937, -98.3236
24.299999, 85.987, -98.3466
24.700001, 86.080, -98.1735
25.000000, 86.178, -97.9776
25.400000, 86.341, -97.7860
25.799999, 86.522, -97.7280
26.200001, 86.704, -97.7962
26.500000, 86.838, -97.8889
26.900000, 87.018, -98.0180
27.200001, 87.158, -98.1342
27.600000, 87.352, -98.3507
28.000000, 87.546, -98.6650
28.500000, 87.777, -99.2029
29.000000, 87.990, -99.7906
29.500000, 88.193, -100.3829
30.000000, 88.392, -101.0136
30.400000, 88.546, -101.5969
30.700001, 88.655, -102.0676
31.100000, 88.789, -102.7172
31.500000, 88.911, -103.3663
32.000000, 89.054, -104.1432
32.500000, 89.194, -104.9140
33.000000, 89.328, -105.7154
33.500000, 89.451, -106.5810
34.000000, 89.559, -107.4479
34.500000, 89.652, -108.2561
35.000000, 89.738, -108.9856
35.500000, 89.824, -109.6733
36.000000, 89.910, -110.3473
36.500000, 89.990, -111.0222
37.000000, 90.062, -111.6672
37.500000, 90.127, -112.2678
38.200001, 90.216, -113.0240
38.700001, 90.278, -113.5334
39.500000, 90.366, -114.2684
40.000000, 90.416, -114.6243
40.599998, 90.480, -114.9412
41.200001, 90.560, -115.1427
41.799999, 90.662, -115.2994
42.500000, 90.808, -115.5353
43.099998, 90.951, -115.8582
43.700001, 91.100, -116.3246
44.400002, 91.263, -117.0813
45.000000, 91.381, -117.8576
45.500000, 91.458, -118.5165
46.200001, 91.540, -119.3857
46.799999, 91.592, -120.0439
47.500000, 91.640, -120.6325
48.200001, 91.686, -120.9665
48.700001, 91.735, -121.0520
49.400002, 91.839, -121.0705
50.000000, 91.962, -121.1243
50.799999, 92.152, -121.3832
51.500000, 92.324, -121.8104
52.200001, 92.490, -122.3755
53.000000, 92.667, -123.1152
53.799999, 92.828, -123.9689
54.500000, 92.957, -124.7632
55.200001, 93.076, -125.5986
56.000000, 93.200, -126.6059
57.000000, 93.338, -127.8806
58.000000, 93.460, -129.2749
59.000000, 93.540, -130.5964
60.000000, 93.620, -131.5622
60.799999, 93.720, -132.3817
61.500000, 93.806, -133.2415
62.200001, 93.871, -134.1443
63.000000, 93.930, -135.1141
64.000000, 94.002, -136.2100
65.000000, 94.060, -137.3843
66.000000, 94.107, -138.4334
67.000000, 94.168, -139.3696
68.000000, 94.231, -140.4416
69.000000, 94.278, -141.5145
70.000000, 94.312, -142.5296
71.000000, 94.336, -143.4741
72.000000, 94.366, -144.3708
73.000000, 94.391, -145.2872
74.000000, 94.406, -146.1975
75.000000, 94.420, -147.0865
76.199997, 94.434, -148.1565
77.500000, 94.443, -149.2667
78.800003, 94.453, -150.3064
80.000000, 94.463, -151.3015
81.199997, 94.465, -152.2945
82.500000, 94.459, -153.3577
83.800003, 94.443, -154.3865
85.000000, 94.422, -155.3219
86.199997, 94.392, -156.3148
87.500000, 94.335, -157.3578
88.500000, 94.270, -158.1082
90.000000, 94.148, -158.9845
91.199997, 94.057, -159.3737
92.500000, 94.000, -159.5292
93.800003, 93.981, -159.7500
95.000000, 93.968, -160.0987
96.199997, 93.947, -160.4409
97.500000, 93.917, -160.7499
98.800003, 93.892, -161.0290
100.000000, 93.879, -161.3132
101.500000, 93.872, -161.7802
103.000000, 93.862, -162.2685
104.400002, 93.854, -162.7029
106.000000, 93.836, -163.2207
107.500000, 93.809, -163.6719
109.000000, 93.779, -164.0607
110.599998, 93.758, -164.5130
112.000000, 93.744, -164.9565
113.800003, 93.719, -165.4801
115.000000, 93.699, -165.7898
117.199997, 93.657, -166.3583
118.000000, 93.636, -166.5991
120.599998, 93.540, -167.3863
122.000000, 93.487, -167.6770
124.099998, 93.463, -167.9481
125.000000, 93.461, -168.1329
126.500000, 93.448, -168.3595
128.000000, 93.428, -168.5931
131.500000, 93.345, -169.1639
132.000000, 93.330, -169.2343
134.000000, 93.278, -169.4567
136.000000, 93.243, -169.6393
138.000000, 93.221, -169.8525
140.000000, 93.194, -170.0457
143.000000, 93.168, -170.0907
145.000000, 93.151, -170.2118
147.500000, 93.113, -170.4495
150.000000, 93.078, -170.6820
152.500000, 93.053, -170.8905
155.000000, 93.009, -171.0166
157.500000, 92.955, -171.0472
160.000000, 92.915, -171.2006
162.500000, 92.887, -171.4118
165.000000, 92.867, -171.5457
167.500000, 92.843, -171.6383
170.000000, 92.811, -171.7104
172.500000, 92.772, -171.8052
175.000000, 92.734, -171.8658
177.500000, 92.699, -171.8177
180.000000, 92.666, -171.7921
182.500000, 92.633, -171.7340
185.000000, 92.610, -171.6981
187.500000, 92.593, -171.6314
190.000000, 92.579, -171.6093
192.500000, 92.569, -171.5874
195.000000, 92.566, -171.4189
197.500000, 92.570, -171.2266
200.000000, 92.574, -171.1305
203.000000, 92.581, -171.1551
206.000000, 92.596, -171.2063
209.000000, 92.610, -171.3558
212.000000, 92.617, -171.6491
214.000000, 92.623, -171.8466
218.000000, 92.624, -172.3205
220.000000, 92.606, -172.6023
224.000000, 92.550, -173.0420
227.000000, 92.490, -173.3718
230.000000, 92.408, -173.5707
233.000000, 92.326, -173.5777
236.000000, 92.249, -173.5069
240.000000, 92.154, -173.2662
243.000000, 92.099, -173.0211
247.000000, 92.042, -172.6390
250.000000, 92.008, -172.3616
254.000000, 91.960, -172.0729
258.000000, 91.915, -171.7089
262.000000, 91.888, -171.3945
265.000000, 91.872, -171.1697
269.000000, 91.851, -170.8876
272.000000, 91.831, -170.6972
276.000000, 91.806, -170.4379
280.000000, 91.790, -170.1476
285.000000, 91.785, -169.7484
290.000000, 91.771, -169.3234
295.000000, 91.748, -168.9897
300.000000, 91.743, -168.6563
304.000000, 91.746, -168.3522
307.000000, 91.745, -168.1107
311.000000, 91.739, -167.8355
315.000000, 91.731, -167.6168
320.000000, 91.716, -167.3377
325.000000, 91.693, -166.9526
330.000000, 91.668, -166.3911
335.000000, 91.662, -165.7112
340.000000, 91.699, -165.0493
345.000000, 91.751, -164.5497
350.000000, 91.792, -164.2480
355.000000, 91.810, -164.0528
360.000000, 91.823, -163.8035
365.000000, 91.844, -163.5018
370.000000, 91.866, -163.1708
375.000000, 91.888, -162.8259
382.000000, 91.925, -162.3850
387.000000, 91.943, -162.0747
395.000000, 91.967, -161.6018
400.000000, 91.993, -161.4085
406.000000, 92.017, -161.1863
412.000000, 92.040, -160.9384
418.000000, 92.074, -160.6432
425.000000, 92.113, -160.3867
431.000000, 92.138, -160.1954
437.000000, 92.144, -159.9530
444.000000, 92.140, -159.5664
450.000000, 92.156, -159.2202
455.000000, 92.176, -158.9448
462.000000, 92.207, -158.5876
468.000000, 92.228, -158.3273
475.000000, 92.249, -158.0397
482.000000, 92.278, -157.7170
487.000000, 92.302, -157.4847
494.000000, 92.333, -157.1761
500.000000, 92.362, -156.9682
508.000000, 92.412, -156.6797
515.000000, 92.437, -156.6783
522.000000, 92.391, -156.6712
530.000000, 92.350, -155.6349
538.000000, 92.430, -154.7768
545.000000, 92.512, -154.4496
552.000000, 92.578, -154.2455
560.000000, 92.631, -154.0719
570.000000, 92.677, -153.7470
580.000000, 92.733, -153.3066
590.000000, 92.796, -152.9269
600.000000, 92.852, -152.5321
608.000000, 92.895, -152.2569
615.000000, 92.932, -152.1006
622.000000, 92.966, -151.9541
630.000000, 92.999, -151.7669
640.000000, 93.047, -151.4980
650.000000, 93.096, -151.2726
660.000000, 93.128, -150.9523
670.000000, 93.163, -150.5763
680.000000, 93.203, -150.2366
690.000000, 93.253, -149.9020
700.000000, 93.308, -149.5585
710.000000, 93.359, -149.3313
720.000000, 93.400, -149.1360
730.000000, 93.444, -148.8738
740.000000, 93.494, -148.6376
750.000000, 93.534, -148.4421
762.000000, 93.567, -148.1001
775.000000, 93.616, -147.7775
788.000000, 93.666, -147.4019
800.000000, 93.726, -146.9842
812.000000, 93.801, -146.7411
825.000000, 93.874, -146.5698
838.000000, 93.946, -146.3967
850.000000, 94.000, -146.1636
862.000000, 94.042, -145.9265
875.000000, 94.099, -145.8232
885.000000, 94.146, -145.7714
900.000000, 94.209, -145.7147
912.000000, 94.235, -145.7818
925.000000, 94.237, -145.8203
938.000000, 94.230, -145.6156
950.000000, 94.240, -145.3189
962.000000, 94.267, -145.0430
975.000000, 94.306, -144.9055
988.000000, 94.321, -144.9901
1000.000000, 94.286, -144.8646
1015.000000, 94.258, -144.3499
1030.000000, 94.262, -143.8337
1044.000000, 94.283, -143.4116
1060.000000, 94.272, -143.0752
1075.000000, 94.265, -142.2005
1090.000000, 94.354, -141.3315
1106.000000, 94.475, -140.9220
1120.000000, 94.573, -140.7422
1138.000000, 94.670, -140.7230
1150.000000, 94.705, -140.6798
1172.000000, 94.757, -140.3654
1180.000000, 94.783, -140.2428
1206.000000, 94.895, -139.9677
1220.000000, 94.948, -139.8553
1241.000000, 94.994, -139.7216
1250.000000, 95.027, -139.5435
1265.000000, 95.117, -139.4084
1280.000000, 95.184, -139.6851
1315.000000, 95.180, -140.1756
1320.000000, 95.167, -140.1659
1340.000000, 95.124, -139.7827
1360.000000, 95.091, -139.2292
1380.000000, 95.058, -138.6927
1400.000000, 95.006, -137.9971
1430.000000, 95.139, -135.8575
1450.000000, 95.301, -135.6408
1475.000000, 95.400, -136.0948
1500.000000, 95.396, -135.9028
1525.000000, 95.432, -135.6870
1550.000000, 95.423, -135.4264
1575.000000, 95.408, -134.6713
1600.000000, 95.501, -134.1707
1625.000000, 95.529, -134.8177
1650.000000, 95.334, -135.0830
1675.000000, 95.166, -133.3787
1700.000000, 95.222, -131.5541
1725.000000, 95.323, -130.6820
1750.000000, 95.449, -129.8848
1775.000000, 95.592, -130.0622
1800.000000, 95.522, -130.5980
1825.000000, 95.382, -129.6637
1850.000000, 95.447, -128.7635
1875.000000, 95.459, -129.5407
1900.000000, 95.225, -129.9430
1925.000000, 94.925, -128.6115
1950.000000, 94.724, -126.6470
1975.000000, 94.549, -124.5716
2000.000000, 94.483, -121.5437
2030.000000, 94.607, -118.2592
2060.000000, 94.813, -115.0301
2090.000000, 95.238, -112.4435
2120.000000, 95.640, -111.8846
2140.000000, 95.821, -112.1123
2180.000000, 95.905, -112.2710
2200.000000, 95.950, -111.8287
2240.000000, 95.963, -111.5559
2270.000000, 95.808, -110.4794
2300.000000, 95.732, -108.0047
2330.000000, 95.769, -105.1709
2360.000000, 95.960, -101.7350
2400.000000, 96.594, -98.1914
2430.000000, 97.051, -97.7486
2470.000000, 97.478, -97.5971
2500.000000, 97.724, -97.5768
2540.000000, 98.005, -97.0326
2580.000000, 98.336, -96.3577
2620.000000, 98.734, -95.9257
2650.000000, 99.046, -96.2108
2690.000000, 99.361, -97.1902
2720.000000, 99.533, -97.8688
2760.000000, 99.745, -98.7704
2800.000000, 99.928, -99.9969
2850.000000, 100.022, -101.8171
2900.000000, 99.870, -103.3373
2950.000000, 99.649, -102.2678
3000.000000, 99.796, -100.3679
3040.000000, 100.018, -100.4220
3070.000000, 100.100, -100.9798
3110.000000, 100.113, -101.6846
3150.000000, 100.027, -102.2074
3200.000000, 99.824, -101.8163
3250.000000, 99.664, -100.1517
3300.000000, 99.628, -97.6930
3350.000000, 99.760, -95.0473
3400.000000, 100.083, -92.6573
3450.000000, 100.516, -91.7338
3500.000000, 100.865, -91.9954
3550.000000, 101.109, -92.6411
3600.000000, 101.282, -93.6232
3650.000000, 101.265, -95.0677
3700.000000, 101.023, -95.3356
3750.000000, 100.806, -93.6577
3820.000000, 100.692, -90.5736
3870.000000, 100.664, -87.2244
3950.000000, 101.202, -80.2794
4000.000000, 101.924, -77.3675
4060.000000, 102.814, -76.9570
4120.000000, 103.476, -78.0345
4180.000000, 104.080, -79.1629
4250.000000, 104.714, -82.0620
4310.000000, 104.966, -85.2955
4370.000000, 104.975, -87.6570
4440.000000, 104.971, -88.1997
4500.000000, 105.230, -88.1016
4550.000000, 105.544, -89.1446
4620.000000, 105.863, -91.9691
4680.000000, 105.975, -94.8018
4750.000000, 105.951, -98.0505
4820.000000, 105.749, -100.9808
4870.000000, 105.507, -102.4713
4940.000000, 105.114, -103.4631
5000.000000, 104.770, -103.3578
5080.000000, 104.383, -101.6930
5150.000000, 104.227, -99.0497
5220.000000, 104.330, -95.9937
5300.000000, 104.757, -93.3688
5380.000000, 105.372, -92.5014
5450.000000, 105.941, -93.5904
5520.000000, 106.365, -96.2682
5600.000000, 106.542, -99.9617
5700.000000, 106.448, -102.9954
5800.000000, 106.452, -104.0384
5900.000000, 106.731, -105.0924
6000.000000, 107.184, -107.8010
6080.000000, 107.532, -111.6000
6150.000000, 107.733, -116.0639
6220.000000, 107.774, -121.3531
6300.000000, 107.558, -127.9599
6400.000000, 106.830, -135.7456
6500.000000, 105.699, -141.2563
6600.000000, 104.478, -143.9155
6700.000000, 103.351, -145.1246
6800.000000, 102.228, -145.3187
6900.000000, 101.156, -143.9382
7000.000000, 100.251, -141.6920
7100.000000, 99.414, -139.0891
7200.000000, 98.596, -135.4939
7300.000000, 97.874, -130.5255
7400.000000, 97.374, -124.1324
7500.000000, 97.263, -117.1591
7620.000000, 97.618, -110.4712
7750.000000, 98.333, -106.2486
7880.000000, 99.075, -105.9314
8000.000000, 99.501, -109.1177
8120.000000, 99.409, -114.5732
8250.000000, 98.500, -119.5667
8380.000000, 97.154, -119.6562
8500.000000, 96.133, -116.2644
8620.000000, 95.344, -111.9036
8750.000000, 94.838, -104.4174
8850.000000, 95.074, -99.1061
9000.000000, 95.801, -98.4221
9120.000000, 95.941, -102.7800
9250.000000, 95.335, -108.5012
9380.000000, 94.086, -112.1073
9500.000000, 92.642, -112.3531
9620.000000, 91.181, -109.8584
9750.000000, 89.732, -105.6139
9880.000000, 88.276, -100.8636
10000.000000, 86.694, -94.6717
10150.000000, 84.552, -78.5365
10300.000000, 83.781, -48.4488
10440.000000, 85.422, -22.8614
10600.000000, 88.208, -10.2080
10750.000000, 90.402, -7.6937
10900.000000, 92.080, -8.7365
11060.000000, 93.461, -11.7125
11200.000000, 94.410, -15.4549
11380.000000, 95.282, -21.7807
11500.000000, 95.580, -26.7371
11720.000000, 95.514, -35.3676
11800.000000, 95.369, -37.8682
12060.000000, 94.986, -44.6406
12200.000000, 94.915, -49.5530
12410.000000, 94.577, -61.2929
12500.000000, 94.188, -67.9366
12650.000000, 93.066, -80.8345
12800.000000, 91.255, -96.2169
13150.000000, 85.239, 132.8150
