* Measurement data measured by REW V5.31.3
* Source: Headset (DS by VECLAN.COM), MICROPHONE (Master Volume), L, volume: 0.720. Timing signal peak level -9.6 dBFS, measurement signal peak level -9.4 dBFS
* Format: 2M Log Swept Sine, 1 sweep at -23.7 dBFS using an acoustic timing reference
* Dated: Oct 15, 2024 2:31:34 PM
* REW Settings:
*  C-weighting compensation: Off
*  Target level: 85.0 dB
* Note: ; Fosi DS1 Delay -0.0571 ms (-20 mm, -0.77 in) using estimated IR delay relative to Acoustic reference played from SPEAKER L with no timing offset Clock adjustment: -26.1 ppm
* Measurement: Philips SHP9500 S2 L3
* Smoothing: 1/24 octave
* Frequency Step: 1/48 octave
* Start Frequency: 1.000 Hz
*
* Freq(Hz), SPL(dB), Phase(degrees)
1.000000, 53.796, -10.0394
1.015000, 53.832, -10.1720
1.030000, 53.868, -10.2965
1.044000, 53.902, -10.4046
1.060000, 53.942, -10.5177
1.075000, 53.980, -10.6127
1.090000, 54.019, -10.6954
1.106000, 54.061, -10.7650
1.120000, 54.100, -10.8026
1.138000, 54.154, -10.8165
1.150000, 54.191, -10.8062
1.172000, 54.262, -10.7566
1.180000, 54.289, -10.7333
1.206000, 54.379, -10.6284
1.220000, 54.429, -10.5572
1.241000, 54.505, -10.4369
1.250000, 54.539, -10.3817
1.265000, 54.594, -10.2870
1.280000, 54.650, -10.1907
1.315000, 54.780, -9.9714
1.320000, 54.798, -9.9417
1.340000, 54.871, -9.8300
1.360000, 54.942, -9.7309
1.380000, 55.011, -9.6863
1.400000, 55.077, -9.6762
1.430000, 55.170, -9.7044
1.450000, 55.228, -9.7536
1.475000, 55.292, -9.8342
1.500000, 55.348, -9.8940
1.525000, 55.396, -9.9190
1.550000, 55.437, -9.9170
1.575000, 55.474, -9.9146
1.600000, 55.507, -9.9342
1.625000, 55.538, -9.9530
1.650000, 55.569, -9.9784
1.675000, 55.602, -10.0166
1.700000, 55.638, -10.0729
1.725000, 55.678, -10.1522
1.750000, 55.725, -10.2580
1.775000, 55.780, -10.4076
1.800000, 55.844, -10.6160
1.825000, 55.919, -10.8519
1.850000, 56.005, -11.0945
1.875000, 56.099, -11.3169
1.900000, 56.201, -11.5151
1.925000, 56.311, -11.6952
1.950000, 56.426, -11.8637
1.975000, 56.547, -12.0379
2.000000, 56.672, -12.2340
2.030000, 56.827, -12.4762
2.060000, 56.986, -12.7340
2.090000, 57.148, -13.0140
2.120000, 57.311, -13.3213
2.140000, 57.420, -13.5436
2.180000, 57.637, -14.0507
2.200000, 57.745, -14.3388
2.240000, 57.963, -14.9052
2.270000, 58.131, -15.3049
2.300000, 58.301, -15.6862
2.330000, 58.474, -16.0552
2.360000, 58.648, -16.4184
2.400000, 58.883, -16.9406
2.430000, 59.060, -17.3437
2.470000, 59.296, -17.8971
2.500000, 59.472, -18.3287
2.540000, 59.704, -18.9297
2.580000, 59.935, -19.5644
2.620000, 60.165, -20.2149
2.650000, 60.338, -20.6845
2.690000, 60.569, -21.2912
2.720000, 60.742, -21.7358
2.760000, 60.971, -22.3198
2.800000, 61.200, -22.9381
2.850000, 61.482, -23.7239
2.900000, 61.761, -24.5266
2.950000, 62.035, -25.3423
3.000000, 62.306, -26.1689
3.040000, 62.520, -26.8203
3.070000, 62.680, -27.2987
3.110000, 62.891, -27.9258
3.150000, 63.100, -28.5444
3.200000, 63.357, -29.3413
3.250000, 63.610, -30.1524
3.300000, 63.858, -30.9669
3.350000, 64.102, -31.7749
3.400000, 64.342, -32.5914
3.450000, 64.577, -33.3994
3.500000, 64.808, -34.1894
3.550000, 65.035, -34.9633
3.600000, 65.258, -35.7511
3.650000, 65.476, -36.5416
3.700000, 65.689, -37.3257
3.750000, 65.898, -38.1013
3.820000, 66.183, -39.1920
3.870000, 66.381, -39.9561
3.950000, 66.689, -41.1368
4.000000, 66.876, -41.8731
4.060000, 67.093, -42.7499
4.120000, 67.304, -43.6136
4.180000, 67.509, -44.4660
4.250000, 67.739, -45.4545
4.310000, 67.929, -46.2627
4.370000, 68.114, -47.0353
4.440000, 68.322, -47.9265
4.500000, 68.494, -48.6705
4.550000, 68.632, -49.2732
4.620000, 68.819, -50.1035
4.680000, 68.974, -50.7772
4.750000, 69.150, -51.5050
4.820000, 69.320, -52.2025
4.870000, 69.436, -52.6817
4.940000, 69.595, -53.3174
5.000000, 69.727, -53.8384
5.080000, 69.899, -54.4806
5.150000, 70.047, -54.9778
5.220000, 70.192, -55.4432
5.300000, 70.354, -55.9282
5.380000, 70.513, -56.3610
5.450000, 70.652, -56.7144
5.520000, 70.791, -57.0204
5.600000, 70.949, -57.3253
5.700000, 71.147, -57.6585
5.800000, 71.348, -57.9508
5.900000, 71.553, -58.2241
6.000000, 71.764, -58.4566
6.080000, 71.935, -58.6349
6.150000, 72.085, -58.7892
6.220000, 72.237, -58.9690
6.300000, 72.412, -59.1841
6.400000, 72.633, -59.4619
6.500000, 72.853, -59.7736
6.600000, 73.070, -60.1296
6.700000, 73.285, -60.5424
6.800000, 73.496, -60.9867
6.900000, 73.700, -61.4690
7.000000, 73.893, -61.9823
7.100000, 74.076, -62.5374
7.200000, 74.249, -63.1085
7.300000, 74.411, -63.6845
7.400000, 74.561, -64.2569
7.500000, 74.701, -64.8362
7.620000, 74.853, -65.5033
7.750000, 75.001, -66.1612
7.880000, 75.131, -66.7709
8.000000, 75.240, -67.2600
8.120000, 75.341, -67.6641
8.250000, 75.443, -68.0110
8.380000, 75.543, -68.2653
8.500000, 75.637, -68.4185
8.620000, 75.733, -68.4961
8.750000, 75.843, -68.5264
8.850000, 75.934, -68.5252
9.000000, 76.083, -68.4831
9.120000, 76.210, -68.4566
9.250000, 76.357, -68.4584
9.380000, 76.511, -68.4890
9.500000, 76.656, -68.5704
9.620000, 76.802, -68.7037
9.750000, 76.959, -68.9032
9.880000, 77.105, -69.1507
10.000000, 77.226, -69.4133
10.150000, 77.359, -69.8094
10.300000, 77.476, -70.2085
10.440000, 77.571, -70.5750
10.600000, 77.670, -70.9663
10.750000, 77.760, -71.2884
10.900000, 77.849, -71.5703
11.060000, 77.949, -71.8589
11.200000, 78.043, -72.1259
11.380000, 78.170, -72.4594
11.500000, 78.260, -72.6857
11.720000, 78.435, -73.1478
11.800000, 78.501, -73.3420
12.060000, 78.723, -74.1001
12.200000, 78.841, -74.6215
12.410000, 79.010, -75.4838
12.500000, 79.075, -75.8732
12.650000, 79.172, -76.5398
12.800000, 79.256, -77.1999
13.150000, 79.400, -78.6420
13.200000, 79.417, -78.8275
13.400000, 79.475, -79.4745
13.600000, 79.528, -79.9517
13.800000, 79.583, -80.2525
14.000000, 79.651, -80.4076
14.300000, 79.787, -80.5126
14.500000, 79.902, -80.5328
14.750000, 80.070, -80.5874
15.000000, 80.258, -80.7384
15.250000, 80.458, -81.0677
15.500000, 80.654, -81.5160
15.750000, 80.836, -82.0501
16.000000, 80.999, -82.6282
16.250000, 81.144, -83.2521
16.500000, 81.272, -83.8426
16.750000, 81.385, -84.3706
17.000000, 81.489, -84.8221
17.250000, 81.586, -85.2177
17.500000, 81.681, -85.5250
17.750000, 81.777, -85.7489
18.000000, 81.878, -85.9126
18.250000, 81.987, -86.0727
18.500000, 82.104, -86.2348
18.750000, 82.227, -86.4250
19.000000, 82.354, -86.6643
19.250000, 82.479, -86.9873
19.500000, 82.598, -87.3550
19.750000, 82.707, -87.7477
20.000000, 82.806, -88.1418
20.299999, 82.913, -88.6222
20.600000, 83.010, -89.0549
20.900000, 83.099, -89.4325
21.200001, 83.183, -89.7722
21.400000, 83.235, -89.9688
21.799999, 83.330, -90.2460
22.000000, 83.375, -90.3117
22.400000, 83.471, -90.2925
22.700001, 83.557, -90.1269
23.000000, 83.665, -89.8725
23.299999, 83.798, -89.6051
23.600000, 83.954, -89.3775
24.000000, 84.191, -89.2219
24.299999, 84.378, -89.2618
24.700001, 84.627, -89.4942
25.000000, 84.806, -89.7797
25.400000, 85.029, -90.2881
25.799999, 85.230, -90.8712
26.200001, 85.408, -91.4830
26.500000, 85.528, -91.9264
26.900000, 85.678, -92.4532
27.200001, 85.789, -92.8113
27.600000, 85.940, -93.2757
28.000000, 86.093, -93.7778
28.500000, 86.275, -94.5288
29.000000, 86.433, -95.3290
29.500000, 86.569, -96.0673
30.000000, 86.699, -96.7107
30.400000, 86.809, -97.2292
30.700001, 86.892, -97.6417
31.100000, 86.996, -98.2311
31.500000, 87.088, -98.8345
32.000000, 87.187, -99.5085
32.500000, 87.284, -100.0643
33.000000, 87.393, -100.5635
33.500000, 87.505, -101.1153
34.000000, 87.608, -101.6809
34.500000, 87.700, -102.1668
35.000000, 87.796, -102.5446
35.500000, 87.905, -102.9095
36.000000, 88.018, -103.3466
36.500000, 88.115, -103.8459
37.000000, 88.189, -104.2854
37.500000, 88.252, -104.5716
38.200001, 88.355, -104.7002
38.700001, 88.453, -104.7132
39.500000, 88.640, -104.7888
40.000000, 88.765, -104.8922
40.599998, 88.918, -105.0630
41.200001, 89.083, -105.2648
41.799999, 89.260, -105.6002
42.500000, 89.455, -106.2611
43.099998, 89.588, -106.9294
43.700001, 89.697, -107.4962
44.400002, 89.829, -108.0500
45.000000, 89.951, -108.5814
45.500000, 90.046, -109.0858
46.200001, 90.155, -109.8063
46.799999, 90.236, -110.3497
47.500000, 90.330, -110.8286
48.200001, 90.441, -111.1799
48.700001, 90.535, -111.4176
49.400002, 90.683, -111.8332
50.000000, 90.808, -112.2731
50.799999, 90.965, -112.8710
51.500000, 91.106, -113.3965
52.200001, 91.250, -113.9818
53.000000, 91.406, -114.7151
53.799999, 91.553, -115.5405
54.500000, 91.669, -116.3069
55.200001, 91.772, -117.0622
56.000000, 91.886, -117.8888
57.000000, 92.027, -118.8985
58.000000, 92.168, -119.8929
59.000000, 92.313, -121.0433
60.000000, 92.391, -122.2370
60.799999, 92.432, -122.8937
61.500000, 92.490, -123.3081
62.200001, 92.560, -123.7638
63.000000, 92.637, -124.3311
64.000000, 92.741, -124.9939
65.000000, 92.850, -125.8348
66.000000, 92.951, -126.7684
67.000000, 93.041, -127.6687
68.000000, 93.128, -128.5718
69.000000, 93.215, -129.4591
70.000000, 93.298, -130.3419
71.000000, 93.375, -131.2704
72.000000, 93.439, -132.1975
73.000000, 93.495, -133.0792
74.000000, 93.546, -133.9694
75.000000, 93.590, -134.8689
76.199997, 93.632, -135.9020
77.500000, 93.674, -136.9231
78.800003, 93.711, -137.8746
80.000000, 93.743, -138.7434
81.199997, 93.769, -139.6181
82.500000, 93.785, -140.5676
83.800003, 93.791, -141.4471
85.000000, 93.795, -142.2222
86.199997, 93.793, -142.9874
87.500000, 93.785, -143.6785
88.500000, 93.777, -144.1252
90.000000, 93.775, -144.6729
91.199997, 93.786, -145.0495
92.500000, 93.819, -145.3701
93.800003, 93.871, -145.7936
95.000000, 93.920, -146.3363
96.199997, 93.959, -146.9314
97.500000, 93.991, -147.5687
98.800003, 94.013, -148.2402
100.000000, 94.023, -148.8927
101.500000, 94.022, -149.6864
103.000000, 94.019, -150.3853
104.400002, 94.021, -150.9843
106.000000, 94.028, -151.6725
107.500000, 94.032, -152.3066
109.000000, 94.029, -152.9040
110.599998, 94.013, -153.5396
112.000000, 93.998, -154.0047
113.800003, 93.983, -154.5896
115.000000, 93.969, -154.9933
117.199997, 93.952, -155.7104
118.000000, 93.947, -155.9944
120.599998, 93.915, -156.9808
122.000000, 93.891, -157.4110
124.099998, 93.879, -158.0179
125.000000, 93.874, -158.3223
126.500000, 93.853, -158.7338
128.000000, 93.826, -159.0960
131.500000, 93.769, -159.7504
132.000000, 93.763, -159.8422
134.000000, 93.739, -160.2268
136.000000, 93.715, -160.6148
138.000000, 93.691, -160.9913
140.000000, 93.664, -161.3500
143.000000, 93.622, -161.8938
145.000000, 93.592, -162.2256
147.500000, 93.556, -162.5797
150.000000, 93.521, -162.8436
152.500000, 93.485, -163.0581
155.000000, 93.450, -163.2773
157.500000, 93.414, -163.5042
160.000000, 93.373, -163.7257
162.500000, 93.335, -163.8907
165.000000, 93.302, -163.9959
167.500000, 93.270, -164.0775
170.000000, 93.236, -164.1253
172.500000, 93.203, -164.1896
175.000000, 93.173, -164.2438
177.500000, 93.146, -164.2420
180.000000, 93.116, -164.2533
182.500000, 93.088, -164.2154
185.000000, 93.071, -164.1519
187.500000, 93.066, -164.0712
190.000000, 93.059, -164.0665
192.500000, 93.058, -164.0673
195.000000, 93.083, -163.9699
197.500000, 93.124, -163.9112
200.000000, 93.157, -163.9128
203.000000, 93.188, -164.0920
206.000000, 93.219, -164.4766
209.000000, 93.243, -165.0130
212.000000, 93.247, -165.6293
214.000000, 93.236, -166.0410
218.000000, 93.173, -166.7573
220.000000, 93.118, -167.0379
224.000000, 92.983, -167.3490
227.000000, 92.879, -167.3462
230.000000, 92.784, -167.2444
233.000000, 92.695, -167.1106
236.000000, 92.633, -166.8633
240.000000, 92.590, -166.5224
243.000000, 92.543, -166.2375
247.000000, 92.490, -165.5573
250.000000, 92.480, -165.1435
254.000000, 92.472, -164.8392
258.000000, 92.463, -164.5776
262.000000, 92.456, -164.3604
265.000000, 92.449, -164.2524
269.000000, 92.440, -164.1172
272.000000, 92.429, -163.9410
276.000000, 92.410, -163.5984
280.000000, 92.403, -163.2381
285.000000, 92.418, -162.8581
290.000000, 92.433, -162.6573
295.000000, 92.440, -162.4938
300.000000, 92.433, -162.3055
304.000000, 92.424, -162.1277
307.000000, 92.419, -161.9473
311.000000, 92.415, -161.6836
315.000000, 92.416, -161.4269
320.000000, 92.419, -161.1464
325.000000, 92.423, -160.7827
330.000000, 92.432, -160.4737
335.000000, 92.450, -160.1713
340.000000, 92.469, -159.8934
345.000000, 92.479, -159.6586
350.000000, 92.481, -159.4651
355.000000, 92.482, -159.2843
360.000000, 92.485, -159.0155
365.000000, 92.488, -158.7292
370.000000, 92.483, -158.4507
375.000000, 92.485, -158.1775
382.000000, 92.497, -157.7783
387.000000, 92.500, -157.4678
395.000000, 92.505, -157.0083
400.000000, 92.517, -156.7653
406.000000, 92.527, -156.4049
412.000000, 92.539, -156.0580
418.000000, 92.520, -155.8086
425.000000, 92.495, -155.4627
431.000000, 92.510, -155.0747
437.000000, 92.556, -154.6241
444.000000, 92.604, -154.0148
450.000000, 92.610, -153.6568
455.000000, 92.614, -153.5154
462.000000, 92.625, -153.1849
468.000000, 92.636, -152.8280
475.000000, 92.658, -152.3687
482.000000, 92.685, -151.9568
487.000000, 92.704, -151.6796
494.000000, 92.727, -151.3013
500.000000, 92.745, -150.9870
508.000000, 92.774, -150.5363
515.000000, 92.802, -150.1673
522.000000, 92.826, -149.7871
530.000000, 92.859, -149.2896
538.000000, 92.900, -148.8437
545.000000, 92.938, -148.5064
552.000000, 92.969, -148.2033
560.000000, 93.001, -147.8617
570.000000, 93.043, -147.3681
580.000000, 93.089, -146.8607
590.000000, 93.141, -146.3711
600.000000, 93.204, -145.9729
608.000000, 93.249, -145.7358
615.000000, 93.284, -145.5749
622.000000, 93.303, -145.4930
630.000000, 93.279, -145.4600
640.000000, 93.199, -144.7942
650.000000, 93.231, -143.6601
660.000000, 93.312, -143.0511
670.000000, 93.378, -142.5227
680.000000, 93.445, -142.1148
690.000000, 93.502, -141.7823
700.000000, 93.550, -141.4024
710.000000, 93.603, -141.0581
720.000000, 93.648, -140.8339
730.000000, 93.663, -140.5920
740.000000, 93.668, -140.1161
750.000000, 93.689, -139.4467
762.000000, 93.760, -138.7523
775.000000, 93.838, -138.3628
788.000000, 93.891, -137.9500
800.000000, 93.955, -137.4511
812.000000, 94.016, -137.0900
825.000000, 94.057, -136.6790
838.000000, 94.109, -136.1334
850.000000, 94.180, -135.7562
862.000000, 94.244, -135.5868
875.000000, 94.280, -135.3566
885.000000, 94.290, -135.1630
900.000000, 94.290, -134.8018
912.000000, 94.293, -134.2815
925.000000, 94.332, -133.7092
938.000000, 94.376, -133.3144
950.000000, 94.414, -133.0137
962.000000, 94.433, -132.7861
975.000000, 94.430, -132.4908
988.000000, 94.411, -132.0401
1000.000000, 94.396, -131.4597
1015.000000, 94.406, -130.5864
1030.000000, 94.452, -129.7875
1044.000000, 94.488, -129.1846
1060.000000, 94.524, -128.3855
1075.000000, 94.596, -127.5155
1090.000000, 94.698, -126.9515
1106.000000, 94.788, -126.5635
1120.000000, 94.851, -126.1706
1138.000000, 94.946, -125.7035
1150.000000, 95.005, -125.4538
1172.000000, 95.091, -125.1142
1180.000000, 95.107, -125.0146
1206.000000, 95.166, -124.0481
1220.000000, 95.235, -123.5880
1241.000000, 95.314, -122.9658
1250.000000, 95.358, -122.6329
1265.000000, 95.442, -122.3221
1280.000000, 95.491, -122.2468
1315.000000, 95.600, -121.0443
1320.000000, 95.619, -120.9227
1340.000000, 95.677, -120.2480
1360.000000, 95.805, -119.5854
1380.000000, 95.878, -119.8638
1400.000000, 95.844, -119.3518
1430.000000, 96.023, -118.1326
1450.000000, 96.117, -118.3908
1475.000000, 96.097, -118.2981
1500.000000, 96.132, -117.6432
1525.000000, 96.158, -117.1867
1550.000000, 96.230, -116.4127
1575.000000, 96.304, -116.6141
1600.000000, 96.213, -116.3630
1625.000000, 96.194, -115.3570
1650.000000, 96.241, -114.6852
1675.000000, 96.248, -114.3126
1700.000000, 96.244, -113.6257
1725.000000, 96.296, -113.1149
1750.000000, 96.289, -113.5130
1775.000000, 96.069, -113.4308
1800.000000, 95.911, -111.6654
1825.000000, 95.934, -110.2047
1850.000000, 95.910, -109.6679
1875.000000, 95.754, -108.3668
1900.000000, 95.760, -105.8271
1925.000000, 95.936, -104.6048
1950.000000, 95.937, -104.5258
1975.000000, 95.799, -103.0214
2000.000000, 95.863, -100.5249
2030.000000, 96.115, -98.9702
2060.000000, 96.284, -98.5214
2090.000000, 96.432, -97.9730
2120.000000, 96.572, -98.6995
2140.000000, 96.491, -99.6265
2180.000000, 96.079, -99.4810
2200.000000, 95.878, -98.7319
2240.000000, 95.409, -96.7207
2270.000000, 94.998, -93.3201
2300.000000, 94.809, -88.2496
2330.000000, 94.847, -83.3136
2360.000000, 95.081, -78.3473
2400.000000, 95.637, -73.2796
2430.000000, 96.114, -69.9964
2470.000000, 96.997, -66.6985
2500.000000, 97.675, -66.6875
2540.000000, 98.200, -68.0416
2580.000000, 98.615, -68.8337
2620.000000, 98.838, -70.5924
2650.000000, 98.867, -71.0418
2690.000000, 98.952, -71.0789
2720.000000, 98.990, -71.2536
2760.000000, 98.944, -70.8345
2800.000000, 98.983, -69.3039
2850.000000, 99.190, -67.7813
2900.000000, 99.364, -66.8119
2950.000000, 99.579, -65.2520
3000.000000, 99.915, -64.0651
3040.000000, 100.253, -63.5452
3070.000000, 100.542, -63.6921
3110.000000, 100.895, -64.8552
3150.000000, 101.158, -66.8916
3200.000000, 101.253, -70.4757
3250.000000, 100.991, -74.0161
3300.000000, 100.457, -76.2194
3350.000000, 99.793, -76.5954
3400.000000, 99.150, -75.2722
3450.000000, 98.589, -72.7260
3500.000000, 98.153, -69.6718
3550.000000, 97.707, -66.3326
3600.000000, 97.274, -61.3249
3650.000000, 97.099, -54.8002
3700.000000, 97.235, -48.5086
3750.000000, 97.573, -42.9952
3820.000000, 98.248, -37.3216
3870.000000, 98.720, -34.7209
3950.000000, 99.299, -31.6073
4000.000000, 99.588, -29.9288
4060.000000, 99.816, -27.6176
4120.000000, 100.039, -24.0985
4180.000000, 100.485, -19.5509
4250.000000, 101.373, -15.2520
4310.000000, 102.187, -13.7876
4370.000000, 102.887, -13.4673
4440.000000, 103.558, -13.6876
4500.000000, 104.062, -13.9318
4550.000000, 104.466, -14.1168
4620.000000, 105.072, -14.4068
4680.000000, 105.644, -15.2590
4750.000000, 106.315, -17.2345
4820.000000, 106.940, -20.7012
4870.000000, 107.239, -24.2879
4940.000000, 107.293, -29.6936
5000.000000, 107.076, -33.3270
5080.000000, 106.647, -36.5754
5150.000000, 106.202, -38.1552
5220.000000, 105.743, -38.4832
5300.000000, 105.288, -37.5801
5380.000000, 104.950, -35.6475
5450.000000, 104.804, -33.2058
5520.000000, 104.886, -30.6384
5600.000000, 105.212, -29.0988
5700.000000, 105.531, -30.0251
5800.000000, 105.494, -31.2605
5900.000000, 105.403, -31.2697
6000.000000, 105.353, -31.1412
6080.000000, 105.313, -30.6999
6150.000000, 105.350, -29.9745
6220.000000, 105.503, -29.2898
6300.000000, 105.851, -29.1495
6400.000000, 106.457, -31.4813
6500.000000, 106.897, -37.5410
6600.000000, 106.738, -46.1427
6700.000000, 105.791, -53.9880
6800.000000, 104.332, -57.8620
6900.000000, 102.940, -57.5655
7000.000000, 101.908, -55.8718
7100.000000, 101.010, -54.2118
7200.000000, 100.167, -51.7337
7300.000000, 99.476, -49.3381
7400.000000, 98.747, -47.8871
7500.000000, 97.752, -45.9572
7620.000000, 96.437, -39.3875
7750.000000, 95.772, -28.5099
7880.000000, 95.898, -20.8435
8000.000000, 96.099, -18.6262
8120.000000, 95.997, -20.2973
8250.000000, 95.091, -25.1783
8380.000000, 92.823, -28.2951
8500.000000, 89.618, -18.7100
8620.000000, 87.525, 14.8660
8750.000000, 89.169, 46.4729
8850.000000, 91.284, 54.5207
9000.000000, 93.840, 53.8001
9120.000000, 94.976, 46.4690
9250.000000, 94.901, 35.4823
9380.000000, 93.338, 27.0660
9500.000000, 90.947, 27.0738
9620.000000, 88.500, 37.1044
9750.000000, 86.885, 55.2144
9880.000000, 86.542, 72.0487
10000.000000, 86.669, 84.0872
10150.000000, 86.943, 97.7711
10300.000000, 87.539, 112.1572
10440.000000, 88.659, 124.7098
10600.000000, 90.408, 134.2967
10750.000000, 91.973, 137.7453
10900.000000, 93.134, 137.7773
11060.000000, 93.883, 136.2899
11200.000000, 94.188, 134.9104
11380.000000, 94.236, 133.9359
11500.000000, 94.126, 133.9923
11720.000000, 93.801, 135.8338
11800.000000, 93.703, 136.9322
12060.000000, 93.507, 139.8140
12200.000000, 93.341, 140.5517
12410.000000, 92.983, 140.6993
12500.000000, 92.783, 139.7864
12650.000000, 92.123, 136.2890
12800.000000, 90.624, 132.2200
13150.000000, 84.774, 172.2096
13200.000000, 84.656, -175.7090
13400.000000, 86.285, -150.5622
13600.000000, 87.913, -141.8736
