* Measurement data measured by REW V5.31
* Source: Headset (DS by VECLAN.COM), MICROPHONE (Master Volume), L, volume: 0.720. Timing signal peak level -15.9 dBFS, measurement signal peak level -15.8 dBFS
* Format: 4M Log Swept Sine, 1 sweep at -12.0 dBFS using an acoustic timing reference
* Dated: Apr 21, 2024 6:01:38 AM
* REW Settings:
*  C-weighting compensation: Off
*  Target level: 75.0 dB
* Note: ; Delay -0.0649 ms (-22 mm, -0.88 in) using estimated IR delay relative to Acoustic reference played from HEADPHONE L with no timing offset
* Measurement: Philips SHP9500 L3
* Smoothing: 1/24 octave
* Frequency Step: 1/48 octave
* Start Frequency: 1.000 Hz
*
* Freq(Hz), SPL(dB), Phase(degrees)
1.000000, 55.140, 24.8249
1.015000, 55.309, 22.4749
1.030000, 55.484, 20.1767
1.044000, 55.651, 18.0709
1.060000, 55.847, 15.7015
1.075000, 56.037, 13.5067
1.090000, 56.231, 11.3279
1.106000, 56.448, 9.0092
1.120000, 56.649, 6.9795
1.138000, 56.925, 4.3804
1.150000, 57.120, 2.6647
1.172000, 57.496, -0.4281
1.180000, 57.638, -1.5351
1.206000, 58.116, -5.0230
1.220000, 58.381, -6.8235
1.241000, 58.787, -9.4130
1.250000, 58.963, -10.4807
1.265000, 59.257, -12.2030
1.280000, 59.552, -13.8542
1.315000, 60.233, -17.4374
1.320000, 60.329, -17.9196
1.340000, 60.707, -19.7785
1.360000, 61.072, -21.5299
1.380000, 61.421, -23.2212
1.400000, 61.752, -24.8377
1.430000, 62.205, -27.1143
1.450000, 62.473, -28.5466
1.475000, 62.769, -30.2593
1.500000, 63.028, -31.9031
1.525000, 63.255, -33.4793
1.550000, 63.454, -34.9836
1.575000, 63.630, -36.4351
1.600000, 63.784, -37.8506
1.625000, 63.922, -39.1921
1.650000, 64.045, -40.4620
1.675000, 64.157, -41.6634
1.700000, 64.262, -42.8002
1.725000, 64.363, -43.8768
1.750000, 64.464, -44.8974
1.775000, 64.567, -45.8839
1.800000, 64.677, -46.8572
1.825000, 64.794, -47.7898
1.850000, 64.917, -48.6927
1.875000, 65.040, -49.5742
1.900000, 65.159, -50.4336
1.925000, 65.275, -51.2674
1.950000, 65.389, -52.0721
1.975000, 65.499, -52.8621
2.000000, 65.607, -53.6519
2.030000, 65.733, -54.5530
2.060000, 65.856, -55.4043
2.090000, 65.975, -56.2053
2.120000, 66.092, -56.9567
2.140000, 66.169, -57.4305
2.180000, 66.318, -58.3369
2.200000, 66.391, -58.7827
2.240000, 66.533, -59.6394
2.270000, 66.635, -60.2589
2.300000, 66.734, -60.8572
2.330000, 66.829, -61.4317
2.360000, 66.922, -61.9802
2.400000, 67.041, -62.7155
2.430000, 67.129, -63.2383
2.470000, 67.243, -63.8852
2.500000, 67.327, -64.3316
2.540000, 67.438, -64.8740
2.580000, 67.548, -65.3800
2.620000, 67.654, -65.8837
2.650000, 67.732, -66.2396
2.690000, 67.833, -66.6861
2.720000, 67.906, -66.9997
2.760000, 68.003, -67.3872
2.800000, 68.098, -67.7803
2.850000, 68.216, -68.2281
2.900000, 68.333, -68.6189
2.950000, 68.450, -68.9528
3.000000, 68.565, -69.2677
3.040000, 68.656, -69.5000
3.070000, 68.724, -69.6580
3.110000, 68.813, -69.8492
3.150000, 68.902, -70.0204
3.200000, 69.014, -70.2401
3.250000, 69.126, -70.4496
3.300000, 69.240, -70.6349
3.350000, 69.355, -70.7902
3.400000, 69.470, -70.9493
3.450000, 69.587, -71.0985
3.500000, 69.703, -71.2304
3.550000, 69.820, -71.3502
3.600000, 69.936, -71.4901
3.650000, 70.052, -71.6385
3.700000, 70.168, -71.7820
3.750000, 70.284, -71.9157
3.820000, 70.446, -72.1227
3.870000, 70.562, -72.2706
3.950000, 70.745, -72.5008
4.000000, 70.857, -72.6666
4.060000, 70.989, -72.8803
4.120000, 71.121, -73.0964
4.180000, 71.250, -73.3180
4.250000, 71.398, -73.6023
4.310000, 71.521, -73.8347
4.370000, 71.641, -74.0601
4.440000, 71.775, -74.3491
4.500000, 71.885, -74.5970
4.550000, 71.974, -74.7993
4.620000, 72.095, -75.0948
4.680000, 72.196, -75.3323
4.750000, 72.309, -75.5760
4.820000, 72.419, -75.8133
4.870000, 72.494, -75.9754
4.940000, 72.595, -76.1820
5.000000, 72.680, -76.3501
5.080000, 72.792, -76.5425
5.150000, 72.888, -76.6633
5.220000, 72.983, -76.7667
5.300000, 73.089, -76.8529
5.380000, 73.195, -76.9034
5.450000, 73.290, -76.9368
5.520000, 73.389, -76.9368
5.600000, 73.505, -76.9050
5.700000, 73.655, -76.8381
5.800000, 73.812, -76.7629
5.900000, 73.978, -76.7073
6.000000, 74.153, -76.6442
6.080000, 74.299, -76.6128
6.150000, 74.429, -76.6025
6.220000, 74.562, -76.6352
6.300000, 74.717, -76.7048
6.400000, 74.915, -76.8308
6.500000, 75.114, -77.0209
6.600000, 75.310, -77.2814
6.700000, 75.503, -77.6218
6.800000, 75.692, -78.0164
6.900000, 75.874, -78.4624
7.000000, 76.046, -78.9491
7.100000, 76.209, -79.4870
7.200000, 76.363, -80.0494
7.300000, 76.506, -80.6192
7.400000, 76.638, -81.1866
7.500000, 76.758, -81.7654
7.620000, 76.890, -82.4331
7.750000, 77.019, -83.0909
7.880000, 77.136, -83.6963
8.000000, 77.235, -84.1911
8.120000, 77.332, -84.6157
8.250000, 77.433, -85.0016
8.380000, 77.535, -85.3263
8.500000, 77.632, -85.5830
8.620000, 77.734, -85.7985
8.750000, 77.849, -86.0176
8.850000, 77.941, -86.1910
9.000000, 78.085, -86.4547
9.120000, 78.201, -86.6927
9.250000, 78.327, -86.9956
9.380000, 78.451, -87.3350
9.500000, 78.561, -87.6794
9.620000, 78.663, -88.0480
9.750000, 78.763, -88.4675
9.880000, 78.847, -88.8851
10.000000, 78.903, -89.2505
10.150000, 78.952, -89.7062
10.300000, 78.982, -90.0721
10.440000, 78.997, -90.3221
10.600000, 79.008, -90.4915
10.750000, 79.021, -90.5243
10.900000, 79.043, -90.4526
11.060000, 79.082, -90.3164
11.200000, 79.132, -90.1788
11.380000, 79.217, -89.9902
11.500000, 79.285, -89.8793
11.720000, 79.430, -89.7600
11.800000, 79.488, -89.7590
12.060000, 79.687, -89.9380
12.200000, 79.793, -90.1787
12.410000, 79.943, -90.6399
12.500000, 80.001, -90.8593
12.650000, 80.087, -91.2425
12.800000, 80.162, -91.6200
13.150000, 80.305, -92.4237
13.200000, 80.324, -92.5268
13.400000, 80.399, -92.8780
13.600000, 80.480, -93.1476
13.800000, 80.571, -93.3591
14.000000, 80.674, -93.5642
14.300000, 80.847, -94.0034
14.500000, 80.964, -94.3678
14.750000, 81.104, -94.8915
15.000000, 81.229, -95.4541
15.250000, 81.342, -96.0398
15.500000, 81.445, -96.5331
15.750000, 81.542, -96.9024
16.000000, 81.647, -97.1605
16.250000, 81.765, -97.4094
16.500000, 81.898, -97.6681
16.750000, 82.036, -97.9895
17.000000, 82.169, -98.3870
17.250000, 82.288, -98.8532
17.500000, 82.386, -99.2957
17.750000, 82.465, -99.6364
18.000000, 82.536, -99.8334
18.250000, 82.613, -99.9047
18.500000, 82.706, -99.8819
18.750000, 82.819, -99.8459
19.000000, 82.948, -99.8798
19.250000, 83.082, -100.0605
19.500000, 83.205, -100.3552
19.750000, 83.308, -100.7133
20.000000, 83.386, -101.0563
20.299999, 83.457, -101.3800
20.600000, 83.521, -101.5251
20.900000, 83.600, -101.5327
21.200001, 83.702, -101.5369
21.400000, 83.781, -101.5933
21.799999, 83.938, -101.8812
22.000000, 84.009, -102.0935
22.400000, 84.124, -102.5439
22.700001, 84.199, -102.7703
23.000000, 84.288, -102.8881
23.299999, 84.406, -103.0056
23.600000, 84.552, -103.2448
24.000000, 84.763, -103.9344
24.299999, 84.897, -104.7441
24.700001, 85.008, -105.9591
25.000000, 85.037, -106.7385
25.400000, 85.037, -107.3409
25.799999, 85.056, -107.3528
26.200001, 85.150, -107.0341
26.500000, 85.273, -106.8282
26.900000, 85.475, -106.8267
27.200001, 85.625, -107.0601
27.600000, 85.791, -107.5342
28.000000, 85.917, -107.9576
28.500000, 86.063, -108.2298
29.000000, 86.250, -108.3847
29.500000, 86.466, -108.8641
30.000000, 86.640, -109.7687
30.400000, 86.710, -110.5598
30.700001, 86.730, -110.9993
31.100000, 86.747, -111.2671
31.500000, 86.799, -111.2606
32.000000, 86.939, -111.2574
32.500000, 87.121, -111.6540
33.000000, 87.280, -112.4087
33.500000, 87.403, -113.2718
34.000000, 87.509, -114.0937
34.500000, 87.601, -114.8479
35.000000, 87.679, -115.3999
35.500000, 87.779, -115.6624
36.000000, 87.946, -115.8945
36.500000, 88.154, -116.5970
37.000000, 88.301, -117.8617
37.500000, 88.309, -119.1164
38.200001, 88.190, -119.4860
38.700001, 88.196, -118.7906
39.500000, 88.435, -118.0838
40.000000, 88.582, -118.3823
40.599998, 88.675, -118.9147
41.200001, 88.741, -119.2150
41.799999, 88.827, -119.4652
42.500000, 88.929, -119.9105
43.099998, 89.013, -120.2986
43.700001, 89.118, -120.7321
44.400002, 89.248, -121.5202
45.000000, 89.319, -122.3103
45.500000, 89.352, -122.8079
46.200001, 89.416, -123.1377
46.799999, 89.516, -123.3235
47.500000, 89.654, -123.6721
48.200001, 89.795, -124.0791
48.700001, 89.908, -124.4378
49.400002, 90.068, -125.2664
50.000000, 90.155, -126.2695
50.799999, 90.175, -127.4612
51.500000, 90.174, -128.0704
52.200001, 90.212, -128.5802
53.000000, 90.261, -129.3646
53.799999, 90.278, -130.1647
54.500000, 90.281, -130.7225
55.200001, 90.277, -131.1819
56.000000, 90.247, -131.4476
57.000000, 90.219, -131.1701
58.000000, 90.224, -130.5383
59.000000, 90.284, -129.2722
60.000000, 90.539, -128.5217
60.799999, 90.695, -129.2079
61.500000, 90.700, -129.8555
62.200001, 90.681, -130.0204
63.000000, 90.706, -130.0281
64.000000, 90.759, -130.0396
65.000000, 90.886, -129.9053
66.000000, 91.068, -130.1275
67.000000, 91.238, -130.4789
68.000000, 91.422, -130.8036
69.000000, 91.605, -131.3146
70.000000, 91.756, -131.9194
71.000000, 91.896, -132.4863
72.000000, 92.039, -133.1789
73.000000, 92.173, -134.0258
74.000000, 92.293, -135.0573
75.000000, 92.366, -136.0998
76.199997, 92.445, -136.9215
77.500000, 92.572, -137.7801
78.800003, 92.682, -138.7191
80.000000, 92.772, -139.6137
81.199997, 92.843, -140.5411
82.500000, 92.913, -141.5283
83.800003, 92.983, -142.5845
85.000000, 93.037, -143.6031
86.199997, 93.079, -144.6076
87.500000, 93.110, -145.6243
88.500000, 93.129, -146.3651
90.000000, 93.141, -147.4646
91.199997, 93.141, -148.2555
92.500000, 93.144, -149.0750
93.800003, 93.150, -149.9073
95.000000, 93.144, -150.7251
96.199997, 93.122, -151.4226
97.500000, 93.110, -152.0767
98.800003, 93.096, -152.7962
100.000000, 93.066, -153.4051
101.500000, 93.030, -153.9613
103.000000, 92.996, -154.4440
104.400002, 92.969, -154.8215
106.000000, 92.933, -155.2627
107.500000, 92.906, -155.5979
109.000000, 92.910, -155.9307
110.599998, 92.939, -156.4271
112.000000, 92.957, -156.8257
113.800003, 92.984, -157.1291
115.000000, 93.000, -157.4156
117.199997, 92.961, -158.2680
118.000000, 92.931, -158.5992
120.599998, 92.891, -159.8965
122.000000, 92.851, -160.8657
124.099998, 92.779, -161.1815
125.000000, 92.776, -161.1607
126.500000, 92.762, -161.0752
128.000000, 92.742, -160.8928
131.500000, 92.763, -160.9513
132.000000, 92.774, -161.0494
134.000000, 92.818, -161.5988
136.000000, 92.833, -162.1714
138.000000, 92.823, -162.6957
140.000000, 92.794, -163.2481
143.000000, 92.735, -164.0013
145.000000, 92.673, -164.1296
147.500000, 92.614, -164.1631
150.000000, 92.539, -164.7411
152.500000, 92.458, -165.1701
155.000000, 92.435, -165.3424
157.500000, 92.413, -165.1830
160.000000, 92.381, -165.0355
162.500000, 92.358, -165.0091
165.000000, 92.367, -165.1097
167.500000, 92.383, -165.2818
170.000000, 92.388, -165.4375
172.500000, 92.373, -165.6530
175.000000, 92.347, -165.8171
177.500000, 92.320, -165.9458
180.000000, 92.293, -165.9846
182.500000, 92.279, -166.0922
185.000000, 92.244, -166.2897
187.500000, 92.204, -166.3286
190.000000, 92.177, -166.2887
192.500000, 92.161, -166.2420
195.000000, 92.155, -166.2284
197.500000, 92.155, -166.2554
200.000000, 92.159, -166.2834
203.000000, 92.169, -166.3168
206.000000, 92.180, -166.4147
209.000000, 92.191, -166.6272
212.000000, 92.192, -167.0232
214.000000, 92.181, -167.3842
218.000000, 92.120, -168.1389
220.000000, 92.075, -168.3434
224.000000, 91.969, -168.4862
227.000000, 91.873, -168.5181
230.000000, 91.775, -168.4153
233.000000, 91.686, -168.1114
236.000000, 91.613, -167.6812
240.000000, 91.550, -167.1137
243.000000, 91.528, -166.6547
247.000000, 91.522, -166.0413
250.000000, 91.525, -165.6710
254.000000, 91.535, -165.3251
258.000000, 91.548, -165.0562
262.000000, 91.559, -164.8512
265.000000, 91.559, -164.6961
269.000000, 91.560, -164.4619
272.000000, 91.563, -164.2804
276.000000, 91.571, -164.0843
280.000000, 91.579, -163.9035
285.000000, 91.582, -163.6523
290.000000, 91.588, -163.4097
295.000000, 91.592, -163.1915
300.000000, 91.594, -163.0405
304.000000, 91.591, -162.8016
307.000000, 91.591, -162.5471
311.000000, 91.594, -162.2034
315.000000, 91.608, -161.8783
320.000000, 91.638, -161.5769
325.000000, 91.671, -161.3508
330.000000, 91.694, -161.1965
335.000000, 91.708, -161.0417
340.000000, 91.719, -160.8582
345.000000, 91.731, -160.7080
350.000000, 91.730, -160.5417
355.000000, 91.720, -160.3357
360.000000, 91.713, -160.0629
365.000000, 91.719, -159.7519
370.000000, 91.736, -159.4601
375.000000, 91.749, -159.2254
382.000000, 91.761, -158.9221
387.000000, 91.767, -158.7191
395.000000, 91.762, -158.3778
400.000000, 91.754, -158.0989
406.000000, 91.748, -157.6872
412.000000, 91.754, -157.2203
418.000000, 91.774, -156.7318
425.000000, 91.810, -156.2774
431.000000, 91.840, -155.9646
437.000000, 91.865, -155.6796
444.000000, 91.891, -155.3477
450.000000, 91.914, -155.0824
455.000000, 91.936, -154.8506
462.000000, 91.974, -154.6242
468.000000, 91.992, -154.6535
475.000000, 91.922, -154.6846
482.000000, 91.866, -153.5958
487.000000, 91.912, -152.8451
494.000000, 92.003, -152.3162
500.000000, 92.062, -152.0528
508.000000, 92.126, -151.7515
515.000000, 92.176, -151.4783
522.000000, 92.218, -151.2001
530.000000, 92.257, -150.9330
538.000000, 92.293, -150.6356
545.000000, 92.326, -150.3792
552.000000, 92.353, -150.1539
560.000000, 92.381, -149.9051
570.000000, 92.416, -149.5044
580.000000, 92.452, -148.9997
590.000000, 92.498, -148.4477
600.000000, 92.555, -147.9976
608.000000, 92.596, -147.6742
615.000000, 92.631, -147.3708
622.000000, 92.669, -147.0947
630.000000, 92.714, -146.8184
640.000000, 92.763, -146.4874
650.000000, 92.808, -146.1555
660.000000, 92.856, -145.8829
670.000000, 92.890, -145.6666
680.000000, 92.912, -145.3967
690.000000, 92.933, -145.0124
700.000000, 92.953, -144.5604
710.000000, 92.983, -144.0778
720.000000, 93.026, -143.5853
730.000000, 93.075, -143.1074
740.000000, 93.126, -142.6665
750.000000, 93.181, -142.2651
762.000000, 93.250, -141.7665
775.000000, 93.327, -141.2906
788.000000, 93.401, -140.9546
800.000000, 93.460, -140.6890
812.000000, 93.510, -140.3805
825.000000, 93.567, -139.9695
838.000000, 93.633, -139.6180
850.000000, 93.688, -139.3790
862.000000, 93.728, -139.0920
875.000000, 93.777, -138.6977
885.000000, 93.816, -138.4396
900.000000, 93.873, -138.0488
912.000000, 93.928, -137.7564
925.000000, 93.980, -137.6293
938.000000, 94.018, -137.4223
950.000000, 94.053, -137.1703
962.000000, 94.081, -136.9676
975.000000, 94.099, -136.6497
988.000000, 94.111, -136.2807
1000.000000, 94.124, -135.8182
1015.000000, 94.180, -135.1687
1030.000000, 94.251, -134.7986
1044.000000, 94.292, -134.6460
1060.000000, 94.309, -134.3639
1075.000000, 94.319, -133.8501
1090.000000, 94.347, -133.0569
1106.000000, 94.447, -132.2052
1120.000000, 94.563, -131.7305
1138.000000, 94.708, -131.4301
1150.000000, 94.787, -131.3199
1172.000000, 94.909, -131.0689
1180.000000, 94.953, -130.9541
1206.000000, 95.113, -130.6416
1220.000000, 95.193, -130.5746
1241.000000, 95.323, -130.5085
1250.000000, 95.386, -130.5289
1265.000000, 95.483, -130.7534
1280.000000, 95.554, -131.1327
1315.000000, 95.568, -132.1184
1320.000000, 95.555, -132.1891
1340.000000, 95.482, -132.3204
1360.000000, 95.369, -132.1730
1380.000000, 95.239, -131.7093
1400.000000, 95.127, -130.5925
1430.000000, 95.138, -128.2360
1450.000000, 95.273, -126.9945
1475.000000, 95.432, -126.3869
1500.000000, 95.530, -125.8758
1525.000000, 95.620, -124.8589
1550.000000, 95.889, -123.9551
1575.000000, 96.171, -125.0587
1600.000000, 96.136, -127.2332
1625.000000, 95.822, -128.0288
1650.000000, 95.559, -126.8577
1675.000000, 95.438, -125.6778
1700.000000, 95.228, -124.5822
1725.000000, 95.063, -121.7626
1750.000000, 95.150, -118.6721
1775.000000, 95.412, -116.2965
1800.000000, 95.755, -115.1880
1825.000000, 96.045, -115.4162
1850.000000, 96.126, -116.4188
1875.000000, 96.051, -116.5769
1900.000000, 95.992, -116.2402
1925.000000, 95.862, -115.8344
1950.000000, 95.702, -114.3001
1975.000000, 95.681, -112.0630
2000.000000, 95.761, -110.3908
2030.000000, 95.815, -108.4331
2060.000000, 95.991, -105.8585
2090.000000, 96.340, -103.9575
2120.000000, 96.687, -103.8466
2140.000000, 96.801, -104.2274
2180.000000, 96.874, -104.3612
2200.000000, 96.882, -104.5581
2240.000000, 96.565, -105.0533
2270.000000, 96.056, -102.3015
2300.000000, 95.896, -95.7473
2330.000000, 96.299, -89.5218
2360.000000, 97.101, -84.1888
2400.000000, 98.744, -82.0959
2430.000000, 99.579, -86.3820
2470.000000, 99.672, -91.9558
2500.000000, 99.524, -93.2031
2540.000000, 99.403, -93.0745
2580.000000, 99.476, -91.0578
2620.000000, 99.937, -89.0787
2650.000000, 100.428, -89.4418
2690.000000, 100.739, -92.3902
2720.000000, 100.632, -93.5521
2760.000000, 100.653, -91.8307
2800.000000, 101.130, -91.1479
2850.000000, 101.572, -93.5141
2900.000000, 101.720, -96.0119
2950.000000, 101.698, -97.6078
3000.000000, 101.824, -98.1207
3040.000000, 102.001, -99.8727
3070.000000, 101.998, -101.8260
3110.000000, 101.771, -103.9225
3150.000000, 101.463, -104.4522
3200.000000, 101.250, -104.0372
3250.000000, 101.121, -104.1231
3300.000000, 100.950, -103.7318
3350.000000, 100.967, -103.1847
3400.000000, 100.928, -104.8959
3450.000000, 100.461, -106.1688
3500.000000, 99.906, -104.7571
3550.000000, 99.552, -101.7093
3600.000000, 99.447, -98.6520
3650.000000, 99.411, -96.4665
3700.000000, 99.318, -94.4257
3750.000000, 99.184, -91.4742
3820.000000, 99.357, -85.4125
3870.000000, 99.846, -82.4218
3950.000000, 100.415, -82.1639
4000.000000, 100.501, -81.7990
4060.000000, 100.590, -80.2612
4120.000000, 100.883, -78.1583
4180.000000, 101.268, -77.9103
4250.000000, 101.415, -78.7010
4310.000000, 101.374, -78.4239
4370.000000, 101.340, -77.3934
4440.000000, 101.230, -75.8307
4500.000000, 101.128, -72.3134
4550.000000, 101.358, -68.0258
4620.000000, 102.249, -63.4739
4680.000000, 103.235, -63.2185
4750.000000, 104.062, -66.6573
4820.000000, 104.412, -71.3826
4870.000000, 104.386, -74.5978
4940.000000, 104.052, -77.6240
5000.000000, 103.635, -78.2725
5080.000000, 103.167, -76.2472
5150.000000, 103.080, -72.6152
5220.000000, 103.365, -69.2584
5300.000000, 103.917, -67.1582
5380.000000, 104.554, -66.6391
5450.000000, 105.104, -67.6883
5520.000000, 105.534, -69.8976
5600.000000, 105.799, -73.1008
5700.000000, 105.790, -76.4197
5800.000000, 105.672, -77.5642
5900.000000, 105.775, -76.8704
6000.000000, 106.359, -76.2072
6080.000000, 107.138, -77.8014
6150.000000, 107.838, -81.7023
6220.000000, 108.364, -87.8126
6300.000000, 108.602, -96.5021
6400.000000, 108.261, -108.3359
6500.000000, 107.169, -119.0647
6600.000000, 105.488, -126.1297
6700.000000, 103.637, -128.4772
6800.000000, 102.036, -127.4238
6900.000000, 100.764, -125.5677
7000.000000, 99.600, -123.3873
7100.000000, 98.456, -120.0758
7200.000000, 97.388, -115.0028
7300.000000, 96.593, -108.0110
7400.000000, 96.239, -100.7874
7500.000000, 96.244, -95.2299
7620.000000, 96.366, -91.6975
7750.000000, 96.389, -89.8299
7880.000000, 96.276, -90.0167
8000.000000, 95.778, -92.6635
8120.000000, 94.610, -95.7670
8250.000000, 92.544, -96.4562
8380.000000, 89.693, -91.5929
8500.000000, 86.940, -68.3095
8620.000000, 88.178, -11.5345
8750.000000, 92.828, 6.0419
8850.000000, 95.527, 0.8030
9000.000000, 97.495, -14.6794
9120.000000, 97.576, -26.5616
9250.000000, 96.771, -35.2136
9380.000000, 95.577, -39.1721
9500.000000, 94.358, -39.5725
9620.000000, 93.114, -36.9049
9750.000000, 91.904, -30.8521
9880.000000, 90.950, -22.2574
10000.000000, 90.382, -12.1790
10150.000000, 90.320, 2.7424
10300.000000, 91.273, 17.5674
10440.000000, 92.975, 27.1737
10600.000000, 95.069, 29.2656
10750.000000, 96.285, 24.8536
10900.000000, 96.621, 19.8547
11060.000000, 96.514, 17.4927
11200.000000, 96.416, 17.4989
11380.000000, 96.378, 18.4802
11500.000000, 96.376, 19.7321
11720.000000, 96.719, 23.6953
11800.000000, 97.051, 24.9760
12060.000000, 98.527, 23.4069
12200.000000, 99.175, 18.7316
12410.000000, 99.591, 8.3880
12500.000000, 99.536, 3.2513
12650.000000, 99.140, -5.7244
12800.000000, 98.354, -15.0536
13150.000000, 94.477, -33.5595
13200.000000, 93.686, -34.9024
13400.000000, 90.210, -35.5172
