* Measurement data measured by REW V5.31
* Source: Headset (DS by VECLAN.COM), MICROPHONE (Master Volume), L, volume: 0.960. Timing signal peak level -7.5 dBFS, measurement signal peak level -7.5 dBFS
* Format: 4M Log Swept Sine, 1 sweep at -12.0 dBFS using an acoustic timing reference
* Dated: Apr 13, 2024 9:28:58 PM
* REW Settings:
*  C-weighting compensation: Off
*  Target level: 85.0 dB
* Note: ; Delay -0.0277 ms (-9.5 mm, -0.37 in) using estimated IR delay relative to Acoustic reference played from HEADPHONE R with no timing offset
* Measurement: Philips SHP9500 R2
* Smoothing: 1/24 octave
* Frequency Step: 1/48 octave
* Start Frequency: 1.000 Hz
*
* Freq(Hz), SPL(dB), Phase(degrees)
1.000000, 59.997, 32.3089
1.015000, 60.015, 32.3587
1.030000, 60.034, 32.3661
1.044000, 60.053, 32.3323
1.060000, 60.077, 32.2429
1.075000, 60.102, 32.1074
1.090000, 60.128, 31.9206
1.106000, 60.159, 31.6717
1.120000, 60.189, 31.4268
1.138000, 60.231, 31.0857
1.150000, 60.262, 30.8427
1.172000, 60.324, 30.3567
1.180000, 60.348, 30.1621
1.206000, 60.430, 29.4860
1.220000, 60.476, 29.0926
1.241000, 60.548, 28.4618
1.250000, 60.579, 28.1757
1.265000, 60.632, 27.6769
1.280000, 60.685, 27.1496
1.315000, 60.810, 25.8007
1.320000, 60.827, 25.5938
1.340000, 60.897, 24.7280
1.360000, 60.965, 23.8004
1.380000, 61.030, 22.7686
1.400000, 61.092, 21.6526
1.430000, 61.176, 19.8419
1.450000, 61.226, 18.5407
1.475000, 61.279, 16.8214
1.500000, 61.319, 15.0457
1.525000, 61.347, 13.2471
1.550000, 61.366, 11.4400
1.575000, 61.377, 9.6122
1.600000, 61.385, 7.7531
1.625000, 61.390, 5.9063
1.650000, 61.397, 4.0739
1.675000, 61.407, 2.2567
1.700000, 61.423, 0.4539
1.725000, 61.448, -1.3361
1.750000, 61.484, -3.1156
1.775000, 61.534, -4.9044
1.800000, 61.600, -6.7214
1.825000, 61.685, -8.5315
1.850000, 61.789, -10.3187
1.875000, 61.911, -12.0546
1.900000, 62.049, -13.7252
1.925000, 62.200, -15.3261
1.950000, 62.363, -16.8566
1.975000, 62.536, -18.3352
2.000000, 62.716, -19.7814
2.030000, 62.940, -21.4360
2.060000, 63.169, -23.0128
2.090000, 63.400, -24.5221
2.120000, 63.629, -25.9739
2.140000, 63.779, -26.9150
2.180000, 64.069, -28.7655
2.200000, 64.209, -29.6861
2.240000, 64.486, -31.4646
2.270000, 64.695, -32.7322
2.300000, 64.906, -33.9399
2.330000, 65.117, -35.0886
2.360000, 65.328, -36.1813
2.400000, 65.607, -37.6049
2.430000, 65.814, -38.6238
2.470000, 66.085, -39.9176
2.500000, 66.283, -40.8459
2.540000, 66.539, -42.0375
2.580000, 66.786, -43.2047
2.620000, 67.026, -44.3704
2.650000, 67.201, -45.2151
2.690000, 67.429, -46.2988
2.720000, 67.597, -47.0777
2.760000, 67.815, -48.0684
2.800000, 68.026, -49.0468
2.850000, 68.282, -50.2053
2.900000, 68.528, -51.2915
2.950000, 68.765, -52.3204
3.000000, 68.990, -53.3448
3.040000, 69.162, -54.1500
3.070000, 69.288, -54.7353
3.110000, 69.450, -55.4872
3.150000, 69.606, -56.2033
3.200000, 69.795, -57.0748
3.250000, 69.978, -57.8982
3.300000, 70.154, -58.6629
3.350000, 70.324, -59.3865
3.400000, 70.485, -60.1151
3.450000, 70.639, -60.8250
3.500000, 70.786, -61.4950
3.550000, 70.929, -62.1183
3.600000, 71.067, -62.7166
3.650000, 71.201, -63.2731
3.700000, 71.331, -63.7846
3.750000, 71.456, -64.2637
3.820000, 71.622, -64.9206
3.870000, 71.736, -65.3594
3.950000, 71.914, -65.9879
4.000000, 72.023, -66.3532
4.060000, 72.154, -66.7538
4.120000, 72.281, -67.1085
4.180000, 72.406, -67.4320
4.250000, 72.548, -67.8001
4.310000, 72.670, -68.0810
4.370000, 72.791, -68.3365
4.440000, 72.933, -68.6301
4.500000, 73.055, -68.8495
4.550000, 73.155, -69.0123
4.620000, 73.296, -69.2467
4.680000, 73.417, -69.4413
4.750000, 73.558, -69.6588
4.820000, 73.701, -69.8861
4.870000, 73.803, -70.0420
4.940000, 73.947, -70.2479
5.000000, 74.070, -70.4350
5.080000, 74.233, -70.7006
5.150000, 74.375, -70.9394
5.220000, 74.515, -71.2023
5.300000, 74.675, -71.5099
5.380000, 74.832, -71.8225
5.450000, 74.967, -72.1205
5.520000, 75.099, -72.4236
5.600000, 75.247, -72.7880
5.700000, 75.427, -73.2662
5.800000, 75.602, -73.7494
5.900000, 75.768, -74.2483
6.000000, 75.928, -74.7563
6.080000, 76.051, -75.1746
6.150000, 76.155, -75.5277
6.220000, 76.256, -75.8834
6.300000, 76.367, -76.2800
6.400000, 76.501, -76.7680
6.500000, 76.630, -77.2481
6.600000, 76.754, -77.6994
6.700000, 76.875, -78.1335
6.800000, 76.991, -78.5449
6.900000, 77.106, -78.9410
7.000000, 77.220, -79.3095
7.100000, 77.333, -79.6595
7.200000, 77.446, -79.9904
7.300000, 77.558, -80.3156
7.400000, 77.672, -80.6288
7.500000, 77.786, -80.9397
7.620000, 77.923, -81.3071
7.750000, 78.073, -81.7107
7.880000, 78.223, -82.1261
8.000000, 78.361, -82.5158
8.120000, 78.498, -82.9259
8.250000, 78.643, -83.3893
8.380000, 78.785, -83.8641
8.500000, 78.911, -84.3183
8.620000, 79.033, -84.7811
8.750000, 79.159, -85.2815
8.850000, 79.252, -85.6622
9.000000, 79.384, -86.2207
9.120000, 79.484, -86.6510
9.250000, 79.587, -87.0935
9.380000, 79.686, -87.5078
9.500000, 79.774, -87.8649
9.620000, 79.861, -88.1873
9.750000, 79.952, -88.5037
9.880000, 80.037, -88.7943
10.000000, 80.106, -89.0315
10.150000, 80.185, -89.3322
10.300000, 80.258, -89.6034
10.440000, 80.325, -89.8345
10.600000, 80.401, -90.0843
10.750000, 80.475, -90.3143
10.900000, 80.551, -90.5419
11.060000, 80.633, -90.8129
11.200000, 80.706, -91.0899
11.380000, 80.794, -91.4385
11.500000, 80.850, -91.6637
11.720000, 80.947, -92.0489
11.800000, 80.981, -92.1766
12.060000, 81.093, -92.5652
12.200000, 81.156, -92.7817
12.410000, 81.253, -93.0653
12.500000, 81.296, -93.1745
12.650000, 81.367, -93.3430
12.800000, 81.439, -93.5026
13.150000, 81.614, -93.9266
13.200000, 81.640, -93.9996
13.400000, 81.743, -94.2994
13.600000, 81.845, -94.6068
13.800000, 81.942, -94.9145
14.000000, 82.035, -95.2124
14.300000, 82.168, -95.6887
14.500000, 82.254, -95.9627
14.750000, 82.362, -96.2571
15.000000, 82.478, -96.5194
15.250000, 82.607, -96.8359
15.500000, 82.741, -97.1809
15.750000, 82.874, -97.5645
16.000000, 82.999, -97.9822
16.250000, 83.113, -98.4504
16.500000, 83.217, -98.8885
16.750000, 83.312, -99.2597
17.000000, 83.406, -99.5490
17.250000, 83.505, -99.7883
17.500000, 83.613, -99.9751
17.750000, 83.731, -100.1462
18.000000, 83.856, -100.3419
18.250000, 83.985, -100.6086
18.500000, 84.111, -100.9305
18.750000, 84.229, -101.2890
19.000000, 84.337, -101.6573
19.250000, 84.435, -102.0270
19.500000, 84.525, -102.3490
19.750000, 84.611, -102.6112
20.000000, 84.697, -102.8184
20.299999, 84.804, -103.0509
20.600000, 84.917, -103.2713
20.900000, 85.034, -103.5140
21.200001, 85.147, -103.8125
21.400000, 85.219, -104.0341
21.799999, 85.351, -104.4834
22.000000, 85.411, -104.6967
22.400000, 85.528, -105.1077
22.700001, 85.616, -105.3777
23.000000, 85.707, -105.6371
23.299999, 85.803, -105.9268
23.600000, 85.899, -106.2382
24.000000, 86.026, -106.6704
24.299999, 86.119, -107.0016
24.700001, 86.248, -107.4116
25.000000, 86.353, -107.7160
25.400000, 86.505, -108.2116
25.799999, 86.656, -108.8412
26.200001, 86.784, -109.5741
26.500000, 86.859, -110.1034
26.900000, 86.939, -110.6412
27.200001, 87.000, -110.8935
27.600000, 87.105, -111.1095
28.000000, 87.235, -111.3663
28.500000, 87.389, -111.9102
29.000000, 87.481, -112.4237
29.500000, 87.537, -112.4415
30.000000, 87.662, -111.9634
30.400000, 87.847, -111.6991
30.700001, 88.013, -111.8195
31.100000, 88.212, -112.4706
31.500000, 88.336, -113.4663
32.000000, 88.376, -114.5738
32.500000, 88.367, -115.1091
33.000000, 88.404, -115.2207
33.500000, 88.497, -115.4126
34.000000, 88.594, -115.8577
34.500000, 88.664, -116.3605
35.000000, 88.733, -116.7225
35.500000, 88.831, -117.0314
36.000000, 88.953, -117.4695
36.500000, 89.073, -118.0808
37.000000, 89.177, -118.7579
37.500000, 89.274, -119.4297
38.200001, 89.404, -120.3829
38.700001, 89.483, -121.0958
39.500000, 89.577, -122.1731
40.000000, 89.621, -122.7563
40.599998, 89.662, -123.3720
41.200001, 89.694, -123.8668
41.799999, 89.728, -124.2389
42.500000, 89.783, -124.6371
43.099998, 89.833, -125.0654
43.700001, 89.865, -125.5532
44.400002, 89.873, -126.0088
45.000000, 89.874, -126.1882
45.500000, 89.886, -126.2182
46.200001, 89.925, -126.2010
46.799999, 89.966, -126.1724
47.500000, 90.018, -126.0387
48.200001, 90.090, -125.7549
48.700001, 90.161, -125.5221
49.400002, 90.282, -125.2467
50.000000, 90.395, -125.0722
50.799999, 90.555, -124.9012
51.500000, 90.703, -124.7980
52.200001, 90.861, -124.7334
53.000000, 91.060, -124.7353
53.799999, 91.275, -124.9122
54.500000, 91.465, -125.2414
55.200001, 91.649, -125.7079
56.000000, 91.844, -126.3480
57.000000, 92.068, -127.2182
58.000000, 92.276, -128.0916
59.000000, 92.486, -128.9620
60.000000, 92.703, -130.0134
60.799999, 92.856, -131.0255
61.500000, 92.969, -131.9429
62.200001, 93.072, -132.8411
63.000000, 93.181, -133.8601
64.000000, 93.307, -135.1479
65.000000, 93.421, -136.4496
66.000000, 93.524, -137.7485
67.000000, 93.614, -139.0397
68.000000, 93.692, -140.3118
69.000000, 93.759, -141.5642
70.000000, 93.815, -142.7855
71.000000, 93.864, -143.9978
72.000000, 93.900, -145.2224
73.000000, 93.921, -146.3879
74.000000, 93.937, -147.4875
75.000000, 93.949, -148.5581
76.199997, 93.954, -149.8012
77.500000, 93.956, -151.0827
78.800003, 93.954, -152.3513
80.000000, 93.944, -153.5216
81.199997, 93.924, -154.6739
82.500000, 93.889, -155.8831
83.800003, 93.839, -157.0534
85.000000, 93.775, -158.0760
86.199997, 93.694, -158.9868
87.500000, 93.590, -159.7929
88.500000, 93.506, -160.2221
90.000000, 93.403, -160.5798
91.199997, 93.349, -160.7326
92.500000, 93.321, -160.8774
93.800003, 93.313, -161.0931
95.000000, 93.313, -161.3648
96.199997, 93.312, -161.6814
97.500000, 93.316, -162.0494
98.800003, 93.321, -162.4818
100.000000, 93.325, -162.9240
101.500000, 93.322, -163.5108
103.000000, 93.311, -164.0798
104.400002, 93.299, -164.5975
106.000000, 93.282, -165.1889
107.500000, 93.260, -165.7392
109.000000, 93.233, -166.2659
110.599998, 93.203, -166.7953
112.000000, 93.176, -167.2558
113.800003, 93.136, -167.8538
115.000000, 93.107, -168.2409
117.199997, 93.055, -168.9309
118.000000, 93.036, -169.1905
120.599998, 92.955, -169.9993
122.000000, 92.903, -170.3509
124.099998, 92.824, -170.8027
125.000000, 92.789, -170.9802
126.500000, 92.732, -171.2144
128.000000, 92.679, -171.3743
131.500000, 92.583, -171.5142
132.000000, 92.571, -171.5347
134.000000, 92.516, -171.6426
136.000000, 92.459, -171.7686
138.000000, 92.412, -171.8435
140.000000, 92.379, -171.8465
143.000000, 92.351, -171.7756
145.000000, 92.336, -171.7684
147.500000, 92.328, -171.8265
150.000000, 92.325, -171.9685
152.500000, 92.310, -172.1087
155.000000, 92.291, -172.1873
157.500000, 92.269, -172.3064
160.000000, 92.246, -172.4242
162.500000, 92.221, -172.4733
165.000000, 92.204, -172.4586
167.500000, 92.186, -172.4716
170.000000, 92.164, -172.4531
172.500000, 92.149, -172.3917
175.000000, 92.140, -172.3463
177.500000, 92.135, -172.3483
180.000000, 92.132, -172.4033
182.500000, 92.132, -172.4353
185.000000, 92.153, -172.4067
187.500000, 92.190, -172.4748
190.000000, 92.228, -172.6174
192.500000, 92.250, -172.7802
195.000000, 92.261, -172.8822
197.500000, 92.280, -173.0883
200.000000, 92.300, -173.4250
203.000000, 92.313, -173.8954
206.000000, 92.308, -174.3963
209.000000, 92.292, -174.9842
212.000000, 92.245, -175.5974
214.000000, 92.194, -175.9465
218.000000, 92.074, -176.5418
220.000000, 92.008, -176.7505
224.000000, 91.863, -176.9346
227.000000, 91.752, -176.8694
230.000000, 91.656, -176.6006
233.000000, 91.581, -176.2321
236.000000, 91.531, -175.9433
240.000000, 91.486, -175.6753
243.000000, 91.448, -175.3686
247.000000, 91.414, -174.9727
250.000000, 91.404, -174.7512
254.000000, 91.390, -174.4576
258.000000, 91.369, -174.2047
262.000000, 91.343, -174.0548
265.000000, 91.324, -173.9020
269.000000, 91.308, -173.6271
272.000000, 91.295, -173.4567
276.000000, 91.274, -173.3610
280.000000, 91.252, -173.2762
285.000000, 91.222, -172.9576
290.000000, 91.196, -172.5218
295.000000, 91.180, -172.1647
300.000000, 91.164, -171.8306
304.000000, 91.157, -171.5320
307.000000, 91.154, -171.2687
311.000000, 91.156, -170.8607
315.000000, 91.165, -170.4535
320.000000, 91.188, -170.0152
325.000000, 91.218, -169.5865
330.000000, 91.249, -169.2782
335.000000, 91.279, -169.1015
340.000000, 91.300, -168.9205
345.000000, 91.312, -168.7237
350.000000, 91.326, -168.4433
355.000000, 91.339, -168.1498
360.000000, 91.355, -167.8091
365.000000, 91.379, -167.5207
370.000000, 91.413, -167.3327
375.000000, 91.436, -167.1878
382.000000, 91.456, -166.9641
387.000000, 91.474, -166.8104
395.000000, 91.497, -166.6044
400.000000, 91.510, -166.4717
406.000000, 91.527, -166.3067
412.000000, 91.545, -166.1709
418.000000, 91.555, -166.0053
425.000000, 91.550, -165.8168
431.000000, 91.553, -165.5719
437.000000, 91.562, -165.3685
444.000000, 91.561, -165.1247
450.000000, 91.552, -164.8244
455.000000, 91.552, -164.4838
462.000000, 91.571, -164.0337
468.000000, 91.593, -163.6793
475.000000, 91.626, -163.2655
482.000000, 91.661, -162.9152
487.000000, 91.687, -162.6751
494.000000, 91.730, -162.3144
500.000000, 91.771, -162.0782
508.000000, 91.829, -161.7706
515.000000, 91.885, -161.5473
522.000000, 91.948, -161.4967
530.000000, 91.977, -161.8013
538.000000, 91.899, -161.6632
545.000000, 91.890, -160.6972
552.000000, 91.966, -160.0583
560.000000, 92.057, -159.8155
570.000000, 92.129, -159.6416
580.000000, 92.189, -159.3523
590.000000, 92.252, -159.0912
600.000000, 92.306, -158.8755
608.000000, 92.342, -158.6079
615.000000, 92.378, -158.3737
622.000000, 92.414, -158.1642
630.000000, 92.458, -157.9354
640.000000, 92.515, -157.6550
650.000000, 92.570, -157.3888
660.000000, 92.627, -157.1325
670.000000, 92.686, -156.8604
680.000000, 92.747, -156.5905
690.000000, 92.811, -156.3639
700.000000, 92.880, -156.1479
710.000000, 92.954, -156.0210
720.000000, 93.024, -155.8798
730.000000, 93.099, -155.7686
740.000000, 93.170, -155.7188
750.000000, 93.228, -155.6840
762.000000, 93.285, -155.6782
775.000000, 93.332, -155.5794
788.000000, 93.396, -155.3858
800.000000, 93.450, -155.3540
812.000000, 93.491, -155.2300
825.000000, 93.541, -154.9919
838.000000, 93.615, -154.6933
850.000000, 93.706, -154.6007
862.000000, 93.772, -154.6619
875.000000, 93.827, -154.6559
885.000000, 93.871, -154.5815
900.000000, 93.957, -154.5572
912.000000, 94.020, -154.6605
925.000000, 94.071, -154.7957
938.000000, 94.103, -154.9230
950.000000, 94.132, -154.8547
962.000000, 94.176, -154.8136
975.000000, 94.218, -154.9391
988.000000, 94.238, -155.0257
1000.000000, 94.256, -155.0556
1015.000000, 94.264, -155.0097
1030.000000, 94.261, -154.6750
1044.000000, 94.310, -154.1273
1060.000000, 94.430, -153.8059
1075.000000, 94.524, -153.9727
1090.000000, 94.558, -154.0612
1106.000000, 94.650, -153.6936
1120.000000, 94.776, -153.6682
1138.000000, 94.938, -154.1531
1150.000000, 94.994, -154.7590
1172.000000, 94.972, -155.3602
1180.000000, 94.968, -155.2765
1206.000000, 95.050, -155.0831
1220.000000, 95.089, -155.0704
1241.000000, 95.186, -154.7067
1250.000000, 95.253, -154.5940
1265.000000, 95.399, -154.5781
1280.000000, 95.546, -155.1647
1315.000000, 95.565, -156.5053
1320.000000, 95.566, -156.5336
1340.000000, 95.576, -156.7991
1360.000000, 95.525, -156.7257
1380.000000, 95.529, -155.9793
1400.000000, 95.692, -155.4156
1430.000000, 95.974, -156.2056
1450.000000, 96.019, -157.2699
1475.000000, 96.000, -157.7339
1500.000000, 96.040, -157.8488
1525.000000, 96.095, -158.3005
1550.000000, 96.078, -158.6587
1575.000000, 96.104, -158.3019
1600.000000, 96.252, -158.4319
1625.000000, 96.306, -159.3165
1650.000000, 96.334, -159.7026
1675.000000, 96.376, -160.5426
1700.000000, 96.343, -161.2481
1725.000000, 96.324, -161.8448
1750.000000, 96.253, -162.5008
1775.000000, 96.174, -162.8489
1800.000000, 96.062, -163.1295
1825.000000, 95.967, -162.6938
1850.000000, 95.991, -162.2317
1875.000000, 96.064, -162.4509
1900.000000, 96.083, -163.4080
1925.000000, 95.931, -164.4497
1950.000000, 95.674, -164.5056
1975.000000, 95.444, -163.1139
2000.000000, 95.514, -160.6593
2030.000000, 95.904, -160.2051
2060.000000, 96.118, -162.5012
2090.000000, 95.935, -165.0931
2120.000000, 95.502, -165.6801
2140.000000, 95.279, -164.7453
2180.000000, 95.267, -162.9205
2200.000000, 95.304, -163.2603
2240.000000, 95.122, -165.0981
2270.000000, 94.596, -165.9663
2300.000000, 93.948, -162.6998
2330.000000, 93.886, -156.7633
2360.000000, 94.356, -153.5124
2400.000000, 94.818, -154.6847
2430.000000, 94.665, -155.6144
2470.000000, 94.470, -153.0219
2500.000000, 94.717, -150.7117
2540.000000, 95.054, -151.3139
2580.000000, 95.011, -152.1297
2620.000000, 94.874, -151.5266
2650.000000, 94.826, -150.1446
2690.000000, 95.040, -148.0753
2720.000000, 95.289, -148.1494
2760.000000, 95.379, -149.5228
2800.000000, 95.223, -149.9703
2850.000000, 95.185, -148.5089
2900.000000, 95.293, -148.9445
2950.000000, 95.101, -149.8002
3000.000000, 94.797, -149.0296
3040.000000, 94.619, -148.0201
3070.000000, 94.466, -147.1901
3110.000000, 94.254, -145.5264
3150.000000, 94.090, -143.3232
3200.000000, 93.927, -140.3744
3250.000000, 93.814, -136.2449
3300.000000, 93.987, -131.3031
3350.000000, 94.370, -127.7441
3400.000000, 94.745, -124.8809
3450.000000, 95.275, -122.0177
3500.000000, 95.894, -121.2287
3550.000000, 96.231, -121.7280
3600.000000, 96.419, -120.9313
3650.000000, 96.718, -119.9441
3700.000000, 96.898, -119.6173
3750.000000, 96.959, -117.9374
3820.000000, 97.387, -113.2819
3870.000000, 97.975, -110.7880
3950.000000, 98.948, -108.5659
4000.000000, 99.726, -107.4294
4060.000000, 100.642, -108.6086
4120.000000, 101.343, -110.4992
4180.000000, 102.094, -112.4415
4250.000000, 102.771, -116.9395
4310.000000, 103.055, -120.3892
4370.000000, 103.313, -123.0920
4440.000000, 103.520, -125.9912
4500.000000, 103.766, -127.4234
4550.000000, 104.117, -129.1272
4620.000000, 104.508, -133.3250
4680.000000, 104.652, -137.0582
4750.000000, 104.727, -141.4057
4820.000000, 104.600, -145.8062
4870.000000, 104.389, -148.2788
4940.000000, 104.033, -150.6160
5000.000000, 103.707, -151.5709
5080.000000, 103.355, -151.0824
5150.000000, 103.273, -149.3818
5220.000000, 103.487, -147.5074
5300.000000, 104.045, -146.4680
5380.000000, 104.814, -147.5514
5450.000000, 105.480, -150.7550
5520.000000, 105.971, -155.7129
5600.000000, 106.174, -162.3841
5700.000000, 105.939, -169.5062
5800.000000, 105.625, -174.0153
5900.000000, 105.563, -178.1102
6000.000000, 105.507, 175.8814
6080.000000, 105.231, 170.2565
6150.000000, 104.766, 165.6196
6220.000000, 104.138, 161.9436
6300.000000, 103.366, 159.3003
6400.000000, 102.473, 157.3382
6500.000000, 101.611, 156.3383
6600.000000, 100.823, 156.7865
6700.000000, 100.244, 157.7235
6800.000000, 99.740, 158.3134
6900.000000, 99.299, 159.5959
7000.000000, 99.067, 160.8270
7100.000000, 98.875, 160.9379
7200.000000, 98.560, 160.8096
7300.000000, 98.160, 161.5332
7400.000000, 97.777, 163.4801
7500.000000, 97.587, 166.9499
7620.000000, 97.884, 171.1798
7750.000000, 98.677, 172.7328
7880.000000, 99.478, 170.1128
8000.000000, 99.896, 164.2917
8120.000000, 99.775, 156.9375
8250.000000, 98.977, 150.4244
8380.000000, 97.948, 148.5560
8500.000000, 97.462, 148.9831
8620.000000, 97.217, 147.2349
8750.000000, 96.774, 144.9567
8850.000000, 96.511, 143.2566
9000.000000, 96.088, 138.8036
9120.000000, 95.544, 134.3760
9250.000000, 94.741, 129.4443
9380.000000, 93.725, 124.8582
9500.000000, 92.639, 121.1754
9620.000000, 91.472, 118.0392
9750.000000, 90.171, 114.5617
9880.000000, 88.797, 109.6634
10000.000000, 87.265, 102.7248
10150.000000, 84.500, 89.7133
10300.000000, 80.575, 66.6934
10440.000000, 78.594, -36.6763
10600.000000, 81.489, -95.2776
10750.000000, 84.377, -109.5906
10900.000000, 86.475, -118.7140
11060.000000, 88.125, -127.2774
11200.000000, 89.093, -135.1180
11380.000000, 89.655, -145.0391
11500.000000, 89.703, -150.4734
11720.000000, 89.725, -157.4714
11800.000000, 89.836, -159.8528
12060.000000, 90.551, -172.0687
12200.000000, 90.899, 176.3096
12410.000000, 90.683, 150.1893
12500.000000, 90.175, 135.5260
12650.000000, 88.688, 104.9094
12800.000000, 86.534, 60.6384
13150.000000, 83.340, -66.4014
13200.000000, 83.288, -75.4409
