* Measurement data measured by REW V5.31.3
* Source: Headset (DS by VECLAN.COM), MICROPHONE (Master Volume), L, volume: 0.720. Timing signal peak level -8.0 dBFS, measurement signal peak level -8.0 dBFS
* Format: 2M Log Swept Sine, 1 sweep at -23.7 dBFS using an acoustic timing reference
* Dated: Oct 15, 2024 1:59:22 PM
* REW Settings:
*  C-weighting compensation: Off
*  Target level: 85.0 dB
* Note: ; Fosi DS1 Delay -0.0183 ms (-6.3 mm, -0.25 in) using estimated IR delay relative to Acoustic reference played from SPEAKER R with no timing offset Clock adjustment: -26.2 ppm
* Measurement: Philips SHP9500 R4
* Smoothing: 1/24 octave
* Frequency Step: 1/48 octave
* Start Frequency: 1.000 Hz
*
* Freq(Hz), SPL(dB), Phase(degrees)
1.000000, 54.315, -56.8941
1.015000, 54.389, -56.7641
1.030000, 54.463, -56.5935
1.044000, 54.530, -56.3961
1.060000, 54.605, -56.1238
1.075000, 54.674, -55.8217
1.090000, 54.742, -55.4739
1.106000, 54.812, -55.0577
1.120000, 54.871, -54.6660
1.138000, 54.942, -54.1330
1.150000, 54.987, -53.7603
1.172000, 55.065, -53.0456
1.180000, 55.092, -52.7788
1.206000, 55.175, -51.8692
1.220000, 55.217, -51.3529
1.241000, 55.278, -50.5437
1.250000, 55.303, -50.1843
1.265000, 55.344, -49.5686
1.280000, 55.384, -48.9322
1.315000, 55.475, -47.3700
1.320000, 55.488, -47.1383
1.340000, 55.540, -46.1913
1.360000, 55.592, -45.2124
1.380000, 55.646, -44.2427
1.400000, 55.701, -43.2623
1.430000, 55.789, -41.7525
1.450000, 55.852, -40.7247
1.475000, 55.933, -39.4093
1.500000, 56.012, -38.0339
1.525000, 56.088, -36.5996
1.550000, 56.161, -35.1272
1.575000, 56.233, -33.6554
1.600000, 56.306, -32.2182
1.625000, 56.380, -30.8042
1.650000, 56.458, -29.4310
1.675000, 56.540, -28.1143
1.700000, 56.629, -26.8677
1.725000, 56.726, -25.7026
1.750000, 56.831, -24.6279
1.775000, 56.947, -23.6646
1.800000, 57.076, -22.8295
1.825000, 57.218, -22.0862
1.850000, 57.374, -21.3904
1.875000, 57.546, -20.6893
1.900000, 57.731, -19.9802
1.925000, 57.928, -19.2799
1.950000, 58.136, -18.6054
1.975000, 58.351, -17.9818
2.000000, 58.573, -17.4313
2.030000, 58.846, -16.8515
2.060000, 59.122, -16.3729
2.090000, 59.398, -16.0048
2.120000, 59.672, -15.7537
2.140000, 59.852, -15.6533
2.180000, 60.201, -15.6296
2.200000, 60.370, -15.7012
2.240000, 60.704, -15.8863
2.270000, 60.954, -16.0256
2.300000, 61.205, -16.1688
2.330000, 61.455, -16.3256
2.360000, 61.704, -16.5057
2.400000, 62.033, -16.8334
2.430000, 62.276, -17.1307
2.470000, 62.594, -17.6001
2.500000, 62.828, -18.0136
2.540000, 63.130, -18.6528
2.580000, 63.424, -19.3942
2.620000, 63.709, -20.2035
2.650000, 63.918, -20.8157
2.690000, 64.191, -21.6342
2.720000, 64.392, -22.2497
2.760000, 64.652, -23.0734
2.800000, 64.906, -23.9428
2.850000, 65.212, -25.0576
2.900000, 65.507, -26.2108
2.950000, 65.789, -27.4156
3.000000, 66.060, -28.6931
3.040000, 66.267, -29.7393
3.070000, 66.418, -30.5233
3.110000, 66.613, -31.5599
3.150000, 66.801, -32.5808
3.200000, 67.025, -33.8591
3.250000, 67.239, -35.1210
3.300000, 67.442, -36.3651
3.350000, 67.634, -37.6242
3.400000, 67.814, -38.9319
3.450000, 67.984, -40.2477
3.500000, 68.142, -41.5341
3.550000, 68.291, -42.7691
3.600000, 68.431, -43.9645
3.650000, 68.562, -45.1028
3.700000, 68.683, -46.2036
3.750000, 68.794, -47.3040
3.820000, 68.932, -48.8554
3.870000, 69.020, -49.9238
3.950000, 69.147, -51.4881
4.000000, 69.217, -52.3720
4.060000, 69.293, -53.3362
4.120000, 69.356, -54.2360
4.180000, 69.409, -55.0877
4.250000, 69.460, -56.0095
4.310000, 69.500, -56.6787
4.370000, 69.539, -57.2131
4.440000, 69.583, -57.6894
4.500000, 69.615, -57.9786
4.550000, 69.639, -58.1462
4.620000, 69.675, -58.2953
4.680000, 69.712, -58.3256
4.750000, 69.770, -58.2323
4.820000, 69.842, -58.0083
4.870000, 69.900, -57.7620
4.940000, 69.991, -57.3213
5.000000, 70.081, -56.9034
5.080000, 70.221, -56.3288
5.150000, 70.367, -55.8114
5.220000, 70.536, -55.2697
5.300000, 70.753, -54.6219
5.380000, 70.989, -54.0135
5.450000, 71.206, -53.5867
5.520000, 71.432, -53.2511
5.600000, 71.706, -52.9500
5.700000, 72.064, -52.6903
5.800000, 72.426, -52.5966
5.900000, 72.779, -52.7123
6.000000, 73.128, -52.9868
6.080000, 73.403, -53.2971
6.150000, 73.635, -53.6121
6.220000, 73.858, -53.9846
6.300000, 74.100, -54.4666
6.400000, 74.386, -55.1412
6.500000, 74.654, -55.8563
6.600000, 74.906, -56.5660
6.700000, 75.139, -57.2902
6.800000, 75.356, -58.0141
6.900000, 75.560, -58.7150
7.000000, 75.753, -59.3603
7.100000, 75.934, -59.9693
7.200000, 76.107, -60.5422
7.300000, 76.275, -61.0845
7.400000, 76.443, -61.5823
7.500000, 76.609, -62.0496
7.620000, 76.806, -62.5932
7.750000, 77.019, -63.1877
7.880000, 77.231, -63.7962
8.000000, 77.422, -64.3788
8.120000, 77.608, -65.0142
8.250000, 77.801, -65.7536
8.380000, 77.982, -66.5227
8.500000, 78.132, -67.2660
8.620000, 78.267, -68.0326
8.750000, 78.395, -68.8427
8.850000, 78.479, -69.4357
9.000000, 78.582, -70.2714
9.120000, 78.650, -70.8571
9.250000, 78.711, -71.3716
9.380000, 78.761, -71.7647
9.500000, 78.807, -72.0214
9.620000, 78.857, -72.1538
9.750000, 78.916, -72.1826
9.880000, 78.984, -72.1353
10.000000, 79.054, -72.0331
10.150000, 79.154, -71.9050
10.300000, 79.271, -71.8313
10.440000, 79.395, -71.8392
10.600000, 79.546, -71.9811
10.750000, 79.690, -72.2830
10.900000, 79.830, -72.7221
11.060000, 79.962, -73.3445
11.200000, 80.059, -74.0190
11.380000, 80.153, -74.9035
11.500000, 80.193, -75.4632
11.720000, 80.232, -76.2996
11.800000, 80.240, -76.5223
12.060000, 80.257, -76.9763
12.200000, 80.280, -77.0529
12.410000, 80.344, -76.9387
12.500000, 80.388, -76.8426
12.650000, 80.483, -76.6516
12.800000, 80.605, -76.4985
13.150000, 80.971, -76.6311
13.200000, 81.028, -76.7281
13.400000, 81.256, -77.2978
13.600000, 81.467, -78.1104
13.800000, 81.644, -79.1012
14.000000, 81.782, -80.1513
14.300000, 81.919, -81.6926
14.500000, 81.974, -82.5217
14.750000, 82.030, -83.2654
15.000000, 82.096, -83.7012
15.250000, 82.199, -83.9838
15.500000, 82.338, -84.2116
15.750000, 82.501, -84.4977
16.000000, 82.672, -84.9049
16.250000, 82.834, -85.4532
16.500000, 82.980, -86.0357
16.750000, 83.111, -86.5756
17.000000, 83.237, -87.0347
17.250000, 83.369, -87.4528
17.500000, 83.512, -87.8504
17.750000, 83.665, -88.2981
18.000000, 83.818, -88.8503
18.250000, 83.959, -89.5462
18.500000, 84.075, -90.3133
18.750000, 84.160, -91.0652
19.000000, 84.216, -91.7103
19.250000, 84.255, -92.1962
19.500000, 84.293, -92.4653
19.750000, 84.344, -92.5416
20.000000, 84.422, -92.5042
20.299999, 84.555, -92.4925
20.600000, 84.718, -92.6302
20.900000, 84.890, -92.9977
21.200001, 85.046, -93.5970
21.400000, 85.134, -94.0776
21.799999, 85.262, -95.0665
22.000000, 85.306, -95.5129
22.400000, 85.370, -96.2280
22.700001, 85.410, -96.5518
23.000000, 85.459, -96.7069
23.299999, 85.523, -96.7500
23.600000, 85.610, -96.7265
24.000000, 85.758, -96.7001
24.299999, 85.888, -96.7638
24.700001, 86.071, -96.9718
25.000000, 86.206, -97.1972
25.400000, 86.377, -97.5412
25.799999, 86.547, -97.8549
26.200001, 86.727, -98.1696
26.500000, 86.872, -98.4629
26.900000, 87.068, -98.9903
27.200001, 87.206, -99.5052
27.600000, 87.360, -100.2753
28.000000, 87.477, -100.9939
28.500000, 87.596, -101.6611
29.000000, 87.730, -102.0610
29.500000, 87.897, -102.4485
30.000000, 88.073, -103.0323
30.400000, 88.197, -103.6444
30.700001, 88.275, -104.1179
31.100000, 88.365, -104.7089
31.500000, 88.452, -105.2451
32.000000, 88.563, -105.8900
32.500000, 88.669, -106.5831
33.000000, 88.760, -107.2855
33.500000, 88.837, -107.9290
34.000000, 88.918, -108.4653
34.500000, 89.011, -108.9553
35.000000, 89.109, -109.4632
35.500000, 89.202, -109.9853
36.000000, 89.292, -110.4649
36.500000, 89.388, -110.9126
37.000000, 89.487, -111.3763
37.500000, 89.580, -111.8913
38.200001, 89.687, -112.5839
38.700001, 89.754, -112.9821
39.500000, 89.866, -113.4651
40.000000, 89.943, -113.7194
40.599998, 90.040, -114.0196
41.200001, 90.147, -114.3131
41.799999, 90.262, -114.6539
42.500000, 90.396, -115.1340
43.099998, 90.507, -115.5816
43.700001, 90.614, -116.0393
44.400002, 90.724, -116.5661
45.000000, 90.806, -116.8846
45.500000, 90.883, -116.9943
46.200001, 91.030, -117.0811
46.799999, 91.183, -117.3099
47.500000, 91.354, -117.7625
48.200001, 91.509, -118.2452
48.700001, 91.622, -118.5802
49.400002, 91.790, -119.1327
50.000000, 91.931, -119.7342
50.799999, 92.102, -120.6550
51.500000, 92.239, -121.5243
52.200001, 92.367, -122.4383
53.000000, 92.498, -123.4698
53.799999, 92.619, -124.4546
54.500000, 92.729, -125.2889
55.200001, 92.835, -126.1754
56.000000, 92.936, -127.1927
57.000000, 93.047, -128.3162
58.000000, 93.148, -129.4707
59.000000, 93.226, -130.4371
60.000000, 93.344, -131.3135
60.799999, 93.446, -132.3284
61.500000, 93.510, -133.2808
62.200001, 93.563, -134.1702
63.000000, 93.626, -135.1571
64.000000, 93.701, -136.3102
65.000000, 93.777, -137.5024
66.000000, 93.838, -138.7162
67.000000, 93.878, -139.7554
68.000000, 93.920, -140.7086
69.000000, 93.966, -141.6567
70.000000, 94.008, -142.6414
71.000000, 94.039, -143.6934
72.000000, 94.059, -144.7163
73.000000, 94.079, -145.6854
74.000000, 94.095, -146.6558
75.000000, 94.108, -147.5951
76.199997, 94.121, -148.7052
77.500000, 94.127, -149.8681
78.800003, 94.127, -151.0153
80.000000, 94.117, -152.1298
81.199997, 94.094, -153.2532
82.500000, 94.046, -154.4467
83.800003, 93.971, -155.4839
85.000000, 93.886, -156.2421
86.199997, 93.798, -156.7773
87.500000, 93.723, -157.0978
88.500000, 93.684, -157.3339
90.000000, 93.638, -157.6913
91.199997, 93.620, -157.9542
92.500000, 93.625, -158.2194
93.800003, 93.640, -158.6164
95.000000, 93.650, -159.0746
96.199997, 93.656, -159.5495
97.500000, 93.650, -160.0613
98.800003, 93.637, -160.5480
100.000000, 93.625, -160.9927
101.500000, 93.608, -161.5751
103.000000, 93.591, -162.1119
104.400002, 93.580, -162.6144
106.000000, 93.566, -163.2044
107.500000, 93.549, -163.7363
109.000000, 93.527, -164.2440
110.599998, 93.489, -164.8155
112.000000, 93.444, -165.2482
113.800003, 93.391, -165.6975
115.000000, 93.367, -166.0179
117.199997, 93.329, -166.6217
118.000000, 93.317, -166.7748
120.599998, 93.285, -167.1304
122.000000, 93.275, -167.3493
124.099998, 93.211, -167.9922
125.000000, 93.169, -168.1951
126.500000, 93.110, -168.4077
128.000000, 93.065, -168.6495
131.500000, 92.985, -169.0481
132.000000, 92.975, -169.0892
134.000000, 92.942, -169.2797
136.000000, 92.914, -169.5501
138.000000, 92.890, -169.8574
140.000000, 92.867, -170.1467
143.000000, 92.830, -170.4614
145.000000, 92.805, -170.6598
147.500000, 92.761, -170.9078
150.000000, 92.716, -171.0952
152.500000, 92.675, -171.3078
155.000000, 92.641, -171.5241
157.500000, 92.598, -171.7016
160.000000, 92.549, -171.8062
162.500000, 92.502, -171.9211
165.000000, 92.461, -171.9623
167.500000, 92.425, -171.9735
170.000000, 92.385, -171.9002
172.500000, 92.351, -171.8314
175.000000, 92.322, -171.8314
177.500000, 92.290, -171.7924
180.000000, 92.263, -171.7359
182.500000, 92.239, -171.6833
185.000000, 92.215, -171.6560
187.500000, 92.197, -171.5768
190.000000, 92.184, -171.5229
192.500000, 92.174, -171.4830
195.000000, 92.166, -171.3728
197.500000, 92.166, -171.2607
200.000000, 92.178, -171.1672
203.000000, 92.203, -171.1594
206.000000, 92.228, -171.3054
209.000000, 92.247, -171.4821
212.000000, 92.268, -171.7034
214.000000, 92.277, -171.8639
218.000000, 92.274, -172.2019
220.000000, 92.261, -172.4563
224.000000, 92.206, -173.0700
227.000000, 92.151, -173.4769
230.000000, 92.082, -173.7507
233.000000, 92.000, -173.8539
236.000000, 91.910, -173.7978
240.000000, 91.792, -173.5637
243.000000, 91.720, -173.3067
247.000000, 91.654, -172.9719
250.000000, 91.616, -172.7211
254.000000, 91.568, -172.2772
258.000000, 91.520, -171.8520
262.000000, 91.481, -171.5052
265.000000, 91.464, -171.2919
269.000000, 91.445, -171.0237
272.000000, 91.432, -170.7797
276.000000, 91.414, -170.5064
280.000000, 91.401, -170.2662
285.000000, 91.376, -169.8149
290.000000, 91.349, -169.3867
295.000000, 91.334, -168.9837
300.000000, 91.329, -168.5039
304.000000, 91.335, -168.2092
307.000000, 91.336, -168.0215
311.000000, 91.326, -167.7656
315.000000, 91.310, -167.5005
320.000000, 91.287, -167.1345
325.000000, 91.269, -166.6110
330.000000, 91.261, -166.0191
335.000000, 91.278, -165.2860
340.000000, 91.323, -164.7191
345.000000, 91.374, -164.3958
350.000000, 91.407, -164.1081
355.000000, 91.417, -163.9051
360.000000, 91.424, -163.7319
365.000000, 91.439, -163.3869
370.000000, 91.461, -162.9756
375.000000, 91.492, -162.5605
382.000000, 91.531, -162.1512
387.000000, 91.547, -161.9022
395.000000, 91.577, -161.3797
400.000000, 91.604, -161.1051
406.000000, 91.638, -160.8926
412.000000, 91.663, -160.6037
418.000000, 91.697, -160.2874
425.000000, 91.727, -160.1218
431.000000, 91.735, -160.0231
437.000000, 91.736, -159.8287
444.000000, 91.731, -159.4340
450.000000, 91.741, -158.9811
455.000000, 91.762, -158.5987
462.000000, 91.807, -158.1373
468.000000, 91.843, -157.8632
475.000000, 91.879, -157.5414
482.000000, 91.915, -157.1701
487.000000, 91.949, -156.9633
494.000000, 92.002, -156.6810
500.000000, 92.047, -156.5392
508.000000, 92.073, -156.6683
515.000000, 92.013, -156.7532
522.000000, 91.945, -155.9048
530.000000, 91.996, -154.9275
538.000000, 92.099, -154.3347
545.000000, 92.176, -153.9604
552.000000, 92.242, -153.7473
560.000000, 92.296, -153.5610
570.000000, 92.345, -153.1583
580.000000, 92.404, -152.7192
590.000000, 92.469, -152.4336
600.000000, 92.523, -152.1079
608.000000, 92.567, -151.8078
615.000000, 92.608, -151.5792
622.000000, 92.645, -151.3646
630.000000, 92.685, -151.1438
640.000000, 92.737, -150.9175
650.000000, 92.789, -150.7111
660.000000, 92.836, -150.4384
670.000000, 92.869, -150.1156
680.000000, 92.901, -149.8062
690.000000, 92.936, -149.3935
700.000000, 92.988, -148.9884
710.000000, 93.043, -148.8338
720.000000, 93.087, -148.7115
730.000000, 93.137, -148.4257
740.000000, 93.200, -148.0997
750.000000, 93.253, -147.8803
762.000000, 93.294, -147.5569
775.000000, 93.336, -147.2469
788.000000, 93.379, -146.8753
800.000000, 93.444, -146.4139
812.000000, 93.529, -146.1739
825.000000, 93.598, -146.0080
838.000000, 93.637, -145.7749
850.000000, 93.672, -145.5687
862.000000, 93.722, -145.3053
875.000000, 93.812, -145.0956
885.000000, 93.877, -144.9755
900.000000, 93.949, -144.9744
912.000000, 93.981, -145.0334
925.000000, 93.997, -145.0449
938.000000, 94.007, -144.8965
950.000000, 94.021, -144.6751
962.000000, 94.047, -144.4259
975.000000, 94.093, -144.2232
988.000000, 94.120, -144.1814
1000.000000, 94.101, -144.0862
1015.000000, 94.073, -143.7807
1030.000000, 94.069, -143.2734
1044.000000, 94.101, -142.8645
1060.000000, 94.103, -142.6259
1075.000000, 94.105, -141.8482
1090.000000, 94.200, -141.0876
1106.000000, 94.316, -140.8209
1120.000000, 94.402, -140.7313
1138.000000, 94.473, -140.7898
1150.000000, 94.495, -140.6058
1172.000000, 94.574, -140.1035
1180.000000, 94.607, -139.9961
1206.000000, 94.713, -139.7714
1220.000000, 94.773, -139.6701
1241.000000, 94.851, -139.5273
1250.000000, 94.898, -139.3744
1265.000000, 94.992, -139.3075
1280.000000, 95.044, -139.5712
1315.000000, 95.052, -139.9583
1320.000000, 95.040, -139.9502
1340.000000, 94.995, -139.5641
1360.000000, 94.944, -139.0848
1380.000000, 94.914, -138.6085
1400.000000, 94.863, -137.8726
1430.000000, 95.014, -135.7887
1450.000000, 95.208, -135.6413
1475.000000, 95.305, -136.2342
1500.000000, 95.306, -136.0802
1525.000000, 95.336, -135.8456
1550.000000, 95.345, -135.7234
1575.000000, 95.344, -135.1621
1600.000000, 95.428, -134.8031
1625.000000, 95.437, -135.6710
1650.000000, 95.185, -135.7816
1675.000000, 95.028, -133.3660
1700.000000, 95.186, -131.5432
1725.000000, 95.338, -131.1390
1750.000000, 95.450, -130.6581
1775.000000, 95.559, -131.1380
1800.000000, 95.463, -131.9051
1825.000000, 95.317, -130.9262
1850.000000, 95.408, -129.7595
1875.000000, 95.450, -130.6450
1900.000000, 95.208, -131.3083
1925.000000, 94.914, -130.1162
1950.000000, 94.717, -128.4740
1975.000000, 94.498, -126.7406
2000.000000, 94.340, -123.7250
2030.000000, 94.386, -119.9909
2060.000000, 94.613, -116.2101
2090.000000, 95.103, -113.6729
2120.000000, 95.522, -113.2276
2140.000000, 95.716, -113.4815
2180.000000, 95.800, -113.7357
2200.000000, 95.844, -113.1309
2240.000000, 95.947, -112.8398
2270.000000, 95.818, -112.4162
2300.000000, 95.690, -110.3627
2330.000000, 95.686, -107.4764
2360.000000, 95.880, -103.9189
2400.000000, 96.529, -100.8795
2430.000000, 96.950, -100.7974
2470.000000, 97.296, -100.8376
2500.000000, 97.466, -100.8236
2540.000000, 97.646, -99.8622
2580.000000, 97.956, -98.3096
2620.000000, 98.414, -97.2818
2650.000000, 98.780, -97.6377
2690.000000, 99.077, -98.8944
2720.000000, 99.239, -99.4322
2760.000000, 99.487, -100.0314
2800.000000, 99.713, -101.2310
2850.000000, 99.808, -103.1650
2900.000000, 99.686, -104.4912
2950.000000, 99.517, -103.7950
3000.000000, 99.642, -102.0880
3040.000000, 99.861, -102.1115
3070.000000, 99.944, -102.6698
3110.000000, 99.951, -103.3887
3150.000000, 99.856, -103.8181
3200.000000, 99.656, -103.2411
3250.000000, 99.513, -101.4797
3300.000000, 99.493, -99.0072
3350.000000, 99.636, -96.2695
3400.000000, 99.986, -93.6232
3450.000000, 100.499, -92.5761
3500.000000, 100.928, -93.1284
3550.000000, 101.215, -94.1659
3600.000000, 101.415, -95.5956
3650.000000, 101.394, -97.3931
3700.000000, 101.165, -97.8965
3750.000000, 100.969, -96.7670
3820.000000, 100.772, -94.6005
3870.000000, 100.654, -91.3531
3950.000000, 101.087, -84.1925
4000.000000, 101.771, -81.0842
4060.000000, 102.603, -80.3922
4120.000000, 103.262, -80.7340
4180.000000, 103.959, -81.3846
4250.000000, 104.685, -84.5353
4310.000000, 104.948, -88.1111
4370.000000, 104.941, -90.5592
4440.000000, 104.963, -90.9598
4500.000000, 105.264, -91.0574
4550.000000, 105.579, -92.3570
4620.000000, 105.888, -95.3292
4680.000000, 106.005, -98.2359
4750.000000, 105.989, -101.6373
4820.000000, 105.785, -104.7375
4870.000000, 105.536, -106.3536
4940.000000, 105.124, -107.4842
5000.000000, 104.760, -107.4493
5080.000000, 104.345, -105.7825
5150.000000, 104.162, -103.0410
5220.000000, 104.251, -99.7539
5300.000000, 104.677, -96.8712
5380.000000, 105.310, -95.6090
5450.000000, 105.928, -96.3562
5520.000000, 106.419, -98.7984
5600.000000, 106.687, -102.3707
5700.000000, 106.724, -105.4264
5800.000000, 106.892, -106.7915
5900.000000, 107.329, -108.6434
6000.000000, 107.900, -112.5458
6080.000000, 108.303, -117.5141
6150.000000, 108.516, -123.1437
6220.000000, 108.515, -129.6672
6300.000000, 108.169, -137.5034
6400.000000, 107.203, -146.0764
6500.000000, 105.857, -151.5578
6600.000000, 104.492, -153.8980
6700.000000, 103.267, -154.7979
6800.000000, 102.060, -154.6403
6900.000000, 100.925, -152.7691
7000.000000, 99.990, -149.9998
7100.000000, 99.157, -146.9343
7200.000000, 98.367, -142.9673
7300.000000, 97.701, -137.7923
7400.000000, 97.264, -131.5526
7500.000000, 97.171, -125.0307
7620.000000, 97.484, -118.6884
7750.000000, 98.151, -114.4134
7880.000000, 98.896, -113.9319
8000.000000, 99.357, -117.2742
8120.000000, 99.254, -123.2656
8250.000000, 98.245, -128.6892
8380.000000, 96.746, -128.4271
8500.000000, 95.674, -124.1254
8620.000000, 94.924, -119.4256
8750.000000, 94.406, -112.0997
8850.000000, 94.570, -106.8661
9000.000000, 95.104, -105.7417
9120.000000, 95.080, -108.8083
9250.000000, 94.404, -112.3192
9380.000000, 93.237, -113.3484
9500.000000, 92.022, -111.2993
9620.000000, 90.924, -107.1733
9750.000000, 89.906, -102.0525
9880.000000, 88.856, -96.6331
10000.000000, 87.723, -89.4025
10150.000000, 86.542, -73.2778
10300.000000, 86.727, -51.8268
10440.000000, 88.187, -36.5418
10600.000000, 90.227, -28.3287
10750.000000, 91.877, -26.1637
10900.000000, 93.245, -26.3465
11060.000000, 94.539, -28.1989
11200.000000, 95.563, -31.4827
11380.000000, 96.594, -38.5507
11500.000000, 96.953, -44.7429
11720.000000, 96.789, -56.1856
11800.000000, 96.538, -59.6514
12060.000000, 95.584, -68.4023
12200.000000, 95.120, -73.0733
12410.000000, 94.250, -82.3210
12500.000000, 93.687, -87.0536
12650.000000, 92.399, -95.4543
12800.000000, 90.632, -104.3318
