* Measurement data measured by REW V5.31
* Source: Headset (DS by VECLAN.COM), MICROPHONE (Master Volume), L, volume: 0.960. Timing signal peak level -5.4 dBFS, measurement signal peak level -5.4 dBFS
* Format: 4M Log Swept Sine, 1 sweep at -12.0 dBFS using an acoustic timing reference
* Dated: Apr 13, 2024 9:24:00 PM
* REW Settings:
*  C-weighting compensation: Off
*  Target level: 85.0 dB
* Note: ; Delay -0.0260 ms (-8.9 mm, -0.35 in) using estimated IR delay relative to Acoustic reference played from HEADPHONE L with no timing offset
* Measurement: Philips SHP9500 L4
* Smoothing: 1/24 octave
* Frequency Step: 1/48 octave
* Start Frequency: 1.000 Hz
*
* Freq(Hz), SPL(dB), Phase(degrees)
1.000000, 59.891, -0.9592
1.015000, 59.924, -1.0935
1.030000, 59.959, -1.2286
1.044000, 59.994, -1.3552
1.060000, 60.035, -1.4999
1.075000, 60.075, -1.6350
1.090000, 60.117, -1.7687
1.106000, 60.164, -1.9063
1.120000, 60.210, -2.0177
1.138000, 60.275, -2.1464
1.150000, 60.322, -2.2240
1.172000, 60.414, -2.3586
1.180000, 60.449, -2.4105
1.206000, 60.569, -2.5686
1.220000, 60.636, -2.6493
1.241000, 60.738, -2.7674
1.250000, 60.782, -2.8178
1.265000, 60.856, -2.9022
1.280000, 60.930, -2.9883
1.315000, 61.098, -3.2019
1.320000, 61.121, -3.2343
1.340000, 61.211, -3.3704
1.360000, 61.296, -3.5167
1.380000, 61.374, -3.7138
1.400000, 61.444, -3.9397
1.430000, 61.532, -4.3076
1.450000, 61.577, -4.5724
1.475000, 61.616, -4.9137
1.500000, 61.633, -5.2364
1.525000, 61.632, -5.5302
1.550000, 61.614, -5.8003
1.575000, 61.583, -6.0750
1.600000, 61.541, -6.3782
1.625000, 61.494, -6.6765
1.650000, 61.442, -6.9755
1.675000, 61.390, -7.2801
1.700000, 61.341, -7.5946
1.725000, 61.297, -7.9227
1.750000, 61.263, -8.2675
1.775000, 61.241, -8.6486
1.800000, 61.234, -9.0838
1.825000, 61.244, -9.5359
1.850000, 61.271, -9.9862
1.875000, 61.310, -10.4099
1.900000, 61.359, -10.8033
1.925000, 61.417, -11.1722
1.950000, 61.482, -11.5231
1.975000, 61.555, -11.8792
2.000000, 61.633, -12.2625
2.030000, 61.735, -12.7216
2.060000, 61.843, -13.1895
2.090000, 61.955, -13.6735
2.120000, 62.072, -14.1802
2.140000, 62.150, -14.5332
2.180000, 62.310, -15.2991
2.200000, 62.390, -15.7158
2.240000, 62.557, -16.5334
2.270000, 62.689, -17.1144
2.300000, 62.827, -17.6706
2.330000, 62.969, -18.2088
2.360000, 63.116, -18.7363
2.400000, 63.316, -19.4817
2.430000, 63.468, -20.0507
2.470000, 63.672, -20.8238
2.500000, 63.825, -21.4208
2.540000, 64.027, -22.2458
2.580000, 64.227, -23.1141
2.620000, 64.429, -24.0104
2.650000, 64.582, -24.6649
2.690000, 64.788, -25.5161
2.720000, 64.943, -26.1415
2.760000, 65.149, -26.9618
2.800000, 65.355, -27.8148
2.850000, 65.608, -28.8881
2.900000, 65.856, -29.9749
2.950000, 66.098, -31.0792
3.000000, 66.336, -32.2136
3.040000, 66.524, -33.1199
3.070000, 66.663, -33.7896
3.110000, 66.846, -34.6686
3.150000, 67.027, -35.5319
3.200000, 67.248, -36.6220
3.250000, 67.463, -37.7099
3.300000, 67.672, -38.7885
3.350000, 67.876, -39.8642
3.400000, 68.074, -40.9671
3.450000, 68.266, -42.0669
3.500000, 68.453, -43.1405
3.550000, 68.634, -44.1811
3.600000, 68.810, -45.2128
3.650000, 68.980, -46.2227
3.700000, 69.144, -47.2124
3.750000, 69.301, -48.1939
3.820000, 69.512, -49.5790
3.870000, 69.656, -50.5445
3.950000, 69.877, -52.0108
4.000000, 70.010, -52.8923
4.060000, 70.164, -53.9122
4.120000, 70.311, -54.9011
4.180000, 70.451, -55.8682
4.250000, 70.608, -56.9789
4.310000, 70.738, -57.8727
4.370000, 70.864, -58.7092
4.440000, 71.007, -59.6473
4.500000, 71.124, -60.4074
4.550000, 71.219, -61.0120
4.620000, 71.349, -61.8406
4.680000, 71.458, -62.5110
4.750000, 71.586, -63.2339
4.820000, 71.714, -63.9166
4.870000, 71.805, -64.3750
4.940000, 71.931, -64.9762
5.000000, 72.039, -65.4760
5.080000, 72.184, -66.1192
5.150000, 72.313, -66.6486
5.220000, 72.444, -67.1641
5.300000, 72.594, -67.7235
5.380000, 72.745, -68.2629
5.450000, 72.878, -68.7489
5.520000, 73.012, -69.2320
5.600000, 73.167, -69.7858
5.700000, 73.360, -70.4829
5.800000, 73.551, -71.1891
5.900000, 73.737, -71.9327
6.000000, 73.919, -72.7008
6.080000, 74.060, -73.3342
6.150000, 74.179, -73.8819
6.220000, 74.293, -74.4413
6.300000, 74.418, -75.0861
6.400000, 74.564, -75.9025
6.500000, 74.701, -76.7117
6.600000, 74.826, -77.4795
6.700000, 74.939, -78.2267
6.800000, 75.041, -78.9441
6.900000, 75.135, -79.6109
7.000000, 75.222, -80.1985
7.100000, 75.302, -80.7264
7.200000, 75.375, -81.1895
7.300000, 75.448, -81.5826
7.400000, 75.521, -81.8909
7.500000, 75.594, -82.1325
7.620000, 75.686, -82.3442
7.750000, 75.797, -82.4913
7.880000, 75.920, -82.5630
8.000000, 76.046, -82.5995
8.120000, 76.184, -82.6488
8.250000, 76.347, -82.7127
8.380000, 76.520, -82.8235
8.500000, 76.685, -83.0028
8.620000, 76.854, -83.2435
8.750000, 77.036, -83.5788
8.850000, 77.173, -83.8972
9.000000, 77.371, -84.4565
9.120000, 77.519, -84.9563
9.250000, 77.668, -85.5411
9.380000, 77.803, -86.1571
9.500000, 77.916, -86.7275
9.620000, 78.018, -87.2797
9.750000, 78.115, -87.8574
9.880000, 78.195, -88.3935
10.000000, 78.252, -88.8315
10.150000, 78.305, -89.3445
10.300000, 78.349, -89.7625
10.440000, 78.383, -90.0665
10.600000, 78.422, -90.3306
10.750000, 78.465, -90.5083
10.900000, 78.516, -90.6333
11.060000, 78.580, -90.7623
11.200000, 78.643, -90.8964
11.380000, 78.731, -91.0651
11.500000, 78.791, -91.1825
11.720000, 78.905, -91.4114
11.800000, 78.947, -91.5006
12.060000, 79.087, -91.8299
12.200000, 79.164, -92.0546
12.410000, 79.279, -92.3906
12.500000, 79.326, -92.5313
12.650000, 79.402, -92.7603
12.800000, 79.476, -92.9802
13.150000, 79.642, -93.5038
13.200000, 79.666, -93.5834
13.400000, 79.759, -93.8872
13.600000, 79.850, -94.1650
13.800000, 79.939, -94.4145
14.000000, 80.027, -94.6382
14.300000, 80.158, -94.9972
14.500000, 80.245, -95.2049
14.750000, 80.355, -95.4369
15.000000, 80.469, -95.6561
15.250000, 80.590, -95.9342
15.500000, 80.712, -96.2266
15.750000, 80.828, -96.5295
16.000000, 80.936, -96.8332
16.250000, 81.036, -97.1626
16.500000, 81.130, -97.4534
16.750000, 81.220, -97.6887
17.000000, 81.311, -97.8697
17.250000, 81.408, -98.0339
17.500000, 81.510, -98.1741
17.750000, 81.618, -98.3125
18.000000, 81.731, -98.4732
18.250000, 81.845, -98.6909
18.500000, 81.958, -98.9464
18.750000, 82.066, -99.2282
19.000000, 82.169, -99.5227
19.250000, 82.267, -99.8385
19.500000, 82.360, -100.1390
19.750000, 82.449, -100.4185
20.000000, 82.536, -100.6780
20.299999, 82.636, -100.9997
20.600000, 82.731, -101.3021
20.900000, 82.819, -101.5762
21.200001, 82.898, -101.8172
21.400000, 82.946, -101.9392
21.799999, 83.037, -102.0399
22.000000, 83.084, -102.0157
22.400000, 83.196, -101.8777
22.700001, 83.298, -101.7214
23.000000, 83.417, -101.5806
23.299999, 83.547, -101.5166
23.600000, 83.683, -101.5313
24.000000, 83.864, -101.6702
24.299999, 83.996, -101.8672
24.700001, 84.161, -102.2079
25.000000, 84.277, -102.5082
25.400000, 84.416, -102.9683
25.799999, 84.540, -103.4360
26.200001, 84.650, -103.8894
26.500000, 84.728, -104.2209
26.900000, 84.829, -104.6627
27.200001, 84.898, -105.0092
27.600000, 84.975, -105.4521
28.000000, 85.035, -105.7706
28.500000, 85.115, -105.8817
29.000000, 85.256, -105.7902
29.500000, 85.465, -105.9664
30.000000, 85.673, -106.6849
30.400000, 85.779, -107.4852
30.700001, 85.817, -107.9932
31.100000, 85.839, -108.3241
31.500000, 85.883, -108.2227
32.000000, 86.034, -107.8520
32.500000, 86.268, -107.8509
33.000000, 86.491, -108.4258
33.500000, 86.638, -109.2411
34.000000, 86.725, -109.8406
34.500000, 86.805, -110.0908
35.000000, 86.914, -110.1491
35.500000, 87.047, -110.2262
36.000000, 87.191, -110.3985
36.500000, 87.336, -110.6781
37.000000, 87.478, -111.0707
37.500000, 87.609, -111.5835
38.200001, 87.759, -112.4041
38.700001, 87.846, -112.9862
39.500000, 87.963, -113.8525
40.000000, 88.025, -114.3507
40.599998, 88.088, -114.8724
41.200001, 88.145, -115.2312
41.799999, 88.215, -115.4200
42.500000, 88.332, -115.5934
43.099998, 88.450, -115.8820
43.700001, 88.551, -116.2908
44.400002, 88.634, -116.6502
45.000000, 88.707, -116.7023
45.500000, 88.794, -116.6441
46.200001, 88.955, -116.6532
46.799999, 89.108, -116.8431
47.500000, 89.284, -117.2163
48.200001, 89.458, -117.6967
48.700001, 89.579, -118.1036
49.400002, 89.739, -118.7331
50.000000, 89.870, -119.3027
50.799999, 90.036, -120.1325
51.500000, 90.161, -120.9177
52.200001, 90.263, -121.6652
53.000000, 90.364, -122.4030
53.799999, 90.462, -123.0760
54.500000, 90.545, -123.6318
55.200001, 90.630, -124.1657
56.000000, 90.733, -124.8105
57.000000, 90.861, -125.6906
58.000000, 90.992, -126.6203
59.000000, 91.114, -127.6955
60.000000, 91.201, -128.6820
60.799999, 91.275, -129.2461
61.500000, 91.362, -129.7307
62.200001, 91.452, -130.3306
63.000000, 91.534, -131.0984
64.000000, 91.611, -131.9887
65.000000, 91.682, -132.8393
66.000000, 91.744, -133.7139
67.000000, 91.797, -134.5720
68.000000, 91.848, -135.4203
69.000000, 91.896, -136.2671
70.000000, 91.942, -137.0685
71.000000, 91.987, -137.8349
72.000000, 92.031, -138.5696
73.000000, 92.077, -139.2775
74.000000, 92.116, -140.0346
75.000000, 92.137, -140.7836
76.199997, 92.147, -141.5904
77.500000, 92.153, -142.3359
78.800003, 92.168, -142.9511
80.000000, 92.197, -143.4701
81.199997, 92.239, -143.9826
82.500000, 92.296, -144.6073
83.800003, 92.350, -145.3156
85.000000, 92.392, -146.0294
86.199997, 92.425, -146.7589
87.500000, 92.452, -147.5480
88.500000, 92.468, -148.1443
90.000000, 92.481, -149.0298
91.199997, 92.478, -149.6957
92.500000, 92.462, -150.3212
93.800003, 92.443, -150.8256
95.000000, 92.434, -151.2374
96.199997, 92.428, -151.6488
97.500000, 92.425, -152.0547
98.800003, 92.432, -152.4550
100.000000, 92.441, -152.8319
101.500000, 92.453, -153.2859
103.000000, 92.460, -153.7616
104.400002, 92.458, -154.1742
106.000000, 92.456, -154.5742
107.500000, 92.462, -154.9315
109.000000, 92.478, -155.2980
110.599998, 92.503, -155.7388
112.000000, 92.523, -156.1778
113.800003, 92.541, -156.7759
115.000000, 92.548, -157.1973
117.199997, 92.549, -158.0052
118.000000, 92.546, -158.2958
120.599998, 92.525, -159.1260
122.000000, 92.519, -159.4569
124.099998, 92.513, -159.9240
125.000000, 92.510, -160.1231
126.500000, 92.502, -160.4639
128.000000, 92.489, -160.8391
131.500000, 92.441, -161.7107
132.000000, 92.432, -161.8196
134.000000, 92.399, -162.2043
136.000000, 92.361, -162.4928
138.000000, 92.324, -162.6558
140.000000, 92.306, -162.7409
143.000000, 92.319, -162.9862
145.000000, 92.331, -163.2299
147.500000, 92.336, -163.5364
150.000000, 92.336, -163.8400
152.500000, 92.329, -164.2072
155.000000, 92.321, -164.4866
157.500000, 92.314, -164.7698
160.000000, 92.303, -165.0501
162.500000, 92.287, -165.3551
165.000000, 92.266, -165.6370
167.500000, 92.245, -165.8969
170.000000, 92.221, -166.1210
172.500000, 92.195, -166.3014
175.000000, 92.171, -166.4862
177.500000, 92.142, -166.6532
180.000000, 92.111, -166.7510
182.500000, 92.083, -166.8764
185.000000, 92.059, -166.9407
187.500000, 92.044, -166.9158
190.000000, 92.024, -166.8177
192.500000, 92.004, -166.8685
195.000000, 91.973, -167.1278
197.500000, 91.949, -167.2759
200.000000, 91.937, -167.3094
203.000000, 91.913, -167.2531
206.000000, 91.895, -167.1409
209.000000, 91.902, -167.0607
212.000000, 91.927, -166.9744
214.000000, 91.951, -166.9486
218.000000, 91.998, -167.0982
220.000000, 92.017, -167.2492
224.000000, 92.037, -167.7181
227.000000, 92.026, -168.2062
230.000000, 91.984, -168.7128
233.000000, 91.917, -169.1005
236.000000, 91.823, -169.2688
240.000000, 91.700, -169.1808
243.000000, 91.638, -169.0319
247.000000, 91.582, -168.7126
250.000000, 91.549, -168.4063
254.000000, 91.520, -167.9301
258.000000, 91.511, -167.4825
262.000000, 91.511, -167.1523
265.000000, 91.515, -166.9530
269.000000, 91.524, -166.7584
272.000000, 91.527, -166.6269
276.000000, 91.533, -166.4775
280.000000, 91.549, -166.3661
285.000000, 91.568, -166.1524
290.000000, 91.575, -165.9280
295.000000, 91.573, -165.7652
300.000000, 91.583, -165.6025
304.000000, 91.595, -165.4219
307.000000, 91.599, -165.2689
311.000000, 91.597, -165.1593
315.000000, 91.594, -165.0334
320.000000, 91.599, -164.7634
325.000000, 91.617, -164.4314
330.000000, 91.647, -164.1400
335.000000, 91.680, -164.0033
340.000000, 91.700, -163.9271
345.000000, 91.703, -163.8015
350.000000, 91.703, -163.4990
355.000000, 91.717, -163.1491
360.000000, 91.753, -162.8386
365.000000, 91.796, -162.6454
370.000000, 91.833, -162.5258
375.000000, 91.855, -162.4424
382.000000, 91.883, -162.2494
387.000000, 91.911, -162.1091
395.000000, 91.945, -162.0169
400.000000, 91.967, -161.9636
406.000000, 91.990, -161.8740
412.000000, 92.009, -161.8047
418.000000, 92.017, -161.7631
425.000000, 92.026, -161.7180
431.000000, 92.035, -161.5530
437.000000, 92.030, -161.3910
444.000000, 92.011, -161.1736
450.000000, 92.009, -160.8549
455.000000, 92.032, -160.5313
462.000000, 92.091, -160.2471
468.000000, 92.141, -160.2940
475.000000, 92.129, -160.7753
482.000000, 92.003, -160.6045
487.000000, 91.970, -159.7050
494.000000, 92.045, -158.8103
500.000000, 92.121, -158.5336
508.000000, 92.188, -158.3312
515.000000, 92.230, -158.1067
522.000000, 92.275, -157.9020
530.000000, 92.328, -157.7235
538.000000, 92.367, -157.5496
545.000000, 92.396, -157.3942
552.000000, 92.429, -157.2444
560.000000, 92.463, -157.1212
570.000000, 92.490, -156.8590
580.000000, 92.532, -156.5160
590.000000, 92.575, -156.2712
600.000000, 92.607, -155.9691
608.000000, 92.638, -155.6423
615.000000, 92.671, -155.3756
622.000000, 92.705, -155.1404
630.000000, 92.743, -154.8793
640.000000, 92.789, -154.5872
650.000000, 92.832, -154.2723
660.000000, 92.884, -153.9227
670.000000, 92.949, -153.6365
680.000000, 93.008, -153.4569
690.000000, 93.058, -153.2714
700.000000, 93.107, -153.0170
710.000000, 93.162, -152.7708
720.000000, 93.217, -152.5367
730.000000, 93.277, -152.3208
740.000000, 93.338, -152.1860
750.000000, 93.389, -152.0663
762.000000, 93.445, -151.8869
775.000000, 93.503, -151.6904
788.000000, 93.569, -151.4839
800.000000, 93.621, -151.3563
812.000000, 93.672, -151.0503
825.000000, 93.753, -150.7997
838.000000, 93.823, -150.7371
850.000000, 93.877, -150.6822
862.000000, 93.919, -150.6630
875.000000, 93.964, -150.5492
885.000000, 94.002, -150.4628
900.000000, 94.057, -150.3001
912.000000, 94.101, -150.2270
925.000000, 94.140, -150.0304
938.000000, 94.195, -149.8743
950.000000, 94.232, -149.8241
962.000000, 94.264, -149.6424
975.000000, 94.321, -149.4395
988.000000, 94.379, -149.4020
1000.000000, 94.413, -149.4723
1015.000000, 94.411, -149.4018
1030.000000, 94.429, -148.9897
1044.000000, 94.475, -148.5854
1060.000000, 94.543, -148.2204
1075.000000, 94.616, -147.9981
1090.000000, 94.688, -147.8272
1106.000000, 94.779, -147.5462
1120.000000, 94.882, -147.3284
1138.000000, 95.024, -147.2438
1150.000000, 95.130, -147.2625
1172.000000, 95.310, -147.7257
1180.000000, 95.350, -147.9970
1206.000000, 95.420, -148.3366
1220.000000, 95.488, -148.3658
1241.000000, 95.593, -148.6903
1250.000000, 95.633, -148.9105
1265.000000, 95.665, -149.3903
1280.000000, 95.646, -149.6372
1315.000000, 95.761, -148.9725
1320.000000, 95.794, -149.0514
1340.000000, 95.847, -149.6577
1360.000000, 95.793, -149.6808
1380.000000, 95.797, -149.0576
1400.000000, 95.951, -148.7096
1430.000000, 96.074, -149.9640
1450.000000, 96.029, -150.2224
1475.000000, 96.078, -150.0444
1500.000000, 96.064, -150.7391
1525.000000, 95.976, -150.4481
1550.000000, 95.976, -150.0406
1575.000000, 95.940, -149.6351
1600.000000, 95.991, -148.5145
1625.000000, 96.175, -148.1277
1650.000000, 96.292, -148.6046
1675.000000, 96.346, -149.3342
1700.000000, 96.249, -150.1409
1725.000000, 96.126, -149.7585
1750.000000, 96.077, -149.2011
1775.000000, 96.064, -148.6295
1800.000000, 96.072, -148.1729
1825.000000, 96.085, -147.8437
1850.000000, 96.052, -147.6975
1875.000000, 95.986, -146.9503
1900.000000, 96.035, -145.9074
1925.000000, 96.094, -145.6995
1950.000000, 96.083, -145.3024
1975.000000, 96.093, -144.6343
2000.000000, 96.136, -144.0748
2030.000000, 96.131, -143.6379
2060.000000, 96.137, -142.6260
2090.000000, 96.229, -141.9548
2120.000000, 96.224, -141.7132
2140.000000, 96.217, -141.1213
2180.000000, 96.272, -140.4491
2200.000000, 96.223, -140.1992
2240.000000, 96.118, -138.9523
2270.000000, 95.946, -137.8235
2300.000000, 95.779, -134.8368
2330.000000, 95.877, -131.1951
2360.000000, 96.148, -127.8057
2400.000000, 96.775, -124.9191
2430.000000, 97.178, -123.9357
2470.000000, 97.728, -123.3218
2500.000000, 98.017, -123.4005
2540.000000, 98.383, -122.7554
2580.000000, 98.820, -122.3206
2620.000000, 99.319, -122.1346
2650.000000, 99.668, -122.8200
2690.000000, 100.067, -123.5621
2720.000000, 100.368, -124.4569
2760.000000, 100.678, -125.8069
2800.000000, 100.961, -126.9884
2850.000000, 101.313, -128.3754
2900.000000, 101.684, -129.9251
2950.000000, 102.121, -132.0665
3000.000000, 102.463, -135.3613
3040.000000, 102.618, -138.3179
3070.000000, 102.662, -140.5612
3110.000000, 102.643, -143.2186
3150.000000, 102.598, -145.5814
3200.000000, 102.511, -148.4440
3250.000000, 102.337, -151.3997
3300.000000, 102.059, -153.9572
3350.000000, 101.686, -156.0372
3400.000000, 101.268, -157.2782
3450.000000, 100.824, -157.8467
3500.000000, 100.399, -157.5423
3550.000000, 100.033, -156.7471
3600.000000, 99.647, -155.7721
3650.000000, 99.247, -153.4632
3700.000000, 99.026, -149.9225
3750.000000, 99.030, -146.4016
3820.000000, 99.281, -142.1586
3870.000000, 99.585, -139.9337
3950.000000, 100.156, -138.1698
4000.000000, 100.460, -138.1205
4060.000000, 100.697, -138.5314
4120.000000, 100.818, -138.4078
4180.000000, 101.004, -137.3938
4250.000000, 101.457, -136.8717
4310.000000, 101.833, -138.3486
4370.000000, 101.912, -141.1106
4440.000000, 101.477, -142.5969
4500.000000, 101.092, -139.3431
4550.000000, 101.272, -134.6945
4620.000000, 102.157, -131.3388
4680.000000, 102.970, -132.0534
4750.000000, 103.668, -135.4219
4820.000000, 103.993, -139.9262
4870.000000, 104.000, -143.0021
4940.000000, 103.749, -146.1103
5000.000000, 103.410, -146.8541
5080.000000, 103.122, -144.8558
5150.000000, 103.276, -141.7934
5220.000000, 103.802, -139.5987
5300.000000, 104.595, -139.4149
5380.000000, 105.394, -141.2666
5450.000000, 106.031, -144.3115
5520.000000, 106.547, -148.5016
5600.000000, 106.896, -154.2084
5700.000000, 106.901, -161.1499
5800.000000, 106.628, -165.5317
5900.000000, 106.646, -167.2018
6000.000000, 107.224, -170.1698
6080.000000, 107.810, -175.7293
6150.000000, 108.096, 176.9766
6220.000000, 107.982, 168.5981
6300.000000, 107.364, 159.7597
6400.000000, 106.161, 151.3193
6500.000000, 104.745, 145.6334
6600.000000, 103.196, 142.7673
6700.000000, 101.686, 143.2679
6800.000000, 100.512, 146.0957
6900.000000, 99.672, 148.8477
7000.000000, 98.906, 151.6555
7100.000000, 98.201, 155.9680
7200.000000, 97.796, 162.1820
7300.000000, 97.914, 168.4933
7400.000000, 98.408, 172.3878
7500.000000, 98.974, 173.6193
7620.000000, 99.569, 172.9175
7750.000000, 100.150, 170.6251
7880.000000, 100.631, 166.1643
8000.000000, 100.793, 159.2371
8120.000000, 100.326, 150.8622
8250.000000, 99.085, 144.3766
8380.000000, 97.650, 142.5541
8500.000000, 96.623, 143.4177
8620.000000, 95.858, 143.3906
8750.000000, 94.837, 142.5764
8850.000000, 93.882, 143.3012
9000.000000, 92.507, 147.2709
9120.000000, 91.709, 152.1382
9250.000000, 91.179, 156.3295
9380.000000, 90.651, 158.8512
9500.000000, 89.986, 161.1285
9620.000000, 89.230, 164.8937
9750.000000, 88.521, 170.6190
9880.000000, 88.025, 177.0404
10000.000000, 87.729, -176.9783
10150.000000, 87.464, -169.5369
10300.000000, 87.319, -160.9955
10440.000000, 87.513, -151.3533
10600.000000, 88.455, -140.1182
10750.000000, 89.943, -133.1284
10900.000000, 91.596, -130.7739
11060.000000, 93.279, -132.5316
11200.000000, 94.491, -137.1831
11380.000000, 95.499, -145.5924
11500.000000, 95.869, -151.3511
11720.000000, 96.309, -160.9675
11800.000000, 96.475, -164.5534
12060.000000, 96.823, -178.8741
12200.000000, 96.742, 172.2736
12410.000000, 96.385, 158.2742
12500.000000, 96.225, 151.6509
12650.000000, 95.965, 138.5648
12800.000000, 95.468, 121.7575
13150.000000, 91.195, 75.2105
