* Measurement data measured by REW V5.31.3
* Source: Headset (DS by VECLAN.COM), MICROPHONE (Master Volume), L, volume: 0.720. Timing signal peak level -11.9 dBFS, measurement signal peak level -11.9 dBFS
* Format: 2M Log Swept Sine, 1 sweep at -12.0 dBFS using an acoustic timing reference
* Dated: Sep 1, 2024 1:21:00 PM
* REW Settings:
*  C-weighting compensation: Off
*  Target level: 85.0 dB
* Note: ; Delay -0.0659 ms (-23 mm, -0.89 in) using estimated IR delay relative to Acoustic reference played from HEADPHONE L with no timing offset
* Measurement: Sennheiser HD58x L5
* Smoothing: 1/24 octave
* Frequency Step: 1/48 octave
* Start Frequency: 1.000 Hz
*
* Freq(Hz), SPL(dB), Phase(degrees)
1.000000, 61.047, -13.3690
1.015000, 61.274, -13.7385
1.030000, 61.499, -14.1139
1.044000, 61.708, -14.4706
1.060000, 61.945, -14.8870
1.075000, 62.165, -15.2864
1.090000, 62.383, -15.6943
1.106000, 62.614, -16.1315
1.120000, 62.818, -16.5030
1.138000, 63.083, -16.9574
1.150000, 63.262, -17.2462
1.172000, 63.591, -17.7556
1.180000, 63.712, -17.9398
1.206000, 64.103, -18.5133
1.220000, 64.314, -18.8084
1.241000, 64.627, -19.2360
1.250000, 64.760, -19.4144
1.265000, 64.980, -19.7063
1.280000, 65.197, -19.9922
1.315000, 65.689, -20.6418
1.320000, 65.757, -20.7331
1.340000, 66.024, -21.0956
1.360000, 66.281, -21.4539
1.380000, 66.526, -21.8487
1.400000, 66.757, -22.2579
1.430000, 67.076, -22.8737
1.450000, 67.268, -23.2863
1.475000, 67.482, -23.7958
1.500000, 67.666, -24.2751
1.525000, 67.821, -24.7163
1.550000, 67.950, -25.1241
1.575000, 68.057, -25.5254
1.600000, 68.147, -25.9429
1.625000, 68.221, -26.3422
1.650000, 68.285, -26.7277
1.675000, 68.342, -27.1032
1.700000, 68.395, -27.4724
1.725000, 68.447, -27.8383
1.750000, 68.504, -28.2034
1.775000, 68.567, -28.5871
1.800000, 68.641, -29.0074
1.825000, 68.728, -29.4293
1.850000, 68.826, -29.8435
1.875000, 68.928, -30.2364
1.900000, 69.032, -30.6057
1.925000, 69.138, -30.9543
1.950000, 69.245, -31.2853
1.975000, 69.353, -31.6188
2.000000, 69.462, -31.9739
2.030000, 69.594, -32.3880
2.060000, 69.727, -32.7951
2.090000, 69.860, -33.1991
2.120000, 69.993, -33.6035
2.140000, 70.082, -33.8749
2.180000, 70.259, -34.4447
2.200000, 70.347, -34.7499
2.240000, 70.524, -35.3409
2.270000, 70.657, -35.7590
2.300000, 70.791, -36.1575
2.330000, 70.925, -36.5404
2.360000, 71.059, -36.9117
2.400000, 71.239, -37.4426
2.430000, 71.373, -37.8425
2.470000, 71.551, -38.3744
2.500000, 71.685, -38.7759
2.540000, 71.861, -39.3177
2.580000, 72.037, -39.8807
2.620000, 72.212, -40.4652
2.650000, 72.344, -40.8876
2.690000, 72.519, -41.4333
2.720000, 72.649, -41.8321
2.760000, 72.823, -42.3525
2.800000, 72.995, -42.9064
2.850000, 73.208, -43.6031
2.900000, 73.418, -44.3049
2.950000, 73.624, -45.0116
3.000000, 73.828, -45.7384
3.040000, 73.989, -46.3176
3.070000, 74.109, -46.7443
3.110000, 74.267, -47.3042
3.150000, 74.423, -47.8560
3.200000, 74.616, -48.5687
3.250000, 74.805, -49.2918
3.300000, 74.992, -50.0141
3.350000, 75.175, -50.7315
3.400000, 75.355, -51.4723
3.450000, 75.532, -52.2141
3.500000, 75.706, -52.9417
3.550000, 75.876, -53.6547
3.600000, 76.043, -54.3811
3.650000, 76.206, -55.1082
3.700000, 76.366, -55.8286
3.750000, 76.521, -56.5434
3.820000, 76.733, -57.5639
3.870000, 76.880, -58.2842
3.950000, 77.109, -59.4005
4.000000, 77.248, -60.0961
4.060000, 77.411, -60.9232
4.120000, 77.569, -61.7377
4.180000, 77.723, -62.5451
4.250000, 77.897, -63.4936
4.310000, 78.042, -64.2756
4.370000, 78.182, -65.0305
4.440000, 78.342, -65.9121
4.500000, 78.473, -66.6499
4.550000, 78.580, -67.2505
4.620000, 78.726, -68.0920
4.680000, 78.847, -68.7896
4.750000, 78.986, -69.5636
4.820000, 79.122, -70.3233
4.870000, 79.217, -70.8528
4.940000, 79.347, -71.5689
5.000000, 79.456, -72.1730
5.080000, 79.599, -72.9524
5.150000, 79.723, -73.5963
5.220000, 79.844, -74.2308
5.300000, 79.980, -74.9308
5.380000, 80.113, -75.6003
5.450000, 80.229, -76.1794
5.520000, 80.345, -76.7320
5.600000, 80.477, -77.3448
5.700000, 80.640, -78.0907
5.800000, 80.802, -78.8106
5.900000, 80.962, -79.5223
6.000000, 81.122, -80.2136
6.080000, 81.249, -80.7651
6.150000, 81.359, -81.2343
6.220000, 81.468, -81.7107
6.300000, 81.591, -82.2493
6.400000, 81.744, -82.9158
6.500000, 81.894, -83.5824
6.600000, 82.040, -84.2387
6.700000, 82.183, -84.8979
6.800000, 82.322, -85.5486
6.900000, 82.458, -86.1935
7.000000, 82.590, -86.8208
7.100000, 82.718, -87.4424
7.200000, 82.843, -88.0485
7.300000, 82.964, -88.6408
7.400000, 83.082, -89.2114
7.500000, 83.196, -89.7728
7.620000, 83.331, -90.4192
7.750000, 83.473, -91.0831
7.880000, 83.613, -91.7195
8.000000, 83.740, -92.2786
8.120000, 83.867, -92.8200
8.250000, 84.004, -93.3865
8.380000, 84.140, -93.9382
8.500000, 84.265, -94.4460
8.620000, 84.390, -94.9480
8.750000, 84.525, -95.4926
8.850000, 84.627, -95.9168
9.000000, 84.777, -96.5558
9.120000, 84.895, -97.0742
9.250000, 85.018, -97.6456
9.380000, 85.138, -98.2207
9.500000, 85.243, -98.7529
9.620000, 85.344, -99.2778
9.750000, 85.447, -99.8392
9.880000, 85.538, -100.3884
10.000000, 85.609, -100.8721
10.150000, 85.682, -101.4839
10.300000, 85.743, -102.0478
10.440000, 85.793, -102.5300
10.600000, 85.846, -103.0330
10.750000, 85.898, -103.4591
10.900000, 85.952, -103.8484
11.060000, 86.014, -104.2614
11.200000, 86.072, -104.6422
11.380000, 86.149, -105.1200
11.500000, 86.201, -105.4364
11.720000, 86.298, -106.0200
11.800000, 86.334, -106.2358
12.060000, 86.451, -106.9725
12.200000, 86.515, -107.4166
12.410000, 86.607, -108.0807
12.500000, 86.644, -108.3606
12.650000, 86.701, -108.8186
12.800000, 86.755, -109.2604
13.150000, 86.870, -110.2604
13.200000, 86.886, -110.4025
13.400000, 86.949, -110.9430
13.600000, 87.014, -111.4404
13.800000, 87.078, -111.8982
14.000000, 87.145, -112.3285
14.300000, 87.249, -113.0067
14.500000, 87.319, -113.4380
14.750000, 87.408, -113.9573
15.000000, 87.499, -114.4634
15.250000, 87.598, -115.0161
15.500000, 87.697, -115.5647
15.750000, 87.794, -116.1084
16.000000, 87.887, -116.6473
16.250000, 87.978, -117.2211
16.500000, 88.063, -117.7760
16.750000, 88.145, -118.3008
17.000000, 88.225, -118.7913
17.250000, 88.307, -119.2736
17.500000, 88.389, -119.7258
17.750000, 88.474, -120.1575
18.000000, 88.561, -120.5874
18.250000, 88.649, -121.0511
18.500000, 88.737, -121.5369
18.750000, 88.821, -122.0417
19.000000, 88.899, -122.5580
19.250000, 88.971, -123.0959
19.500000, 89.037, -123.6148
19.750000, 89.096, -124.1014
20.000000, 89.151, -124.5488
20.299999, 89.215, -125.0645
20.600000, 89.279, -125.5330
20.900000, 89.344, -125.9681
21.200001, 89.411, -126.4029
21.400000, 89.456, -126.6937
21.799999, 89.546, -127.2717
22.000000, 89.591, -127.5649
22.400000, 89.679, -128.1975
22.700001, 89.743, -128.6845
23.000000, 89.801, -129.1766
23.299999, 89.854, -129.6789
23.600000, 89.903, -130.1561
24.000000, 89.964, -130.7326
24.299999, 90.012, -131.1404
24.700001, 90.082, -131.6554
25.000000, 90.139, -132.0435
25.400000, 90.216, -132.6093
25.799999, 90.289, -133.2019
26.200001, 90.354, -133.8093
26.500000, 90.399, -134.2655
26.900000, 90.456, -134.8648
27.200001, 90.494, -135.3180
27.600000, 90.535, -135.9142
28.000000, 90.563, -136.4570
28.500000, 90.585, -136.9926
29.000000, 90.614, -137.3191
29.500000, 90.672, -137.5532
30.000000, 90.755, -137.8534
30.400000, 90.827, -138.2164
30.700001, 90.875, -138.5432
31.100000, 90.930, -139.0143
31.500000, 90.975, -139.4903
32.000000, 91.024, -140.0343
32.500000, 91.071, -140.5419
33.000000, 91.121, -141.0231
33.500000, 91.172, -141.5096
34.000000, 91.227, -142.0070
34.500000, 91.285, -142.5442
35.000000, 91.338, -143.1236
35.500000, 91.381, -143.7349
36.000000, 91.413, -144.3362
36.500000, 91.435, -144.9011
37.000000, 91.452, -145.4150
37.500000, 91.466, -145.8867
38.200001, 91.483, -146.4673
38.700001, 91.498, -146.8376
39.500000, 91.528, -147.4053
40.000000, 91.547, -147.7549
40.599998, 91.571, -148.1567
41.200001, 91.603, -148.5529
41.799999, 91.639, -149.0267
42.500000, 91.660, -149.6613
43.099998, 91.657, -150.1003
43.700001, 91.660, -150.3854
44.400002, 91.687, -150.7222
45.000000, 91.703, -151.1073
45.500000, 91.700, -151.3957
46.200001, 91.695, -151.6074
46.799999, 91.716, -151.7220
47.500000, 91.753, -151.9735
48.200001, 91.779, -152.2910
48.700001, 91.794, -152.4782
49.400002, 91.824, -152.6880
50.000000, 91.864, -152.8818
50.799999, 91.931, -153.2645
51.500000, 91.991, -153.7791
52.200001, 92.034, -154.4302
53.000000, 92.055, -155.2011
53.799999, 92.061, -155.9663
54.500000, 92.050, -156.6442
55.200001, 92.019, -157.2720
56.000000, 91.970, -157.8741
57.000000, 91.893, -158.4754
58.000000, 91.801, -158.7960
59.000000, 91.722, -158.9857
60.000000, 91.597, -159.0773
60.799999, 91.471, -158.6085
61.500000, 91.407, -157.7911
62.200001, 91.402, -156.8899
63.000000, 91.451, -155.9717
64.000000, 91.573, -155.1261
65.000000, 91.727, -154.7515
66.000000, 91.877, -154.7522
67.000000, 92.011, -155.0085
68.000000, 92.124, -155.4209
69.000000, 92.216, -155.9058
70.000000, 92.290, -156.4280
71.000000, 92.347, -156.9521
72.000000, 92.392, -157.4667
73.000000, 92.426, -157.9626
74.000000, 92.449, -158.4211
75.000000, 92.471, -158.8194
76.199997, 92.502, -159.2806
77.500000, 92.536, -159.8300
78.800003, 92.558, -160.4232
80.000000, 92.562, -160.9617
81.199997, 92.550, -161.4434
82.500000, 92.526, -161.7765
83.800003, 92.523, -161.9399
85.000000, 92.542, -162.1501
86.199997, 92.563, -162.4646
87.500000, 92.575, -162.8767
88.500000, 92.575, -163.1859
90.000000, 92.568, -163.6391
91.199997, 92.552, -164.0153
92.500000, 92.522, -164.3664
93.800003, 92.480, -164.6471
95.000000, 92.429, -164.7718
96.199997, 92.380, -164.6923
97.500000, 92.353, -164.4161
98.800003, 92.363, -164.1033
100.000000, 92.401, -163.8921
101.500000, 92.467, -163.8454
103.000000, 92.526, -164.0082
104.400002, 92.565, -164.2445
106.000000, 92.595, -164.5382
107.500000, 92.609, -164.8272
109.000000, 92.615, -165.0652
110.599998, 92.626, -165.2349
112.000000, 92.644, -165.3475
113.800003, 92.676, -165.5457
115.000000, 92.694, -165.7553
117.199997, 92.706, -166.2171
118.000000, 92.707, -166.3703
120.599998, 92.726, -166.8215
122.000000, 92.739, -167.0898
124.099998, 92.748, -167.4222
125.000000, 92.752, -167.5540
126.500000, 92.753, -167.8020
128.000000, 92.747, -168.0559
131.500000, 92.736, -168.6153
132.000000, 92.734, -168.6972
134.000000, 92.724, -169.0267
136.000000, 92.704, -169.3344
138.000000, 92.675, -169.6026
140.000000, 92.639, -169.8018
143.000000, 92.580, -169.8778
145.000000, 92.552, -169.7847
147.500000, 92.539, -169.6152
150.000000, 92.550, -169.5084
152.500000, 92.569, -169.4919
155.000000, 92.593, -169.5516
157.500000, 92.613, -169.7322
160.000000, 92.620, -169.9021
162.500000, 92.619, -170.0274
165.000000, 92.614, -170.1276
167.500000, 92.608, -170.2498
170.000000, 92.598, -170.3361
172.500000, 92.586, -170.3836
175.000000, 92.572, -170.4200
177.500000, 92.564, -170.4446
180.000000, 92.563, -170.4821
182.500000, 92.566, -170.5647
185.000000, 92.571, -170.7079
187.500000, 92.559, -170.8920
190.000000, 92.540, -170.9114
192.500000, 92.529, -170.9411
195.000000, 92.518, -171.0115
197.500000, 92.505, -171.0760
200.000000, 92.492, -171.1285
203.000000, 92.476, -171.2020
206.000000, 92.454, -171.2513
209.000000, 92.425, -171.2190
212.000000, 92.398, -171.1191
214.000000, 92.386, -170.9949
218.000000, 92.376, -170.7057
220.000000, 92.378, -170.6345
224.000000, 92.377, -170.7052
227.000000, 92.376, -170.6831
230.000000, 92.378, -170.6335
233.000000, 92.377, -170.6015
236.000000, 92.375, -170.5632
240.000000, 92.373, -170.5122
243.000000, 92.369, -170.4975
247.000000, 92.354, -170.6132
250.000000, 92.343, -170.6895
254.000000, 92.346, -170.5200
258.000000, 92.350, -170.3819
262.000000, 92.344, -170.3732
265.000000, 92.333, -170.3755
269.000000, 92.312, -170.3660
272.000000, 92.290, -170.3184
276.000000, 92.253, -170.1423
280.000000, 92.224, -169.7901
285.000000, 92.242, -169.2828
290.000000, 92.291, -168.9799
295.000000, 92.327, -168.8938
300.000000, 92.346, -168.8902
304.000000, 92.357, -168.8690
307.000000, 92.363, -168.8323
311.000000, 92.367, -168.7515
315.000000, 92.370, -168.6550
320.000000, 92.374, -168.5629
325.000000, 92.379, -168.4538
330.000000, 92.384, -168.3540
335.000000, 92.389, -168.2251
340.000000, 92.392, -168.0643
345.000000, 92.394, -167.9171
350.000000, 92.397, -167.7639
355.000000, 92.403, -167.6198
360.000000, 92.412, -167.4639
365.000000, 92.424, -167.3231
370.000000, 92.436, -167.2155
375.000000, 92.443, -167.1306
382.000000, 92.447, -166.9837
387.000000, 92.446, -166.8907
395.000000, 92.442, -166.7429
400.000000, 92.438, -166.6255
406.000000, 92.438, -166.4523
412.000000, 92.442, -166.2882
418.000000, 92.444, -166.1314
425.000000, 92.443, -165.9818
431.000000, 92.444, -165.8555
437.000000, 92.444, -165.7782
444.000000, 92.436, -165.6408
450.000000, 92.424, -165.4706
455.000000, 92.412, -165.3477
462.000000, 92.391, -165.1986
468.000000, 92.366, -164.9977
475.000000, 92.338, -164.6678
482.000000, 92.317, -164.2985
487.000000, 92.307, -164.0268
494.000000, 92.302, -163.5806
500.000000, 92.309, -163.1584
508.000000, 92.335, -162.6168
515.000000, 92.366, -162.2401
522.000000, 92.399, -161.9146
530.000000, 92.435, -161.6163
538.000000, 92.468, -161.3474
545.000000, 92.493, -161.1080
552.000000, 92.518, -160.8776
560.000000, 92.547, -160.6653
570.000000, 92.575, -160.4529
580.000000, 92.590, -160.2343
590.000000, 92.598, -159.9150
600.000000, 92.614, -159.4429
608.000000, 92.647, -159.1139
615.000000, 92.680, -158.9166
622.000000, 92.711, -158.7625
630.000000, 92.744, -158.6590
640.000000, 92.771, -158.6141
650.000000, 92.783, -158.6230
660.000000, 92.777, -158.6976
670.000000, 92.737, -158.7862
680.000000, 92.662, -158.6988
690.000000, 92.577, -158.3017
700.000000, 92.503, -157.7265
710.000000, 92.442, -156.9813
720.000000, 92.404, -156.0812
730.000000, 92.391, -155.1284
740.000000, 92.401, -154.1882
750.000000, 92.427, -153.2955
762.000000, 92.469, -152.2462
775.000000, 92.533, -151.0724
788.000000, 92.628, -149.9900
800.000000, 92.743, -149.0860
812.000000, 92.877, -148.3905
825.000000, 93.015, -147.9186
838.000000, 93.126, -147.6228
850.000000, 93.209, -147.3148
862.000000, 93.289, -146.9396
875.000000, 93.385, -146.5206
885.000000, 93.466, -146.2671
900.000000, 93.579, -146.0499
912.000000, 93.656, -145.8866
925.000000, 93.744, -145.6791
938.000000, 93.831, -145.5928
950.000000, 93.904, -145.5252
962.000000, 93.975, -145.5365
975.000000, 94.038, -145.6356
988.000000, 94.072, -145.7967
1000.000000, 94.076, -145.8819
1015.000000, 94.062, -145.6648
1030.000000, 94.076, -145.1304
1044.000000, 94.142, -144.6457
1060.000000, 94.242, -144.5218
1075.000000, 94.282, -144.5900
1090.000000, 94.328, -144.3339
1106.000000, 94.417, -144.3262
1120.000000, 94.464, -144.5284
1138.000000, 94.473, -144.6023
1150.000000, 94.478, -144.4302
1172.000000, 94.495, -144.0164
1180.000000, 94.510, -143.7141
1206.000000, 94.666, -143.0597
1220.000000, 94.734, -143.1760
1241.000000, 94.773, -143.0433
1250.000000, 94.811, -142.8636
1265.000000, 94.882, -142.9329
1280.000000, 94.894, -143.1643
1315.000000, 94.847, -142.5098
1320.000000, 94.848, -142.2640
1340.000000, 94.942, -141.1179
1360.000000, 95.108, -141.0708
1380.000000, 95.116, -141.6188
1400.000000, 95.088, -141.3763
1430.000000, 95.102, -140.7416
1450.000000, 95.139, -140.3116
1475.000000, 95.165, -139.8206
1500.000000, 95.205, -139.0776
1525.000000, 95.276, -138.1915
1550.000000, 95.442, -137.6570
1575.000000, 95.496, -137.9371
1600.000000, 95.499, -137.6142
1625.000000, 95.516, -137.0511
1650.000000, 95.590, -136.3814
1675.000000, 95.675, -136.1747
1700.000000, 95.703, -136.1867
1725.000000, 95.675, -135.7529
1750.000000, 95.712, -135.0858
1775.000000, 95.728, -134.7139
1800.000000, 95.725, -134.0975
1825.000000, 95.746, -133.1206
1850.000000, 95.835, -132.2763
1875.000000, 95.939, -131.8374
1900.000000, 95.993, -131.7416
1925.000000, 95.977, -131.4610
1950.000000, 95.948, -130.5345
1975.000000, 96.019, -129.3400
2000.000000, 96.111, -128.7741
2030.000000, 96.154, -127.9278
2060.000000, 96.230, -126.6804
2090.000000, 96.382, -125.3098
2120.000000, 96.583, -124.3094
2140.000000, 96.743, -123.7357
2180.000000, 97.121, -123.5840
2200.000000, 97.236, -124.1901
2240.000000, 97.248, -124.5690
2270.000000, 97.339, -123.9425
2300.000000, 97.450, -124.1035
2330.000000, 97.450, -124.2405
2360.000000, 97.416, -123.5893
2400.000000, 97.508, -122.1319
2430.000000, 97.638, -121.1462
2470.000000, 97.875, -120.1392
2500.000000, 98.068, -119.6139
2540.000000, 98.341, -119.1675
2580.000000, 98.650, -119.0160
2620.000000, 98.944, -119.5556
2650.000000, 99.120, -120.1665
2690.000000, 99.323, -121.0059
2720.000000, 99.449, -121.8646
2760.000000, 99.544, -123.0114
2800.000000, 99.593, -123.7729
2850.000000, 99.673, -124.5253
2900.000000, 99.791, -125.3069
2950.000000, 99.874, -126.5425
3000.000000, 99.888, -127.7630
3040.000000, 99.862, -128.6651
3070.000000, 99.825, -129.1472
3110.000000, 99.803, -129.5725
3150.000000, 99.791, -130.2601
3200.000000, 99.705, -130.9860
3250.000000, 99.656, -131.2644
3300.000000, 99.637, -131.7739
3350.000000, 99.604, -132.4352
3400.000000, 99.561, -133.1559
3450.000000, 99.504, -134.0673
3500.000000, 99.391, -135.0937
3550.000000, 99.238, -135.8305
3600.000000, 99.083, -136.5568
3650.000000, 98.883, -137.2708
3700.000000, 98.642, -137.7428
3750.000000, 98.381, -137.9157
3820.000000, 97.988, -137.7067
3870.000000, 97.725, -137.1210
3950.000000, 97.360, -136.4005
4000.000000, 97.080, -136.0768
4060.000000, 96.670, -135.3343
4120.000000, 96.208, -134.0225
4180.000000, 95.690, -131.7625
4250.000000, 95.152, -127.5395
4310.000000, 94.817, -122.8405
4370.000000, 94.674, -117.2579
4440.000000, 94.818, -110.8587
4500.000000, 95.147, -105.9943
4550.000000, 95.569, -102.6438
4620.000000, 96.229, -99.7764
4680.000000, 96.780, -98.5727
4750.000000, 97.324, -98.3521
4820.000000, 97.758, -98.6486
4870.000000, 98.010, -99.1752
4940.000000, 98.257, -100.0446
5000.000000, 98.393, -100.6435
5080.000000, 98.517, -101.0706
5150.000000, 98.601, -100.9906
5220.000000, 98.727, -100.4568
5300.000000, 98.966, -99.6491
5380.000000, 99.347, -99.0452
5450.000000, 99.778, -99.1638
5520.000000, 100.275, -100.1794
5600.000000, 100.849, -102.7077
5700.000000, 101.450, -107.9296
5800.000000, 101.775, -115.1774
5900.000000, 101.677, -123.6515
6000.000000, 101.070, -131.8999
6080.000000, 100.277, -137.2690
6150.000000, 99.440, -140.6559
6220.000000, 98.543, -142.8621
6300.000000, 97.514, -143.9644
6400.000000, 96.303, -143.8451
6500.000000, 95.207, -142.6035
6600.000000, 94.208, -140.7681
6700.000000, 93.275, -138.5620
6800.000000, 92.372, -136.0451
6900.000000, 91.478, -133.0795
7000.000000, 90.594, -129.2636
7100.000000, 89.759, -124.4392
7200.000000, 89.023, -118.7361
7300.000000, 88.418, -112.1885
7400.000000, 87.974, -105.1065
7500.000000, 87.717, -97.7503
7620.000000, 87.661, -89.1116
7750.000000, 87.884, -80.2579
7880.000000, 88.331, -72.3375
8000.000000, 88.931, -66.8437
8120.000000, 89.568, -63.7690
8250.000000, 90.102, -62.7353
8380.000000, 90.364, -63.1386
8500.000000, 90.295, -63.8947
8620.000000, 89.935, -63.6715
8750.000000, 89.395, -61.0622
8850.000000, 89.090, -57.1992
9000.000000, 89.132, -50.3912
9120.000000, 89.609, -46.4719
9250.000000, 90.291, -45.8660
9380.000000, 90.713, -49.0924
9500.000000, 90.599, -53.9212
9620.000000, 89.940, -58.4510
9750.000000, 88.710, -61.1516
9880.000000, 87.153, -60.2644
10000.000000, 85.654, -55.6835
10150.000000, 84.007, -45.3591
10300.000000, 82.884, -30.7060
10440.000000, 82.652, -13.6839
10600.000000, 83.826, 5.2198
10750.000000, 85.881, 14.5473
10900.000000, 87.621, 13.7479
11060.000000, 88.308, 7.9568
11200.000000, 88.037, 4.4519
11380.000000, 87.245, 5.1879
11500.000000, 86.792, 8.3710
11720.000000, 86.416, 16.5469
11800.000000, 86.408, 19.6099
12060.000000, 86.601, 28.9603
12200.000000, 86.843, 34.2852
12410.000000, 87.654, 42.3052
12500.000000, 88.216, 44.9390
12650.000000, 89.352, 46.9059
12800.000000, 90.496, 44.9606
13150.000000, 91.553, 28.7372
