* Measurement data measured by REW V5.31.3
* Source: Headset (DS by VECLAN.COM), MICROPHONE (Master Volume), L, volume: 0.720
* Format: 2M Log Swept Sine, 1 sweep at -0.8 dBFS with no timing reference
* Dated: Nov 16, 2024 5:30:11 PM
* REW Settings:
*  C-weighting compensation: Off
*  Target level: 85.0 dB
* Note: ; 
* Measurement: Misodiko L2
* Smoothing: 1/24 octave
* Frequency Step: 1/48 octave
* Start Frequency: 1.000 Hz
*
* Freq(Hz), SPL(dB), Phase(degrees)
1.000000, 55.731, -2.1263
1.015000, 55.598, -4.5781
1.030000, 55.479, -7.0212
1.044000, 55.382, -9.2950
1.060000, 55.289, -11.8905
1.075000, 55.223, -14.3293
1.090000, 55.177, -16.7955
1.106000, 55.150, -19.5464
1.120000, 55.135, -22.2061
1.138000, 55.125, -26.1175
1.150000, 55.123, -29.0732
1.172000, 55.131, -35.2938
1.180000, 55.137, -37.8297
1.206000, 55.171, -47.1203
1.220000, 55.199, -52.7675
1.241000, 55.254, -61.9498
1.250000, 55.283, -66.0816
1.265000, 55.338, -73.1114
1.280000, 55.401, -80.1712
1.315000, 55.588, -95.8980
1.320000, 55.619, -97.9956
1.340000, 55.755, -105.9210
1.360000, 55.910, -113.0876
1.380000, 56.086, -119.5442
1.400000, 56.282, -125.3882
1.430000, 56.619, -133.2573
1.450000, 56.873, -138.0753
1.475000, 57.232, -143.8306
1.500000, 57.652, -149.4433
1.525000, 58.135, -154.8607
1.550000, 58.673, -159.9834
1.575000, 59.254, -164.7559
1.600000, 59.870, -169.1638
1.625000, 60.510, -173.2209
1.650000, 61.165, -176.9584
1.675000, 61.826, 179.5839
1.700000, 62.481, 176.3629
1.725000, 63.121, 173.3358
1.750000, 63.738, 170.4612
1.775000, 64.320, 167.7001
1.800000, 64.860, 165.0146
1.825000, 65.351, 162.3623
1.850000, 65.799, 159.6868
1.875000, 66.218, 156.9576
1.900000, 66.614, 154.1987
1.925000, 66.991, 151.4462
1.950000, 67.348, 148.7292
1.975000, 67.689, 146.0683
2.000000, 68.014, 143.4763
2.030000, 68.386, 140.4662
2.060000, 68.740, 137.5668
2.090000, 69.080, 134.7717
2.120000, 69.407, 132.0684
2.140000, 69.620, 130.3085
2.180000, 70.035, 126.8553
2.200000, 70.237, 125.1326
2.240000, 70.625, 121.5832
2.270000, 70.897, 118.8137
2.300000, 71.153, 115.9888
2.330000, 71.396, 113.1457
2.360000, 71.625, 110.3155
2.400000, 71.912, 106.6037
2.430000, 72.116, 103.8880
2.470000, 72.372, 100.3766
2.500000, 72.555, 97.8294
2.540000, 72.789, 94.5366
2.580000, 73.011, 91.2836
2.620000, 73.218, 87.9136
2.650000, 73.361, 85.2887
2.690000, 73.538, 81.7034
2.720000, 73.660, 78.9865
2.760000, 73.810, 75.3758
2.800000, 73.946, 71.8265
2.850000, 74.099, 67.5395
2.900000, 74.234, 63.4623
2.950000, 74.352, 59.5212
3.000000, 74.451, 55.4643
3.040000, 74.517, 52.0860
3.070000, 74.558, 49.4996
3.110000, 74.602, 46.0228
3.150000, 74.633, 42.5628
3.200000, 74.656, 38.3430
3.250000, 74.661, 34.3247
3.300000, 74.648, 30.5305
3.350000, 74.617, 26.7847
3.400000, 74.570, 22.9254
3.450000, 74.505, 18.9661
3.500000, 74.420, 14.9807
3.550000, 74.315, 11.0676
3.600000, 74.189, 7.3380
3.650000, 74.040, 3.8822
3.700000, 73.869, 0.6527
3.750000, 73.674, -2.5127
3.820000, 73.365, -6.9326
3.870000, 73.119, -10.0355
3.950000, 72.687, -14.6798
4.000000, 72.391, -17.2001
4.060000, 71.994, -19.6821
4.120000, 71.529, -21.6131
4.180000, 71.014, -23.0588
4.250000, 70.414, -24.1274
4.310000, 69.957, -24.4586
4.370000, 69.604, -24.1569
4.440000, 69.336, -22.7302
4.500000, 69.198, -20.3745
4.550000, 69.143, -17.7600
4.620000, 69.171, -13.6534
4.680000, 69.309, -10.3179
4.750000, 69.628, -7.2736
4.820000, 70.162, -5.1345
4.870000, 70.673, -3.9807
4.940000, 71.511, -2.9502
5.000000, 72.273, -2.7094
5.080000, 73.246, -3.3961
5.150000, 74.003, -4.9193
5.220000, 74.701, -7.0963
5.300000, 75.456, -10.0426
5.380000, 76.153, -13.2489
5.450000, 76.704, -16.2136
5.520000, 77.192, -19.4053
5.600000, 77.676, -23.4442
5.700000, 78.181, -28.8075
5.800000, 78.577, -34.0887
5.900000, 78.870, -39.2656
6.000000, 79.061, -44.7629
6.080000, 79.136, -49.2806
6.150000, 79.141, -53.1053
6.220000, 79.089, -56.7194
6.300000, 78.965, -60.7585
6.400000, 78.709, -65.9576
6.500000, 78.310, -71.0469
6.600000, 77.734, -75.5435
6.700000, 76.987, -79.4880
6.800000, 76.061, -83.0590
6.900000, 74.897, -85.7753
7.000000, 73.339, -86.6669
7.100000, 71.226, -84.5947
7.200000, 68.972, -77.5696
7.300000, 67.540, -62.3973
7.400000, 67.797, -39.4020
7.500000, 69.430, -18.7507
7.620000, 71.870, -6.1263
7.750000, 74.153, -2.3524
7.880000, 76.148, -3.1375
8.000000, 77.736, -5.4700
8.120000, 78.980, -8.6482
8.250000, 79.971, -12.8042
8.380000, 80.712, -17.0002
8.500000, 81.238, -20.6979
8.620000, 81.613, -24.3703
8.750000, 81.885, -27.9774
8.850000, 82.017, -30.3114
9.000000, 82.100, -33.2388
9.120000, 82.114, -34.9625
9.250000, 82.114, -35.9968
9.380000, 82.114, -36.2490
9.500000, 82.176, -35.9608
9.620000, 82.336, -35.2351
9.750000, 82.614, -34.1567
9.880000, 82.991, -33.2595
10.000000, 83.427, -32.7931
10.150000, 84.056, -32.7919
10.300000, 84.702, -33.7056
10.440000, 85.296, -35.3239
10.600000, 85.929, -37.8771
10.750000, 86.447, -40.8877
10.900000, 86.886, -44.3044
11.060000, 87.256, -48.1853
11.200000, 87.495, -51.7460
11.380000, 87.689, -56.2725
11.500000, 87.749, -59.2098
11.720000, 87.732, -64.2358
11.800000, 87.688, -65.8733
12.060000, 87.433, -70.3795
12.200000, 87.246, -72.1074
12.410000, 86.940, -73.6710
12.500000, 86.819, -73.9301
12.650000, 86.648, -73.8043
12.800000, 86.548, -73.1097
13.150000, 86.730, -70.2472
13.200000, 86.806, -69.8480
13.400000, 87.224, -68.5881
13.600000, 87.757, -68.2097
13.800000, 88.333, -68.8676
14.000000, 88.873, -70.4939
14.300000, 89.511, -74.3180
14.500000, 89.772, -77.4221
14.750000, 89.883, -81.3870
15.000000, 89.746, -84.9184
15.250000, 89.382, -87.2780
15.500000, 88.867, -87.7141
15.750000, 88.368, -85.6234
16.000000, 88.141, -81.1147
16.250000, 88.389, -75.7375
16.500000, 89.082, -71.5927
16.750000, 89.984, -69.9689
17.000000, 90.848, -70.7937
17.250000, 91.528, -73.3684
17.500000, 91.960, -76.9341
17.750000, 92.131, -80.7614
18.000000, 92.064, -84.2531
18.250000, 91.808, -86.8611
18.500000, 91.447, -88.1583
18.750000, 91.104, -88.0092
19.000000, 90.904, -86.6890
19.250000, 90.931, -85.0183
19.500000, 91.155, -83.9044
19.750000, 91.480, -83.9128
20.000000, 91.784, -85.1233
20.299999, 92.004, -87.7108
20.600000, 92.003, -90.7795
20.900000, 91.788, -93.5000
21.200001, 91.431, -95.1674
21.400000, 91.179, -95.4987
21.799999, 90.835, -94.5278
22.000000, 90.801, -93.6606
22.400000, 90.990, -92.4979
22.700001, 91.225, -92.6769
23.000000, 91.422, -93.6297
23.299999, 91.532, -94.8910
23.600000, 91.570, -96.0020
24.000000, 91.607, -96.9058
24.299999, 91.692, -97.3493
24.700001, 91.878, -98.2815
25.000000, 91.999, -99.4722
25.400000, 92.014, -101.3695
25.799999, 91.825, -102.6128
26.200001, 91.566, -102.1932
26.500000, 91.483, -100.8282
26.900000, 91.648, -98.8574
27.200001, 91.916, -98.2609
27.600000, 92.231, -99.0472
28.000000, 92.302, -100.6987
28.500000, 92.055, -101.5143
29.000000, 91.893, -99.4071
29.500000, 92.299, -96.8547
30.000000, 93.012, -97.5532
30.400000, 93.416, -100.4739
30.700001, 93.521, -103.2054
31.100000, 93.420, -106.4534
31.500000, 93.184, -108.3923
32.000000, 93.000, -108.9529
32.500000, 93.098, -109.0321
33.000000, 93.323, -110.0117
33.500000, 93.477, -111.5403
34.000000, 93.571, -112.6285
34.500000, 93.753, -113.1176
35.000000, 94.079, -113.8817
35.500000, 94.426, -115.7026
36.000000, 94.619, -118.3627
36.500000, 94.583, -120.8513
37.000000, 94.390, -122.1120
37.500000, 94.231, -121.8004
38.200001, 94.337, -120.3511
38.700001, 94.577, -120.1323
39.500000, 94.874, -121.3935
40.000000, 94.957, -122.3180
40.599998, 95.043, -123.1582
41.200001, 95.155, -124.0645
41.799999, 95.240, -125.2968
42.500000, 95.233, -126.6844
43.099998, 95.176, -127.1883
43.700001, 95.186, -127.0073
44.400002, 95.351, -126.8667
45.000000, 95.523, -127.4329
45.500000, 95.612, -128.1561
46.200001, 95.688, -128.8982
46.799999, 95.791, -129.4247
47.500000, 95.915, -130.5417
48.200001, 95.926, -131.8088
48.700001, 95.898, -132.3499
49.400002, 95.906, -132.7531
50.000000, 95.945, -133.1703
50.799999, 95.990, -133.6801
51.500000, 96.080, -134.0818
52.200001, 96.188, -135.0340
53.000000, 96.172, -136.3060
53.799999, 96.097, -136.5046
54.500000, 96.154, -136.1606
55.200001, 96.294, -136.2370
56.000000, 96.447, -136.8719
57.000000, 96.590, -138.0641
58.000000, 96.640, -139.5396
59.000000, 96.565, -140.5813
60.000000, 96.503, -140.5337
60.799999, 96.579, -140.3745
61.500000, 96.682, -140.8022
62.200001, 96.736, -141.5613
63.000000, 96.752, -142.2665
64.000000, 96.814, -142.8739
65.000000, 96.924, -143.7471
66.000000, 97.023, -144.9134
67.000000, 97.083, -146.1058
68.000000, 97.125, -147.0425
69.000000, 97.185, -147.8968
70.000000, 97.225, -148.8561
71.000000, 97.241, -149.5955
72.000000, 97.295, -150.1500
73.000000, 97.381, -150.8914
74.000000, 97.456, -151.7312
75.000000, 97.524, -152.5497
76.199997, 97.553, -153.4840
77.500000, 97.556, -153.7589
78.800003, 97.620, -154.1501
80.000000, 97.649, -154.9689
81.199997, 97.622, -156.1013
82.500000, 97.571, -156.9521
83.800003, 97.604, -157.8052
85.000000, 97.640, -158.5308
86.199997, 97.708, -159.0248
87.500000, 97.760, -159.6102
88.500000, 97.762, -159.9166
90.000000, 97.752, -160.2375
91.199997, 97.742, -160.6511
92.500000, 97.737, -161.2164
93.800003, 97.751, -161.8649
95.000000, 97.778, -162.3782
96.199997, 97.811, -162.7936
97.500000, 97.834, -163.0643
98.800003, 97.841, -163.2822
100.000000, 97.829, -163.4961
101.500000, 97.827, -164.0715
103.000000, 97.816, -165.2757
104.400002, 97.770, -166.2551
106.000000, 97.799, -166.8398
107.500000, 97.855, -166.8965
109.000000, 97.969, -166.8847
110.599998, 97.967, -167.4086
112.000000, 97.914, -167.5219
113.800003, 97.927, -168.2130
115.000000, 97.936, -169.0337
117.199997, 97.976, -169.9874
118.000000, 97.987, -170.2452
120.599998, 97.959, -170.3740
122.000000, 97.974, -170.6589
124.099998, 98.049, -172.1684
125.000000, 98.081, -172.9897
126.500000, 98.115, -174.0396
128.000000, 98.145, -174.2854
131.500000, 98.290, -174.9120
132.000000, 98.295, -175.3074
134.000000, 98.242, -177.0336
136.000000, 98.172, -177.6195
138.000000, 98.226, -177.0665
140.000000, 98.336, -176.6724
143.000000, 98.417, -177.8525
145.000000, 98.453, -178.9261
147.500000, 98.487, 179.7368
150.000000, 98.427, 179.1417
152.500000, 98.355, 179.0360
155.000000, 98.289, 179.3293
157.500000, 98.331, 179.0510
160.000000, 98.274, 177.6914
162.500000, 98.156, 176.9633
165.000000, 98.070, 176.6745
167.500000, 98.031, 176.1462
170.000000, 98.048, 175.2886
172.500000, 98.090, 174.9099
175.000000, 98.093, 174.9280
177.500000, 98.051, 174.9763
180.000000, 98.028, 174.3549
182.500000, 98.002, 173.1729
185.000000, 97.963, 172.2785
187.500000, 97.955, 171.9799
190.000000, 97.953, 172.1158
192.500000, 97.921, 172.0524
195.000000, 97.867, 171.7015
197.500000, 97.873, 170.9442
200.000000, 97.881, 169.9098
203.000000, 97.835, 169.1110
206.000000, 97.818, 168.3613
209.000000, 97.850, 166.8962
212.000000, 97.531, 164.9933
214.000000, 97.179, 166.0468
218.000000, 97.118, 167.7410
220.000000, 97.281, 166.8800
224.000000, 97.632, 166.1154
227.000000, 97.670, 166.3396
230.000000, 97.565, 166.3626
233.000000, 97.519, 166.0969
236.000000, 97.503, 166.0943
240.000000, 97.400, 165.4758
243.000000, 97.313, 164.7090
247.000000, 97.267, 164.5062
250.000000, 97.271, 164.4011
254.000000, 97.274, 164.1265
258.000000, 97.204, 163.8632
262.000000, 97.096, 163.3739
265.000000, 97.034, 163.1435
269.000000, 97.023, 163.4637
272.000000, 96.991, 163.4546
276.000000, 96.895, 162.7505
280.000000, 96.865, 162.9708
285.000000, 96.773, 163.7732
290.000000, 96.788, 162.6927
295.000000, 96.784, 162.9984
300.000000, 96.748, 163.0572
304.000000, 96.734, 163.1907
307.000000, 96.747, 163.3901
311.000000, 96.755, 163.0051
315.000000, 96.722, 162.9084
320.000000, 96.770, 162.6743
325.000000, 96.784, 162.8312
330.000000, 96.719, 162.6716
335.000000, 96.718, 162.4335
340.000000, 96.672, 161.9943
345.000000, 96.644, 162.2034
350.000000, 96.617, 162.6435
355.000000, 96.569, 163.2382
360.000000, 96.643, 163.3549
365.000000, 96.663, 162.0598
370.000000, 96.616, 160.2122
375.000000, 96.744, 159.0817
382.000000, 97.052, 160.2471
387.000000, 96.917, 162.6496
395.000000, 96.503, 163.1083
400.000000, 96.536, 162.3405
406.000000, 96.558, 161.9026
412.000000, 96.528, 161.7664
418.000000, 96.495, 160.8239
425.000000, 96.506, 160.4629
431.000000, 96.507, 160.7681
437.000000, 96.492, 160.9242
444.000000, 96.468, 160.7955
450.000000, 96.427, 160.6646
455.000000, 96.382, 160.7426
462.000000, 96.321, 160.9310
468.000000, 96.263, 160.7856
475.000000, 96.230, 160.4278
482.000000, 96.167, 159.9211
487.000000, 96.139, 160.6483
494.000000, 96.357, 161.6021
500.000000, 96.530, 161.6223
508.000000, 96.454, 162.3912
515.000000, 96.140, 162.7582
522.000000, 95.979, 161.2324
530.000000, 96.057, 160.9307
538.000000, 96.044, 161.3685
545.000000, 96.020, 161.1896
552.000000, 96.025, 160.9621
560.000000, 96.043, 160.8563
570.000000, 95.969, 160.7776
580.000000, 95.890, 161.4346
590.000000, 95.952, 162.2099
600.000000, 95.878, 162.4911
608.000000, 95.829, 162.2090
615.000000, 95.897, 161.4781
622.000000, 96.008, 160.8187
630.000000, 96.026, 161.4092
640.000000, 95.908, 162.0853
650.000000, 95.840, 161.6360
660.000000, 95.768, 161.4604
670.000000, 95.716, 161.9745
680.000000, 95.701, 162.2062
690.000000, 95.648, 162.2924
700.000000, 95.598, 162.4673
710.000000, 95.556, 162.9004
720.000000, 95.494, 163.1869
730.000000, 95.467, 163.6501
740.000000, 95.469, 163.8652
750.000000, 95.440, 164.1925
762.000000, 95.410, 165.1973
775.000000, 95.433, 165.7657
788.000000, 95.408, 165.4772
800.000000, 95.473, 166.2324
812.000000, 95.646, 166.6175
825.000000, 95.754, 165.8694
838.000000, 95.797, 167.6695
850.000000, 95.964, 170.7235
862.000000, 96.006, 170.7413
875.000000, 95.968, 169.2067
885.000000, 95.920, 168.9268
900.000000, 95.961, 169.5075
912.000000, 95.944, 169.4854
925.000000, 95.912, 169.2565
938.000000, 95.946, 169.4348
950.000000, 95.995, 169.7911
962.000000, 96.021, 170.1234
975.000000, 96.032, 170.2316
988.000000, 96.031, 170.3907
1000.000000, 96.040, 170.9559
1015.000000, 96.079, 171.6844
1030.000000, 96.093, 171.5864
1044.000000, 96.112, 171.3592
1060.000000, 96.060, 171.5367
1075.000000, 96.046, 172.5453
1090.000000, 96.176, 173.8234
1106.000000, 96.198, 173.3921
1120.000000, 96.163, 172.8068
1138.000000, 96.125, 172.6233
1150.000000, 96.015, 172.9534
1172.000000, 96.011, 173.8733
1180.000000, 96.095, 174.2200
1206.000000, 96.263, 174.8788
1220.000000, 96.247, 175.3101
1241.000000, 96.254, 176.4731
1250.000000, 96.260, 176.8968
1265.000000, 96.257, 177.2144
1280.000000, 96.303, 177.5005
1315.000000, 96.480, 178.5476
1320.000000, 96.502, 178.7114
1340.000000, 96.591, 179.3544
1360.000000, 96.661, 179.7148
1380.000000, 96.683, 179.5463
1400.000000, 96.667, 179.6584
1430.000000, 96.679, -179.2982
1450.000000, 96.719, -178.2604
1475.000000, 96.776, -176.7327
1500.000000, 96.743, -175.1848
1525.000000, 96.841, -174.3114
1550.000000, 97.071, -173.0000
1575.000000, 97.214, -172.3025
1600.000000, 97.309, -171.9786
1625.000000, 97.424, -171.3002
1650.000000, 97.522, -170.4216
1675.000000, 97.645, -169.3149
1700.000000, 97.912, -168.3333
1725.000000, 98.134, -167.4542
1750.000000, 98.192, -166.2578
1775.000000, 98.308, -165.3710
1800.000000, 98.506, -165.1548
1825.000000, 98.700, -164.8397
1850.000000, 98.861, -164.5561
1875.000000, 99.042, -164.2717
1900.000000, 99.206, -164.2881
1925.000000, 99.305, -164.4868
1950.000000, 99.342, -164.3253
1975.000000, 99.406, -163.5698
2000.000000, 99.545, -162.7371
2030.000000, 99.752, -162.2372
2060.000000, 99.942, -162.0805
2090.000000, 100.107, -161.9238
2120.000000, 100.221, -161.8484
2140.000000, 100.291, -161.7065
2180.000000, 100.460, -161.0696
2200.000000, 100.563, -160.6729
2240.000000, 100.750, -160.2020
2270.000000, 100.862, -159.8799
2300.000000, 100.998, -159.2350
2330.000000, 101.180, -158.5493
2360.000000, 101.387, -158.1196
2400.000000, 101.716, -157.5146
2430.000000, 101.992, -157.5449
2470.000000, 102.297, -158.0210
2500.000000, 102.492, -158.5717
2540.000000, 102.705, -159.4224
2580.000000, 102.880, -160.0701
2620.000000, 103.033, -160.7041
2650.000000, 103.129, -161.2378
2690.000000, 103.242, -161.8095
2720.000000, 103.346, -162.1278
2760.000000, 103.518, -162.6545
2800.000000, 103.683, -163.5505
2850.000000, 103.801, -164.9832
2900.000000, 103.855, -166.0048
2950.000000, 103.919, -166.5317
3000.000000, 104.021, -167.3937
3040.000000, 104.084, -168.5253
3070.000000, 104.063, -169.3865
3110.000000, 103.977, -170.4277
3150.000000, 103.907, -171.2577
3200.000000, 103.869, -172.1460
3250.000000, 103.809, -172.8517
3300.000000, 103.738, -173.3830
3350.000000, 103.663, -174.0914
3400.000000, 103.529, -175.1201
3450.000000, 103.306, -175.8593
3500.000000, 103.059, -176.1542
3550.000000, 102.844, -176.1572
3600.000000, 102.660, -176.1922
3650.000000, 102.456, -176.2529
3700.000000, 102.227, -176.0481
3750.000000, 102.010, -175.4926
3820.000000, 101.730, -174.7264
3870.000000, 101.497, -174.0535
3950.000000, 101.032, -172.5394
4000.000000, 100.720, -171.3341
4060.000000, 100.373, -169.6475
4120.000000, 100.021, -167.4484
4180.000000, 99.669, -164.5093
4250.000000, 99.322, -160.3854
4310.000000, 99.077, -156.4846
4370.000000, 98.880, -151.7131
4440.000000, 98.875, -144.9572
4500.000000, 99.164, -139.2189
4550.000000, 99.566, -135.2323
4620.000000, 100.229, -131.2158
4680.000000, 100.802, -129.0586
4750.000000, 101.459, -127.4983
4820.000000, 102.124, -126.7787
4870.000000, 102.601, -126.7766
4940.000000, 103.253, -127.4303
5000.000000, 103.780, -128.5215
5080.000000, 104.455, -130.7573
5150.000000, 105.018, -133.6833
5220.000000, 105.532, -137.8235
5300.000000, 105.977, -144.3582
5380.000000, 106.164, -152.8328
5450.000000, 106.001, -161.4386
5520.000000, 105.425, -170.3169
5600.000000, 104.257, -179.3606
5700.000000, 102.263, 173.1760
5800.000000, 100.041, 170.5884
5900.000000, 97.832, 171.6313
6000.000000, 95.768, 175.4495
6080.000000, 94.276, 179.9023
6150.000000, 93.061, -175.4250
6220.000000, 91.946, -170.1564
6300.000000, 90.806, -163.8708
6400.000000, 89.529, -155.9077
6500.000000, 88.329, -147.9879
6600.000000, 87.073, -139.6248
6700.000000, 85.748, -129.6462
6800.000000, 84.492, -117.2755
6900.000000, 83.476, -102.0547
7000.000000, 82.919, -84.2745
7100.000000, 82.985, -65.9296
7200.000000, 83.646, -48.9418
7300.000000, 84.739, -34.5425
7400.000000, 86.056, -23.4346
7500.000000, 87.413, -15.3943
7620.000000, 88.990, -8.5506
7750.000000, 90.583, -3.6895
7880.000000, 91.941, -1.3431
8000.000000, 92.962, -1.4164
8120.000000, 93.676, -3.4058
8250.000000, 93.974, -7.0020
8380.000000, 93.727, -10.8048
8500.000000, 93.047, -13.0215
8620.000000, 92.025, -12.4117
8750.000000, 90.862, -7.6061
8850.000000, 90.185, -1.6273
9000.000000, 89.766, 6.9239
9120.000000, 89.630, 10.4323
9250.000000, 89.113, 11.3973
9380.000000, 87.917, 12.0649
9500.000000, 86.193, 15.4343
9620.000000, 84.072, 24.5562
9750.000000, 81.908, 44.2222
9880.000000, 80.936, 73.8777
10000.000000, 81.720, 101.2906
10150.000000, 83.991, 124.1056
10300.000000, 86.416, 136.3673
10440.000000, 88.386, 142.4388
10600.000000, 90.298, 146.0435
10750.000000, 91.829, 146.9109
10900.000000, 93.021, 144.6215
11060.000000, 93.584, 138.5946
11200.000000, 93.175, 132.4742
11380.000000, 91.351, 129.0643
11500.000000, 89.569, 133.7606
11720.000000, 87.376, 168.2858
11800.000000, 87.854, -175.2794
12060.000000, 91.902, -149.3181
12200.000000, 93.929, -147.4675
12410.000000, 96.195, -151.1887
12500.000000, 96.887, -154.4642
12650.000000, 97.614, -161.6216
12800.000000, 97.717, -169.8610
13150.000000, 95.679, 176.1929
13200.000000, 95.231, 175.3985
13400.000000, 93.357, 174.9397
13600.000000, 91.486, 177.4483
13800.000000, 89.657, -177.5360
14000.000000, 88.078, -169.8460
14300.000000, 87.009, -158.6056
14500.000000, 87.390, -157.5919
14750.000000, 88.894, -170.0112
15000.000000, 90.474, 160.6640
15250.000000, 90.716, 124.9391
15500.000000, 89.964, 98.4960
15750.000000, 89.362, 85.5378
16000.000000, 89.408, 81.9564
