* Measurement data measured by REW V5.31.3
* Source: Headset (DS by VECLAN.COM), MICROPHONE (Master Volume), L, volume: 0.720. Timing signal peak level -11.5 dBFS, measurement signal peak level -11.5 dBFS
* Format: 2M Log Swept Sine, 1 sweep at -12.0 dBFS using an acoustic timing reference
* Dated: Sep 1, 2024 1:36:12 PM
* REW Settings:
*  C-weighting compensation: Off
*  Target level: 85.0 dB
* Note: ; Delay -0.0658 ms (-23 mm, -0.89 in) using estimated IR delay relative to Acoustic reference played from HEADPHONE L with no timing offset
* Measurement: No Back Foam L2
* Smoothing: 1/24 octave
* Frequency Step: 1/48 octave
* Start Frequency: 1.000 Hz
*
* Freq(Hz), SPL(dB), Phase(degrees)
1.000000, 59.644, -18.4712
1.015000, 59.818, -18.8744
1.030000, 59.993, -19.2811
1.044000, 60.157, -19.6640
1.060000, 60.345, -20.1058
1.075000, 60.522, -20.5236
1.090000, 60.700, -20.9433
1.106000, 60.892, -21.3830
1.120000, 61.064, -21.7444
1.138000, 61.295, -22.1686
1.150000, 61.453, -22.4280
1.172000, 61.752, -22.8682
1.180000, 61.864, -23.0233
1.206000, 62.232, -23.4917
1.220000, 62.433, -23.7256
1.241000, 62.738, -24.0585
1.250000, 62.868, -24.1959
1.265000, 63.086, -24.4197
1.280000, 63.304, -24.6387
1.315000, 63.803, -25.1410
1.320000, 63.873, -25.2126
1.340000, 64.148, -25.5004
1.360000, 64.415, -25.7913
1.380000, 64.671, -26.1266
1.400000, 64.914, -26.4847
1.430000, 65.252, -27.0396
1.450000, 65.456, -27.4213
1.475000, 65.685, -27.8955
1.500000, 65.887, -28.3261
1.525000, 66.064, -28.7011
1.550000, 66.220, -29.0295
1.575000, 66.358, -29.3431
1.600000, 66.480, -29.6685
1.625000, 66.591, -29.9750
1.650000, 66.692, -30.2698
1.675000, 66.788, -30.5591
1.700000, 66.881, -30.8485
1.725000, 66.974, -31.1425
1.750000, 67.070, -31.4447
1.775000, 67.173, -31.7753
1.800000, 67.285, -32.1526
1.825000, 67.409, -32.5404
1.850000, 67.542, -32.9224
1.875000, 67.681, -33.2770
1.900000, 67.822, -33.6007
1.925000, 67.965, -33.8987
1.950000, 68.109, -34.1761
1.975000, 68.255, -34.4551
2.000000, 68.402, -34.7566
2.030000, 68.579, -35.1094
2.060000, 68.757, -35.4606
2.090000, 68.933, -35.8160
2.120000, 69.109, -36.1805
2.140000, 69.226, -36.4307
2.180000, 69.456, -36.9717
2.200000, 69.569, -37.2683
2.240000, 69.795, -37.8457
2.270000, 69.964, -38.2527
2.300000, 70.133, -38.6392
2.330000, 70.301, -39.0096
2.360000, 70.468, -39.3688
2.400000, 70.690, -39.8848
2.430000, 70.854, -40.2752
2.470000, 71.072, -40.7979
2.500000, 71.233, -41.1955
2.540000, 71.445, -41.7372
2.580000, 71.653, -42.3060
2.620000, 71.859, -42.9012
2.650000, 72.012, -43.3335
2.690000, 72.214, -43.8933
2.720000, 72.364, -44.3026
2.760000, 72.561, -44.8358
2.800000, 72.755, -45.4004
2.850000, 72.992, -46.1066
2.900000, 73.225, -46.8135
2.950000, 73.452, -47.5229
3.000000, 73.673, -48.2553
3.040000, 73.846, -48.8408
3.070000, 73.974, -49.2720
3.110000, 74.141, -49.8366
3.150000, 74.305, -50.3899
3.200000, 74.507, -51.0981
3.250000, 74.703, -51.8080
3.300000, 74.896, -52.5083
3.350000, 75.083, -53.1998
3.400000, 75.266, -53.9142
3.450000, 75.444, -54.6280
3.500000, 75.618, -55.3241
3.550000, 75.787, -55.9998
3.600000, 75.952, -56.6817
3.650000, 76.113, -57.3557
3.700000, 76.270, -58.0155
3.750000, 76.423, -58.6653
3.820000, 76.629, -59.5898
3.870000, 76.771, -60.2380
3.950000, 76.993, -61.2328
4.000000, 77.128, -61.8475
4.060000, 77.286, -62.5710
4.120000, 77.440, -63.2747
4.180000, 77.590, -63.9666
4.250000, 77.759, -64.7786
4.310000, 77.901, -65.4450
4.370000, 78.040, -66.0867
4.440000, 78.198, -66.8364
4.500000, 78.329, -67.4579
4.550000, 78.437, -67.9607
4.620000, 78.584, -68.6691
4.680000, 78.708, -69.2600
4.750000, 78.851, -69.9214
4.820000, 78.992, -70.5779
4.870000, 79.091, -71.0365
4.940000, 79.228, -71.6586
5.000000, 79.343, -72.1903
5.080000, 79.495, -72.8901
5.150000, 79.625, -73.4825
5.220000, 79.754, -74.0794
5.300000, 79.899, -74.7499
5.380000, 80.041, -75.4045
5.450000, 80.164, -75.9837
5.520000, 80.285, -76.5503
5.600000, 80.420, -77.1963
5.700000, 80.587, -78.0030
5.800000, 80.748, -78.7955
5.900000, 80.905, -79.5885
6.000000, 81.056, -80.3757
6.080000, 81.174, -81.0087
6.150000, 81.274, -81.5459
6.220000, 81.371, -82.0842
6.300000, 81.479, -82.6882
6.400000, 81.609, -83.4329
6.500000, 81.734, -84.1651
6.600000, 81.854, -84.8642
6.700000, 81.969, -85.5445
6.800000, 82.079, -86.1990
6.900000, 82.186, -86.8290
7.000000, 82.291, -87.4192
7.100000, 82.394, -87.9817
7.200000, 82.495, -88.5136
7.300000, 82.596, -89.0225
7.400000, 82.696, -89.5001
7.500000, 82.797, -89.9587
7.620000, 82.919, -90.4819
7.750000, 83.053, -91.0254
7.880000, 83.191, -91.5522
8.000000, 83.320, -92.0284
8.120000, 83.450, -92.5135
8.250000, 83.593, -93.0459
8.380000, 83.735, -93.5887
8.500000, 83.866, -94.1122
8.620000, 83.994, -94.6500
8.750000, 84.131, -95.2448
8.850000, 84.232, -95.7116
9.000000, 84.378, -96.4197
9.120000, 84.490, -96.9869
9.250000, 84.605, -97.5967
9.380000, 84.714, -98.1959
9.500000, 84.810, -98.7340
9.620000, 84.903, -99.2457
9.750000, 84.998, -99.7747
9.880000, 85.084, -100.2782
10.000000, 85.153, -100.7091
10.150000, 85.228, -101.2469
10.300000, 85.297, -101.7431
10.440000, 85.357, -102.1720
10.600000, 85.427, -102.6352
10.750000, 85.496, -103.0539
10.900000, 85.567, -103.4629
11.060000, 85.647, -103.9267
11.200000, 85.718, -104.3741
11.380000, 85.806, -104.9521
11.500000, 85.862, -105.3393
11.720000, 85.958, -106.0407
11.800000, 85.991, -106.2898
12.060000, 86.095, -107.0888
12.200000, 86.150, -107.5289
12.410000, 86.230, -108.1394
12.500000, 86.262, -108.3803
12.650000, 86.315, -108.7545
12.800000, 86.368, -109.0980
13.150000, 86.497, -109.8537
13.200000, 86.517, -109.9642
13.400000, 86.599, -110.3947
13.600000, 86.685, -110.8186
13.800000, 86.772, -111.2458
14.000000, 86.859, -111.6866
14.300000, 86.985, -112.4422
14.500000, 87.063, -112.9488
14.750000, 87.152, -113.5641
15.000000, 87.234, -114.1455
15.250000, 87.316, -114.7323
15.500000, 87.397, -115.2647
15.750000, 87.477, -115.7437
16.000000, 87.559, -116.1829
16.250000, 87.644, -116.6458
16.500000, 87.732, -117.1044
16.750000, 87.821, -117.5719
17.000000, 87.910, -118.0575
17.250000, 87.996, -118.5856
17.500000, 88.077, -119.1182
17.750000, 88.150, -119.6358
18.000000, 88.218, -120.1262
18.250000, 88.282, -120.5991
18.500000, 88.345, -121.0308
18.750000, 88.410, -121.4246
19.000000, 88.479, -121.7934
19.250000, 88.552, -122.1789
19.500000, 88.628, -122.5693
19.750000, 88.704, -122.9722
20.000000, 88.779, -123.3887
20.299999, 88.863, -123.9282
20.600000, 88.942, -124.4616
20.900000, 89.015, -124.9723
21.200001, 89.084, -125.4694
21.400000, 89.129, -125.7882
21.799999, 89.218, -126.3860
22.000000, 89.263, -126.6722
22.400000, 89.354, -127.2648
22.700001, 89.423, -127.7092
23.000000, 89.492, -128.1635
23.299999, 89.558, -128.6502
23.600000, 89.620, -129.1474
24.000000, 89.692, -129.8037
24.299999, 89.740, -130.2856
24.700001, 89.796, -130.8583
25.000000, 89.838, -131.2280
25.400000, 89.900, -131.6887
25.799999, 89.971, -132.1440
26.200001, 90.045, -132.6581
26.500000, 90.097, -133.0897
26.900000, 90.154, -133.6848
27.200001, 90.188, -134.1198
27.600000, 90.225, -134.6434
28.000000, 90.261, -135.0912
28.500000, 90.309, -135.6011
29.000000, 90.361, -136.0904
29.500000, 90.411, -136.5764
30.000000, 90.458, -137.0170
30.400000, 90.496, -137.3427
30.700001, 90.528, -137.5700
31.100000, 90.573, -137.8659
31.500000, 90.622, -138.1721
32.000000, 90.689, -138.5582
32.500000, 90.760, -138.9806
33.000000, 90.835, -139.4529
33.500000, 90.905, -139.9984
34.000000, 90.968, -140.5819
34.500000, 91.020, -141.1715
35.000000, 91.064, -141.7336
35.500000, 91.103, -142.2735
36.000000, 91.138, -142.7940
36.500000, 91.169, -143.3050
37.000000, 91.195, -143.8033
37.500000, 91.218, -144.2982
38.200001, 91.241, -144.9760
38.700001, 91.252, -145.4402
39.500000, 91.262, -146.1015
40.000000, 91.273, -146.4645
40.599998, 91.293, -146.9075
41.200001, 91.314, -147.3914
41.799999, 91.326, -147.8934
42.500000, 91.327, -148.3970
43.099998, 91.327, -148.7003
43.700001, 91.337, -148.9050
44.400002, 91.364, -149.0820
45.000000, 91.400, -149.2391
45.500000, 91.434, -149.4143
46.200001, 91.477, -149.7487
46.799999, 91.499, -150.0741
47.500000, 91.505, -150.3846
48.200001, 91.509, -150.5647
48.700001, 91.519, -150.6460
49.400002, 91.546, -150.7671
50.000000, 91.576, -150.9183
50.799999, 91.617, -151.1975
51.500000, 91.651, -151.4838
52.200001, 91.686, -151.7785
53.000000, 91.731, -152.1139
53.799999, 91.787, -152.5184
54.500000, 91.837, -153.0178
55.200001, 91.866, -153.6442
56.000000, 91.860, -154.3242
57.000000, 91.832, -154.9771
58.000000, 91.784, -155.5928
59.000000, 91.690, -155.9495
60.000000, 91.606, -155.9171
60.799999, 91.552, -155.7707
61.500000, 91.508, -155.4947
62.200001, 91.489, -155.0502
63.000000, 91.513, -154.4982
64.000000, 91.593, -154.0002
65.000000, 91.697, -153.7688
66.000000, 91.803, -153.7688
67.000000, 91.896, -153.9324
68.000000, 91.973, -154.1548
69.000000, 92.044, -154.4098
70.000000, 92.106, -154.7126
71.000000, 92.161, -155.0148
72.000000, 92.217, -155.3478
73.000000, 92.267, -155.7387
74.000000, 92.306, -156.1431
75.000000, 92.336, -156.5104
76.199997, 92.368, -156.8973
77.500000, 92.402, -157.2659
78.800003, 92.438, -157.6125
80.000000, 92.473, -157.9465
81.199997, 92.509, -158.3034
82.500000, 92.545, -158.7169
83.800003, 92.577, -159.1386
85.000000, 92.602, -159.5397
86.199997, 92.623, -159.9351
87.500000, 92.640, -160.3685
88.500000, 92.650, -160.7011
90.000000, 92.657, -161.1908
91.199997, 92.657, -161.5641
92.500000, 92.653, -161.9348
93.800003, 92.644, -162.2578
95.000000, 92.634, -162.5050
96.199997, 92.624, -162.7153
97.500000, 92.616, -162.9370
98.800003, 92.606, -163.1665
100.000000, 92.596, -163.3800
101.500000, 92.575, -163.6598
103.000000, 92.538, -163.8530
104.400002, 92.498, -163.8844
106.000000, 92.458, -163.6881
107.500000, 92.451, -163.3309
109.000000, 92.489, -163.0035
110.599998, 92.566, -162.9384
112.000000, 92.628, -163.1582
113.800003, 92.678, -163.5234
115.000000, 92.703, -163.7563
117.199997, 92.737, -164.2085
118.000000, 92.745, -164.3851
120.599998, 92.762, -164.8639
122.000000, 92.772, -165.1068
124.099998, 92.784, -165.4216
125.000000, 92.787, -165.5574
126.500000, 92.786, -165.7775
128.000000, 92.780, -165.9828
131.500000, 92.766, -166.4003
132.000000, 92.766, -166.4526
134.000000, 92.769, -166.6696
136.000000, 92.772, -166.8813
138.000000, 92.776, -167.0925
140.000000, 92.777, -167.3036
143.000000, 92.769, -167.5929
145.000000, 92.756, -167.7333
147.500000, 92.738, -167.8503
150.000000, 92.726, -167.8846
152.500000, 92.729, -167.8927
155.000000, 92.742, -167.9443
157.500000, 92.756, -168.0631
160.000000, 92.767, -168.2547
162.500000, 92.769, -168.4733
165.000000, 92.763, -168.6689
167.500000, 92.748, -168.8373
170.000000, 92.725, -168.9309
172.500000, 92.701, -168.9780
175.000000, 92.681, -168.9976
177.500000, 92.667, -168.9996
180.000000, 92.658, -169.0054
182.500000, 92.653, -169.0295
185.000000, 92.649, -169.0437
187.500000, 92.646, -169.0586
190.000000, 92.643, -169.0832
192.500000, 92.642, -169.1268
195.000000, 92.640, -169.1861
197.500000, 92.635, -169.2373
200.000000, 92.627, -169.2960
203.000000, 92.617, -169.3758
206.000000, 92.603, -169.4434
209.000000, 92.583, -169.4725
212.000000, 92.558, -169.4248
214.000000, 92.547, -169.3300
218.000000, 92.543, -169.1392
220.000000, 92.546, -169.0690
224.000000, 92.553, -169.0154
227.000000, 92.556, -168.9972
230.000000, 92.557, -168.9897
233.000000, 92.557, -169.0051
236.000000, 92.554, -169.0063
240.000000, 92.548, -169.0063
243.000000, 92.544, -169.0230
247.000000, 92.538, -169.0236
250.000000, 92.530, -168.9812
254.000000, 92.518, -168.9261
258.000000, 92.507, -168.8931
262.000000, 92.494, -168.8565
265.000000, 92.481, -168.8179
269.000000, 92.461, -168.7517
272.000000, 92.444, -168.6650
276.000000, 92.422, -168.4847
280.000000, 92.406, -168.2077
285.000000, 92.411, -167.7472
290.000000, 92.449, -167.3488
295.000000, 92.491, -167.2215
300.000000, 92.522, -167.2322
304.000000, 92.538, -167.2694
307.000000, 92.545, -167.2813
311.000000, 92.549, -167.2740
315.000000, 92.549, -167.2383
320.000000, 92.546, -167.1662
325.000000, 92.542, -167.0540
330.000000, 92.538, -166.9189
335.000000, 92.536, -166.7773
340.000000, 92.535, -166.6194
345.000000, 92.532, -166.4740
350.000000, 92.526, -166.3035
355.000000, 92.521, -166.1196
360.000000, 92.520, -165.9028
365.000000, 92.525, -165.6784
370.000000, 92.533, -165.4732
375.000000, 92.541, -165.2876
382.000000, 92.553, -165.0503
387.000000, 92.563, -164.9189
395.000000, 92.571, -164.7645
400.000000, 92.568, -164.6526
406.000000, 92.563, -164.4723
412.000000, 92.560, -164.3106
418.000000, 92.551, -164.1369
425.000000, 92.536, -163.8708
431.000000, 92.533, -163.5900
437.000000, 92.531, -163.3556
444.000000, 92.522, -163.0651
450.000000, 92.518, -162.7500
455.000000, 92.520, -162.4620
462.000000, 92.529, -162.1163
468.000000, 92.539, -161.8165
475.000000, 92.554, -161.4922
482.000000, 92.569, -161.2061
487.000000, 92.578, -161.0022
494.000000, 92.592, -160.6824
500.000000, 92.609, -160.3960
508.000000, 92.637, -160.0647
515.000000, 92.659, -159.8117
522.000000, 92.681, -159.5442
530.000000, 92.707, -159.2624
538.000000, 92.727, -159.0229
545.000000, 92.741, -158.7928
552.000000, 92.756, -158.5376
560.000000, 92.774, -158.2524
570.000000, 92.797, -157.8657
580.000000, 92.821, -157.4987
590.000000, 92.838, -157.0747
600.000000, 92.872, -156.5717
608.000000, 92.914, -156.2189
615.000000, 92.952, -155.9797
622.000000, 92.989, -155.7991
630.000000, 93.029, -155.6764
640.000000, 93.067, -155.6520
650.000000, 93.080, -155.7202
660.000000, 93.061, -155.8041
670.000000, 93.009, -155.7239
680.000000, 92.941, -155.3952
690.000000, 92.881, -154.8361
700.000000, 92.836, -154.1650
710.000000, 92.805, -153.3862
720.000000, 92.789, -152.5330
730.000000, 92.787, -151.6051
740.000000, 92.813, -150.6049
750.000000, 92.864, -149.6547
762.000000, 92.947, -148.6217
775.000000, 93.058, -147.6035
788.000000, 93.190, -146.7561
800.000000, 93.317, -146.2001
812.000000, 93.434, -145.7762
825.000000, 93.551, -145.4388
838.000000, 93.644, -145.1753
850.000000, 93.725, -144.8421
862.000000, 93.817, -144.5271
875.000000, 93.917, -144.3098
885.000000, 93.986, -144.2431
900.000000, 94.059, -144.1919
912.000000, 94.099, -144.0354
925.000000, 94.152, -143.7575
938.000000, 94.215, -143.5473
950.000000, 94.269, -143.3673
962.000000, 94.319, -143.2687
975.000000, 94.352, -143.1590
988.000000, 94.373, -142.9242
1000.000000, 94.398, -142.6159
1015.000000, 94.441, -142.2009
1030.000000, 94.500, -141.7425
1044.000000, 94.573, -141.4179
1060.000000, 94.648, -141.2351
1075.000000, 94.693, -140.9747
1090.000000, 94.778, -140.5593
1106.000000, 94.898, -140.5276
1120.000000, 94.964, -140.7027
1138.000000, 94.997, -140.6963
1150.000000, 95.028, -140.4812
1172.000000, 95.098, -140.2197
1180.000000, 95.123, -140.0841
1206.000000, 95.209, -139.7255
1220.000000, 95.247, -139.4095
1241.000000, 95.384, -138.6977
1250.000000, 95.468, -138.6810
1265.000000, 95.556, -139.0324
1280.000000, 95.575, -139.2468
1315.000000, 95.582, -138.5303
1320.000000, 95.600, -138.2950
1340.000000, 95.740, -137.6597
1360.000000, 95.851, -137.8541
1380.000000, 95.869, -138.1055
1400.000000, 95.880, -138.0947
1430.000000, 95.832, -137.6159
1450.000000, 95.887, -136.7399
1475.000000, 96.001, -136.3567
1500.000000, 96.042, -136.1315
1525.000000, 96.095, -135.3493
1550.000000, 96.204, -135.0586
1575.000000, 96.207, -134.8120
1600.000000, 96.246, -133.7009
1625.000000, 96.391, -132.8862
1650.000000, 96.565, -132.6298
1675.000000, 96.641, -133.1178
1700.000000, 96.618, -132.8557
1725.000000, 96.664, -132.0309
1750.000000, 96.795, -131.5810
1775.000000, 96.870, -131.6293
1800.000000, 96.909, -131.4958
1825.000000, 96.933, -131.2755
1850.000000, 96.951, -130.8406
1875.000000, 96.993, -130.3156
1900.000000, 97.043, -129.8639
1925.000000, 97.091, -129.3429
1950.000000, 97.150, -128.8462
1975.000000, 97.206, -128.3560
2000.000000, 97.261, -127.8369
2030.000000, 97.345, -127.0022
2060.000000, 97.493, -126.2970
2090.000000, 97.635, -126.2430
2120.000000, 97.660, -126.0752
2140.000000, 97.702, -125.4384
2180.000000, 97.941, -124.7580
2200.000000, 98.013, -125.0445
2240.000000, 98.016, -124.8233
2270.000000, 98.079, -124.0757
2300.000000, 98.164, -123.6557
2330.000000, 98.226, -123.0804
2360.000000, 98.317, -122.3651
2400.000000, 98.472, -121.4052
2430.000000, 98.634, -120.6285
2470.000000, 98.906, -120.1659
2500.000000, 99.084, -120.1035
2540.000000, 99.319, -120.0172
2580.000000, 99.578, -120.3897
2620.000000, 99.756, -121.0922
2650.000000, 99.881, -121.4857
2690.000000, 100.045, -122.2593
2720.000000, 100.120, -123.0197
2760.000000, 100.167, -123.7760
2800.000000, 100.208, -124.2688
2850.000000, 100.257, -124.6610
2900.000000, 100.369, -124.9321
2950.000000, 100.486, -125.7219
3000.000000, 100.566, -126.5330
3040.000000, 100.622, -127.3241
3070.000000, 100.654, -127.9925
3110.000000, 100.662, -129.0438
3150.000000, 100.619, -129.9530
3200.000000, 100.548, -130.8442
3250.000000, 100.458, -131.6898
3300.000000, 100.349, -132.1552
3350.000000, 100.276, -132.6127
3400.000000, 100.181, -133.1152
3450.000000, 100.102, -133.4991
3500.000000, 100.021, -134.0770
3550.000000, 99.906, -134.6392
3600.000000, 99.769, -135.1403
3650.000000, 99.613, -135.5847
3700.000000, 99.420, -135.8542
3750.000000, 99.243, -135.8443
3820.000000, 98.984, -135.9671
3870.000000, 98.786, -135.9646
3950.000000, 98.397, -136.0969
4000.000000, 98.098, -135.9025
4060.000000, 97.698, -135.4555
4120.000000, 97.204, -134.5228
4180.000000, 96.656, -132.4727
4250.000000, 96.040, -128.3244
4310.000000, 95.699, -123.2279
4370.000000, 95.587, -117.7620
4440.000000, 95.739, -111.6469
4500.000000, 96.034, -107.2443
4550.000000, 96.368, -104.0006
4620.000000, 96.958, -100.6115
4680.000000, 97.493, -98.8275
4750.000000, 98.110, -97.9674
4820.000000, 98.636, -98.2389
4870.000000, 98.932, -98.8949
4940.000000, 99.217, -99.9583
5000.000000, 99.381, -100.6365
5080.000000, 99.568, -101.1010
5150.000000, 99.756, -101.2876
5220.000000, 99.967, -101.4919
5300.000000, 100.248, -101.8269
5380.000000, 100.587, -102.4457
5450.000000, 100.934, -103.4754
5520.000000, 101.312, -105.1879
5600.000000, 101.740, -108.1932
5700.000000, 102.149, -113.7510
5800.000000, 102.272, -120.9491
5900.000000, 101.998, -128.8387
6000.000000, 101.303, -136.3881
6080.000000, 100.475, -141.3995
6150.000000, 99.603, -144.6588
6220.000000, 98.650, -146.8087
6300.000000, 97.520, -147.8140
6400.000000, 96.137, -147.1665
6500.000000, 94.872, -144.8144
6600.000000, 93.763, -141.3892
6700.000000, 92.794, -137.4394
6800.000000, 91.919, -133.1579
6900.000000, 91.116, -128.3661
7000.000000, 90.399, -122.7707
7100.000000, 89.817, -116.3108
7200.000000, 89.427, -109.3389
7300.000000, 89.253, -102.2208
7400.000000, 89.289, -95.5551
7500.000000, 89.487, -89.8144
7620.000000, 89.835, -84.3878
7750.000000, 90.257, -79.8131
7880.000000, 90.638, -76.3167
8000.000000, 90.969, -74.2742
8120.000000, 91.233, -73.6352
8250.000000, 91.317, -74.3472
8380.000000, 91.080, -75.6458
8500.000000, 90.551, -76.3764
8620.000000, 89.786, -75.5689
8750.000000, 88.808, -72.2733
8850.000000, 88.086, -67.2457
9000.000000, 87.619, -56.1103
9120.000000, 88.042, -48.4043
9250.000000, 88.763, -45.5087
9380.000000, 89.105, -46.7460
9500.000000, 88.926, -48.9064
9620.000000, 88.326, -50.3387
9750.000000, 87.297, -49.7485
9880.000000, 86.062, -45.6731
10000.000000, 84.994, -38.1614
10150.000000, 84.181, -24.7876
10300.000000, 84.189, -10.2564
10440.000000, 84.830, 1.9485
10600.000000, 86.156, 13.1364
10750.000000, 87.845, 19.4260
10900.000000, 89.622, 19.8592
11060.000000, 91.046, 13.9028
11200.000000, 91.478, 5.3585
11380.000000, 90.711, -5.2556
11500.000000, 89.516, -9.3503
11720.000000, 86.626, -6.7471
11800.000000, 85.576, -1.9819
12060.000000, 83.628, 27.1313
12200.000000, 84.283, 46.1253
12410.000000, 87.145, 65.2508
12500.000000, 88.641, 68.5659
12650.000000, 91.021, 67.9961
12800.000000, 92.875, 61.0579
