* Measurement data measured by REW V5.31
* Source: Headset (DS by VECLAN.COM), MICROPHONE (Master Volume), L, volume: 0.720. Timing signal peak level -13.7 dBFS, measurement signal peak level -9.9 dBFS
* Format: 2M Log Swept Sine, 1 sweep at -12.0 dBFS using an acoustic timing reference
* Dated: Apr 28, 2024 12:04:25 PM
* REW Settings:
*  C-weighting compensation: Off
*  Target level: 85.0 dB
* Note: ; Delay -0.0380 ms (-13 mm, -0.51 in) using estimated IR delay relative to Acoustic reference played from SPEAKER L with no timing offset Clock adjustment: -12.6 ppm
* Measurement: Sennheiser HD600 S1 L3
* Smoothing: 1/24 octave
* Frequency Step: 1/48 octave
* Start Frequency: 1.000 Hz
*
* Freq(Hz), SPL(dB), Phase(degrees)
1.000000, 65.571, -51.5071
1.015000, 65.774, -48.9029
1.030000, 65.972, -46.6564
1.044000, 66.150, -44.8448
1.060000, 66.342, -43.0718
1.075000, 66.509, -41.6646
1.090000, 66.662, -40.4743
1.106000, 66.813, -39.4044
1.120000, 66.943, -38.5960
1.138000, 67.115, -37.6935
1.150000, 67.232, -37.1649
1.172000, 67.452, -36.3241
1.180000, 67.533, -36.0541
1.206000, 67.799, -35.2876
1.220000, 67.943, -34.9352
1.241000, 68.160, -34.4718
1.250000, 68.253, -34.2940
1.265000, 68.406, -34.0219
1.280000, 68.559, -33.7765
1.315000, 68.904, -33.2903
1.320000, 68.952, -33.2292
1.340000, 69.140, -33.0030
1.360000, 69.320, -32.8008
1.380000, 69.491, -32.6692
1.400000, 69.651, -32.5760
1.430000, 69.869, -32.4698
1.450000, 69.997, -32.4210
1.475000, 70.137, -32.3916
1.500000, 70.256, -32.4130
1.525000, 70.358, -32.4840
1.550000, 70.443, -32.5935
1.575000, 70.513, -32.7491
1.600000, 70.570, -32.9563
1.625000, 70.616, -33.1748
1.650000, 70.652, -33.3984
1.675000, 70.679, -33.6221
1.700000, 70.700, -33.8417
1.725000, 70.715, -34.0538
1.750000, 70.726, -34.2556
1.775000, 70.736, -34.4659
1.800000, 70.745, -34.7034
1.825000, 70.754, -34.9299
1.850000, 70.761, -35.1642
1.875000, 70.764, -35.4269
1.900000, 70.761, -35.7194
1.925000, 70.753, -36.0351
1.950000, 70.739, -36.3662
1.975000, 70.720, -36.7188
2.000000, 70.698, -37.0990
2.030000, 70.665, -37.5479
2.060000, 70.628, -37.9810
2.090000, 70.586, -38.3891
2.120000, 70.540, -38.7638
2.140000, 70.508, -38.9912
2.180000, 70.441, -39.4134
2.200000, 70.406, -39.6245
2.240000, 70.329, -40.0380
2.270000, 70.265, -40.3608
2.300000, 70.195, -40.6925
2.330000, 70.121, -41.0265
2.360000, 70.044, -41.3560
2.400000, 69.936, -41.8205
2.430000, 69.853, -42.1497
2.470000, 69.741, -42.5392
2.500000, 69.657, -42.7835
2.540000, 69.545, -43.0316
2.580000, 69.434, -43.2052
2.620000, 69.319, -43.3502
2.650000, 69.228, -43.4327
2.690000, 69.105, -43.5102
2.720000, 69.012, -43.5424
2.760000, 68.889, -43.5454
2.800000, 68.769, -43.5512
2.850000, 68.628, -43.4870
2.900000, 68.502, -43.3194
2.950000, 68.390, -43.0291
3.000000, 68.287, -42.6496
3.040000, 68.210, -42.2773
3.070000, 68.156, -41.9573
3.110000, 68.090, -41.4870
3.150000, 68.034, -40.9792
3.200000, 67.981, -40.3564
3.250000, 67.951, -39.7385
3.300000, 67.946, -39.1083
3.350000, 67.967, -38.4211
3.400000, 68.011, -37.6999
3.450000, 68.076, -36.9564
3.500000, 68.160, -36.2187
3.550000, 68.261, -35.5290
3.600000, 68.378, -34.9569
3.650000, 68.510, -34.5059
3.700000, 68.660, -34.1358
3.750000, 68.830, -33.7990
3.820000, 69.098, -33.4200
3.870000, 69.304, -33.2275
3.950000, 69.649, -33.0967
4.000000, 69.867, -33.1901
4.060000, 70.130, -33.4536
4.120000, 70.402, -33.8121
4.180000, 70.681, -34.2493
4.250000, 71.011, -34.8867
4.310000, 71.289, -35.4988
4.370000, 71.559, -36.1812
4.440000, 71.862, -37.1056
4.500000, 72.113, -37.9621
4.550000, 72.318, -38.7031
4.620000, 72.599, -39.7909
4.680000, 72.832, -40.7325
4.750000, 73.097, -41.8240
4.820000, 73.353, -42.9467
4.870000, 73.530, -43.7656
4.940000, 73.772, -44.9110
5.000000, 73.972, -45.8909
5.080000, 74.229, -47.1555
5.150000, 74.444, -48.2021
5.220000, 74.650, -49.2470
5.300000, 74.875, -50.4177
5.380000, 75.090, -51.5294
5.450000, 75.273, -52.4530
5.520000, 75.451, -53.3008
5.600000, 75.647, -54.2092
5.700000, 75.883, -55.2696
5.800000, 76.116, -56.2260
5.900000, 76.352, -57.0809
6.000000, 76.588, -57.8265
6.080000, 76.778, -58.3743
6.150000, 76.945, -58.8074
6.220000, 77.113, -59.2325
6.300000, 77.305, -59.6754
6.400000, 77.548, -60.1722
6.500000, 77.793, -60.6504
6.600000, 78.044, -61.1165
6.700000, 78.301, -61.5763
6.800000, 78.563, -62.0230
6.900000, 78.826, -62.4961
7.000000, 79.088, -63.0007
7.100000, 79.350, -63.5356
7.200000, 79.611, -64.0968
7.300000, 79.868, -64.7089
7.400000, 80.120, -65.3684
7.500000, 80.366, -66.0767
7.620000, 80.653, -66.9779
7.750000, 80.948, -68.0250
7.880000, 81.228, -69.1585
8.000000, 81.468, -70.2344
8.120000, 81.686, -71.3362
8.250000, 81.898, -72.5610
8.380000, 82.087, -73.7761
8.500000, 82.243, -74.8739
8.620000, 82.382, -75.9547
8.750000, 82.511, -77.0679
8.850000, 82.595, -77.8779
9.000000, 82.696, -79.0074
9.120000, 82.761, -79.8122
9.250000, 82.817, -80.5519
9.380000, 82.862, -81.1579
9.500000, 82.901, -81.5962
9.620000, 82.942, -81.8999
9.750000, 82.989, -82.0951
9.880000, 83.040, -82.1876
10.000000, 83.091, -82.1827
10.150000, 83.166, -82.1353
10.300000, 83.258, -82.0743
10.440000, 83.363, -82.0330
10.600000, 83.501, -82.0699
10.750000, 83.646, -82.2400
10.900000, 83.798, -82.5402
11.060000, 83.952, -83.0495
11.200000, 84.077, -83.6632
11.380000, 84.212, -84.5494
11.500000, 84.282, -85.1813
11.720000, 84.372, -86.3176
11.800000, 84.393, -86.6940
12.060000, 84.429, -87.7197
12.200000, 84.438, -88.0966
12.410000, 84.454, -88.3949
12.500000, 84.466, -88.4266
12.650000, 84.499, -88.3646
12.800000, 84.554, -88.2154
13.150000, 84.778, -87.8671
13.200000, 84.820, -87.8545
13.400000, 85.006, -87.9205
13.600000, 85.203, -88.2065
13.800000, 85.394, -88.7147
14.000000, 85.560, -89.3768
14.300000, 85.753, -90.5309
14.500000, 85.845, -91.2339
14.750000, 85.940, -91.9296
15.000000, 86.039, -92.4058
15.250000, 86.172, -92.7919
15.500000, 86.340, -93.2248
15.750000, 86.531, -93.8602
16.000000, 86.716, -94.7955
16.250000, 86.863, -96.0097
16.500000, 86.951, -97.3410
16.750000, 86.970, -98.5758
17.000000, 86.936, -99.4932
17.250000, 86.881, -99.9797
17.500000, 86.846, -99.9626
17.750000, 86.876, -99.5823
18.000000, 86.989, -99.1059
18.250000, 87.179, -98.8350
18.500000, 87.411, -98.9647
18.750000, 87.644, -99.5265
19.000000, 87.844, -100.4243
19.250000, 87.992, -101.4877
19.500000, 88.092, -102.4933
19.750000, 88.160, -103.2938
20.000000, 88.224, -103.8288
20.299999, 88.331, -104.2325
20.600000, 88.489, -104.5727
20.900000, 88.683, -105.0990
21.200001, 88.876, -105.9472
21.400000, 88.982, -106.6578
21.799999, 89.111, -108.1497
22.000000, 89.135, -108.7886
22.400000, 89.138, -109.5971
22.700001, 89.146, -109.7465
23.000000, 89.191, -109.6475
23.299999, 89.282, -109.5295
23.600000, 89.399, -109.5673
24.000000, 89.546, -109.9480
24.299999, 89.618, -110.3820
24.700001, 89.656, -110.8481
25.000000, 89.665, -110.9545
25.400000, 89.694, -110.7565
25.799999, 89.787, -110.3961
26.200001, 89.945, -110.2590
26.500000, 90.083, -110.4571
26.900000, 90.251, -111.1156
27.200001, 90.347, -111.8083
27.600000, 90.433, -112.7784
28.000000, 90.490, -113.6150
28.500000, 90.572, -114.4297
29.000000, 90.697, -115.2134
29.500000, 90.842, -116.2284
30.000000, 90.965, -117.3816
30.400000, 91.040, -118.2002
30.700001, 91.093, -118.6856
31.100000, 91.179, -119.1796
31.500000, 91.296, -119.6263
32.000000, 91.470, -120.3071
32.500000, 91.631, -121.2118
33.000000, 91.746, -122.1720
33.500000, 91.820, -122.9707
34.000000, 91.883, -123.5328
34.500000, 91.953, -123.9590
35.000000, 92.025, -124.3854
35.500000, 92.083, -124.8225
36.000000, 92.128, -125.1851
36.500000, 92.175, -125.4676
37.000000, 92.240, -125.7499
37.500000, 92.315, -126.1553
38.200001, 92.408, -126.9097
38.700001, 92.464, -127.4554
39.500000, 92.575, -128.3359
40.000000, 92.655, -129.0397
40.599998, 92.727, -130.0320
41.200001, 92.760, -130.9212
41.799999, 92.790, -131.5245
42.500000, 92.870, -132.0751
43.099998, 92.961, -132.6968
43.700001, 93.032, -133.4590
44.400002, 93.075, -134.2568
45.000000, 93.107, -134.7429
45.500000, 93.147, -135.1026
46.200001, 93.215, -135.7334
46.799999, 93.252, -136.3912
47.500000, 93.258, -137.0645
48.200001, 93.264, -137.4780
48.700001, 93.288, -137.7015
49.400002, 93.338, -138.1054
50.000000, 93.380, -138.5508
50.799999, 93.421, -139.2054
51.500000, 93.437, -139.7413
52.200001, 93.439, -140.1555
53.000000, 93.438, -140.4745
53.799999, 93.440, -140.5983
54.500000, 93.461, -140.5604
55.200001, 93.515, -140.5483
56.000000, 93.591, -140.6821
57.000000, 93.699, -141.0449
58.000000, 93.804, -141.7986
59.000000, 93.859, -142.6108
60.000000, 93.927, -143.3071
60.799999, 93.976, -143.9762
61.500000, 94.010, -144.5150
62.200001, 94.052, -145.0500
63.000000, 94.095, -145.7560
64.000000, 94.123, -146.6833
65.000000, 94.123, -147.7619
66.000000, 94.053, -148.7881
67.000000, 93.970, -149.4782
68.000000, 93.886, -150.1732
69.000000, 93.760, -150.5658
70.000000, 93.670, -150.3388
71.000000, 93.637, -149.9091
72.000000, 93.643, -149.0298
73.000000, 93.779, -148.0934
74.000000, 93.920, -148.0594
75.000000, 93.947, -147.8756
76.199997, 94.066, -147.1604
77.500000, 94.222, -147.3923
78.800003, 94.313, -147.9174
80.000000, 94.395, -148.4421
81.199997, 94.489, -149.1498
82.500000, 94.550, -150.0018
83.800003, 94.602, -150.5389
85.000000, 94.668, -151.0329
86.199997, 94.718, -151.6906
87.500000, 94.732, -152.3501
88.500000, 94.746, -152.7093
90.000000, 94.792, -153.3199
91.199997, 94.825, -153.8996
92.500000, 94.852, -154.5065
93.800003, 94.869, -155.0778
95.000000, 94.878, -155.5401
96.199997, 94.891, -155.9805
97.500000, 94.909, -156.4846
98.800003, 94.924, -157.0114
100.000000, 94.938, -157.4829
101.500000, 94.947, -158.0741
103.000000, 94.929, -158.6573
104.400002, 94.887, -158.9898
106.000000, 94.849, -159.1138
107.500000, 94.837, -159.1929
109.000000, 94.839, -159.3217
110.599998, 94.838, -159.5440
112.000000, 94.837, -159.6734
113.800003, 94.847, -159.8661
115.000000, 94.859, -159.9992
117.199997, 94.914, -160.3877
118.000000, 94.928, -160.6460
120.599998, 94.930, -161.2477
122.000000, 94.941, -161.5004
124.099998, 94.975, -161.9024
125.000000, 94.998, -162.1342
126.500000, 95.030, -162.5982
128.000000, 95.050, -163.0424
131.500000, 95.062, -163.7462
132.000000, 95.061, -163.8250
134.000000, 95.051, -164.1441
136.000000, 95.041, -164.4814
138.000000, 95.023, -164.9440
140.000000, 94.988, -165.3250
143.000000, 94.965, -165.5862
145.000000, 94.988, -165.8041
147.500000, 95.009, -166.2175
150.000000, 95.006, -166.7146
152.500000, 94.962, -167.0643
155.000000, 94.935, -167.1957
157.500000, 94.921, -167.4479
160.000000, 94.906, -167.7425
162.500000, 94.903, -168.0171
165.000000, 94.895, -168.1773
167.500000, 94.873, -168.2677
170.000000, 94.846, -168.4282
172.500000, 94.830, -168.7666
175.000000, 94.815, -169.1478
177.500000, 94.788, -169.4789
180.000000, 94.748, -169.8227
182.500000, 94.698, -170.0728
185.000000, 94.649, -170.1875
187.500000, 94.617, -170.2185
190.000000, 94.589, -170.2850
192.500000, 94.558, -170.2979
195.000000, 94.528, -170.2448
197.500000, 94.507, -170.2875
200.000000, 94.473, -170.4289
203.000000, 94.427, -170.5230
206.000000, 94.393, -170.5300
209.000000, 94.373, -170.3348
212.000000, 94.354, -170.1173
214.000000, 94.340, -170.0181
218.000000, 94.353, -170.0184
220.000000, 94.371, -170.0259
224.000000, 94.358, -169.9962
227.000000, 94.328, -170.0763
230.000000, 94.304, -170.2368
233.000000, 94.294, -170.1870
236.000000, 94.287, -170.0694
240.000000, 94.276, -170.0503
243.000000, 94.279, -170.2085
247.000000, 94.300, -170.4588
250.000000, 94.265, -170.4046
254.000000, 94.226, -170.1680
258.000000, 94.228, -170.0742
262.000000, 94.219, -169.9807
265.000000, 94.187, -169.9676
269.000000, 94.150, -169.8199
272.000000, 94.124, -169.6956
276.000000, 94.090, -169.6425
280.000000, 94.071, -169.4846
285.000000, 94.056, -169.2843
290.000000, 94.030, -169.2713
295.000000, 94.015, -169.2561
300.000000, 94.020, -168.9711
304.000000, 94.015, -168.7791
307.000000, 94.006, -168.6328
311.000000, 93.997, -168.3827
315.000000, 93.998, -168.1438
320.000000, 94.015, -167.8716
325.000000, 94.019, -167.6083
330.000000, 94.028, -167.4359
335.000000, 94.041, -167.3877
340.000000, 94.050, -167.3031
345.000000, 94.041, -167.0774
350.000000, 94.023, -166.9040
355.000000, 94.008, -166.7141
360.000000, 94.012, -166.5031
365.000000, 94.020, -166.3467
370.000000, 94.019, -166.2713
375.000000, 94.002, -166.0231
382.000000, 93.970, -165.6106
387.000000, 93.960, -165.5146
395.000000, 93.956, -165.2951
400.000000, 93.947, -165.1009
406.000000, 93.927, -164.8643
412.000000, 93.904, -164.6530
418.000000, 93.893, -164.5288
425.000000, 93.895, -164.2458
431.000000, 93.910, -163.9398
437.000000, 93.910, -163.6916
444.000000, 93.907, -163.3757
450.000000, 93.914, -163.0690
455.000000, 93.918, -162.8196
462.000000, 93.914, -162.5179
468.000000, 93.897, -162.3134
475.000000, 93.877, -162.0135
482.000000, 93.869, -161.5985
487.000000, 93.869, -161.2970
494.000000, 93.869, -160.9742
500.000000, 93.866, -160.6489
508.000000, 93.864, -160.0729
515.000000, 93.861, -159.6461
522.000000, 93.864, -159.2345
530.000000, 93.874, -158.8301
538.000000, 93.899, -158.3426
545.000000, 93.926, -157.9171
552.000000, 93.958, -157.4816
560.000000, 93.996, -157.0063
570.000000, 94.039, -156.4548
580.000000, 94.105, -156.0724
590.000000, 94.211, -155.7741
600.000000, 94.244, -155.0807
608.000000, 94.239, -154.7346
615.000000, 94.245, -154.5882
622.000000, 94.274, -154.3935
630.000000, 94.311, -154.1301
640.000000, 94.338, -154.0166
650.000000, 94.349, -153.7567
660.000000, 94.384, -153.3352
670.000000, 94.426, -152.9003
680.000000, 94.469, -152.5889
690.000000, 94.495, -152.4083
700.000000, 94.510, -152.1923
710.000000, 94.536, -151.9106
720.000000, 94.556, -151.7576
730.000000, 94.544, -151.6868
740.000000, 94.515, -151.5884
750.000000, 94.490, -151.3770
762.000000, 94.446, -150.8599
775.000000, 94.384, -149.9794
788.000000, 94.366, -148.9005
800.000000, 94.389, -147.7593
812.000000, 94.423, -146.7103
825.000000, 94.509, -145.7630
838.000000, 94.616, -145.0616
850.000000, 94.702, -144.5134
862.000000, 94.775, -143.9962
875.000000, 94.846, -143.4948
885.000000, 94.909, -143.0500
900.000000, 95.013, -142.4847
912.000000, 95.080, -142.2216
925.000000, 95.143, -141.9319
938.000000, 95.193, -141.7014
950.000000, 95.236, -141.4759
962.000000, 95.281, -141.2242
975.000000, 95.326, -140.9356
988.000000, 95.367, -140.6097
1000.000000, 95.391, -140.2437
1015.000000, 95.423, -139.6773
1030.000000, 95.464, -139.1325
1044.000000, 95.510, -138.6469
1060.000000, 95.563, -138.0701
1075.000000, 95.629, -137.3732
1090.000000, 95.728, -136.9245
1106.000000, 95.809, -136.5412
1120.000000, 95.878, -136.1171
1138.000000, 95.993, -135.6370
1150.000000, 96.066, -135.3775
1172.000000, 96.199, -134.7506
1180.000000, 96.257, -134.5560
1206.000000, 96.439, -134.0723
1220.000000, 96.545, -133.8642
1241.000000, 96.687, -133.9130
1250.000000, 96.734, -133.8957
1265.000000, 96.812, -133.7520
1280.000000, 96.900, -133.6124
1315.000000, 97.078, -133.4745
1320.000000, 97.099, -133.4675
1340.000000, 97.165, -133.5326
1360.000000, 97.174, -133.5808
1380.000000, 97.163, -133.3060
1400.000000, 97.219, -132.7117
1430.000000, 97.373, -132.3949
1450.000000, 97.412, -132.2226
1475.000000, 97.444, -131.9244
1500.000000, 97.472, -131.2236
1525.000000, 97.546, -130.6069
1550.000000, 97.606, -130.2323
1575.000000, 97.622, -129.6085
1600.000000, 97.691, -128.5344
1625.000000, 97.803, -127.8960
1650.000000, 97.883, -127.3002
1675.000000, 97.965, -126.7105
1700.000000, 98.057, -125.9474
1725.000000, 98.208, -125.2490
1750.000000, 98.357, -124.8554
1775.000000, 98.499, -124.3811
1800.000000, 98.610, -124.1288
1825.000000, 98.719, -123.7426
1850.000000, 98.845, -123.7375
1875.000000, 98.935, -123.6660
1900.000000, 99.011, -123.6740
1925.000000, 99.057, -123.4110
1950.000000, 99.123, -123.0584
1975.000000, 99.190, -122.8517
2000.000000, 99.243, -122.4913
2030.000000, 99.319, -121.8494
2060.000000, 99.440, -121.1150
2090.000000, 99.591, -120.8580
2120.000000, 99.676, -120.6164
2140.000000, 99.735, -120.3031
2180.000000, 99.897, -119.8660
2200.000000, 99.943, -119.8252
2240.000000, 100.001, -118.9304
2270.000000, 100.126, -118.1818
2300.000000, 100.241, -117.6902
2330.000000, 100.352, -116.8998
2360.000000, 100.533, -115.8294
2400.000000, 100.829, -115.0471
2430.000000, 101.057, -114.6241
2470.000000, 101.402, -114.3809
2500.000000, 101.659, -114.6478
2540.000000, 101.955, -115.3269
2580.000000, 102.209, -116.1442
2620.000000, 102.423, -117.1269
2650.000000, 102.534, -117.9052
2690.000000, 102.663, -118.6315
2720.000000, 102.778, -119.1010
2760.000000, 102.944, -119.8180
2800.000000, 103.106, -120.7867
2850.000000, 103.269, -122.0760
2900.000000, 103.408, -123.5332
2950.000000, 103.473, -124.8812
3000.000000, 103.546, -126.2202
3040.000000, 103.565, -127.0815
3070.000000, 103.604, -127.6146
3110.000000, 103.669, -128.5583
3150.000000, 103.702, -129.6157
3200.000000, 103.724, -130.7949
3250.000000, 103.757, -131.9023
3300.000000, 103.803, -133.1582
3350.000000, 103.844, -134.5383
3400.000000, 103.881, -136.1064
3450.000000, 103.890, -137.9015
3500.000000, 103.866, -139.9977
3550.000000, 103.760, -142.2480
3600.000000, 103.593, -144.2789
3650.000000, 103.379, -146.1806
3700.000000, 103.134, -147.8787
3750.000000, 102.857, -149.4592
3820.000000, 102.412, -151.4359
3870.000000, 102.031, -152.6418
3950.000000, 101.316, -153.9272
4000.000000, 100.824, -154.1598
4060.000000, 100.207, -153.7103
4120.000000, 99.608, -152.4737
4180.000000, 99.029, -150.5217
4250.000000, 98.416, -147.2747
4310.000000, 97.978, -143.6872
4370.000000, 97.673, -139.4194
4440.000000, 97.542, -134.0008
4500.000000, 97.672, -129.5811
4550.000000, 97.920, -126.7757
4620.000000, 98.332, -124.4044
4680.000000, 98.657, -123.5638
4750.000000, 98.942, -123.4623
4820.000000, 99.122, -123.8067
4870.000000, 99.198, -124.1037
4940.000000, 99.255, -124.5903
5000.000000, 99.256, -125.0486
5080.000000, 99.189, -125.6189
5150.000000, 99.071, -125.9001
5220.000000, 98.914, -125.7807
5300.000000, 98.752, -124.8271
5380.000000, 98.724, -123.2299
5450.000000, 98.866, -121.9407
5520.000000, 99.150, -121.4314
5600.000000, 99.547, -122.4239
5700.000000, 99.955, -126.2551
5800.000000, 100.034, -132.4339
5900.000000, 99.594, -139.4715
6000.000000, 98.627, -145.3551
6080.000000, 97.594, -148.2958
6150.000000, 96.600, -149.3519
6220.000000, 95.595, -149.0365
6300.000000, 94.502, -147.2577
6400.000000, 93.273, -143.5022
6500.000000, 92.206, -138.5699
6600.000000, 91.291, -132.6482
6700.000000, 90.537, -125.8467
6800.000000, 89.990, -118.2997
6900.000000, 89.718, -110.3545
7000.000000, 89.745, -102.6060
7100.000000, 90.027, -95.6389
7200.000000, 90.508, -89.9617
7300.000000, 91.092, -86.0354
7400.000000, 91.640, -83.8748
7500.000000, 92.063, -82.8953
7620.000000, 92.417, -82.2866
7750.000000, 92.699, -81.7769
7880.000000, 92.872, -81.6274
8000.000000, 92.939, -82.3350
8120.000000, 92.821, -83.9654
8250.000000, 92.349, -86.0008
8380.000000, 91.480, -86.6096
8500.000000, 90.479, -84.1095
8620.000000, 89.645, -77.9563
8750.000000, 89.366, -69.1904
8850.000000, 89.664, -63.6484
9000.000000, 90.476, -60.7993
9120.000000, 90.880, -63.2367
9250.000000, 90.668, -67.9770
9380.000000, 89.745, -71.7935
9500.000000, 88.445, -72.5344
9620.000000, 86.951, -69.7561
9750.000000, 85.371, -62.4306
9880.000000, 84.141, -50.7270
10000.000000, 83.601, -37.3399
10150.000000, 83.868, -20.7952
10300.000000, 84.912, -7.7478
10440.000000, 86.244, 0.4650
10600.000000, 87.956, 5.3067
10750.000000, 89.543, 4.7817
10900.000000, 90.665, -0.9759
11060.000000, 90.810, -9.9007
11200.000000, 90.041, -15.6106
11380.000000, 88.531, -16.5459
11500.000000, 87.612, -13.8750
11720.000000, 86.376, -5.4512
11800.000000, 86.060, -1.4878
12060.000000, 85.924, 14.0073
12200.000000, 86.526, 20.4410
12410.000000, 87.475, 23.1885
12500.000000, 87.645, 22.8019
12650.000000, 87.567, 22.5788
12800.000000, 87.337, 24.5876
