* Measurement data measured by REW V5.31.3
* Source: Headset (DS by VECLAN.COM), MICROPHONE (Master Volume), L, volume: 0.720. Timing signal peak level -12.4 dBFS, measurement signal peak level -12.5 dBFS
* Format: 2M Log Swept Sine, 1 sweep at -12.0 dBFS using an acoustic timing reference
* Dated: Sep 1, 2024 1:16:57 PM
* REW Settings:
*  C-weighting compensation: Off
*  Target level: 85.0 dB
* Note: ; Delay -0.0679 ms (-23 mm, -0.92 in) using estimated IR delay relative to Acoustic reference played from HEADPHONE R with no timing offset
* Measurement: Sennheiser HD58x R2
* Smoothing: 1/24 octave
* Frequency Step: 1/48 octave
* Start Frequency: 1.000 Hz
*
* Freq(Hz), SPL(dB), Phase(degrees)
1.000000, 57.961, -26.2944
1.015000, 58.113, -26.3979
1.030000, 58.267, -26.4994
1.044000, 58.414, -26.5923
1.060000, 58.584, -26.6961
1.075000, 58.746, -26.7907
1.090000, 58.911, -26.8803
1.106000, 59.093, -26.9568
1.120000, 59.258, -26.9869
1.138000, 59.482, -26.9670
1.150000, 59.639, -26.9213
1.172000, 59.937, -26.7901
1.180000, 60.049, -26.7351
1.206000, 60.422, -26.5189
1.220000, 60.629, -26.3864
1.241000, 60.943, -26.1775
1.250000, 61.079, -26.0868
1.265000, 61.307, -25.9371
1.280000, 61.535, -25.7926
1.315000, 62.062, -25.4923
1.320000, 62.137, -25.4551
1.340000, 62.430, -25.3238
1.360000, 62.716, -25.2226
1.380000, 62.992, -25.1942
1.400000, 63.256, -25.2178
1.430000, 63.625, -25.3266
1.450000, 63.849, -25.4472
1.475000, 64.103, -25.6250
1.500000, 64.332, -25.7679
1.525000, 64.539, -25.8565
1.550000, 64.728, -25.9039
1.575000, 64.900, -25.9467
1.600000, 65.058, -26.0157
1.625000, 65.206, -26.0830
1.650000, 65.345, -26.1584
1.675000, 65.479, -26.2500
1.700000, 65.610, -26.3645
1.725000, 65.741, -26.5074
1.750000, 65.874, -26.6830
1.775000, 66.013, -26.9115
1.800000, 66.159, -27.2111
1.825000, 66.315, -27.5437
1.850000, 66.479, -27.8856
1.875000, 66.647, -28.2057
1.900000, 66.817, -28.4982
1.925000, 66.988, -28.7686
1.950000, 67.161, -29.0227
1.975000, 67.335, -29.2836
2.000000, 67.509, -29.5727
2.030000, 67.717, -29.9193
2.060000, 67.925, -30.2742
2.090000, 68.131, -30.6440
2.120000, 68.335, -31.0343
2.140000, 68.469, -31.3081
2.180000, 68.733, -31.9124
2.200000, 68.863, -32.2482
2.240000, 69.119, -32.9137
2.270000, 69.309, -33.3918
2.300000, 69.497, -33.8520
2.330000, 69.683, -34.2978
2.360000, 69.868, -34.7333
2.400000, 70.111, -35.3519
2.430000, 70.291, -35.8195
2.470000, 70.527, -36.4450
2.500000, 70.702, -36.9197
2.540000, 70.931, -37.5644
2.580000, 71.155, -38.2377
2.620000, 71.376, -38.9402
2.650000, 71.538, -39.4541
2.690000, 71.752, -40.1227
2.720000, 71.909, -40.6125
2.760000, 72.116, -41.2505
2.800000, 72.319, -41.9158
2.850000, 72.567, -42.7408
2.900000, 72.809, -43.5576
2.950000, 73.045, -44.3689
3.000000, 73.275, -45.1985
3.040000, 73.454, -45.8592
3.070000, 73.586, -46.3452
3.110000, 73.759, -46.9803
3.150000, 73.928, -47.6010
3.200000, 74.136, -48.3886
3.250000, 74.339, -49.1720
3.300000, 74.538, -49.9394
3.350000, 74.733, -50.6907
3.400000, 74.923, -51.4587
3.450000, 75.108, -52.2217
3.500000, 75.289, -52.9642
3.550000, 75.466, -53.6853
3.600000, 75.640, -54.4122
3.650000, 75.810, -55.1315
3.700000, 75.976, -55.8345
3.750000, 76.139, -56.5230
3.820000, 76.360, -57.4967
3.870000, 76.514, -58.1800
3.950000, 76.755, -59.2369
4.000000, 76.902, -59.8969
4.060000, 77.075, -60.6809
4.120000, 77.245, -61.4472
4.180000, 77.411, -62.2027
4.250000, 77.600, -63.0929
4.310000, 77.757, -63.8325
4.370000, 77.911, -64.5559
4.440000, 78.086, -65.4131
4.500000, 78.232, -66.1353
4.550000, 78.351, -66.7259
4.620000, 78.514, -67.5608
4.680000, 78.649, -68.2624
4.750000, 78.803, -69.0558
4.820000, 78.952, -69.8524
4.870000, 79.056, -70.4174
4.940000, 79.198, -71.1920
5.000000, 79.316, -71.8520
5.080000, 79.467, -72.7117
5.150000, 79.595, -73.4332
5.220000, 79.717, -74.1580
5.300000, 79.851, -74.9722
5.380000, 79.980, -75.7549
5.450000, 80.088, -76.4232
5.520000, 80.192, -77.0552
5.600000, 80.307, -77.7568
5.700000, 80.443, -78.6060
5.800000, 80.573, -79.3963
5.900000, 80.698, -80.1297
6.000000, 80.818, -80.8067
6.080000, 80.912, -81.3218
6.150000, 80.992, -81.7359
6.220000, 81.073, -82.1309
6.300000, 81.165, -82.5436
6.400000, 81.279, -83.0117
6.500000, 81.395, -83.4460
6.600000, 81.513, -83.8411
6.700000, 81.635, -84.2046
6.800000, 81.760, -84.5340
6.900000, 81.888, -84.8569
7.000000, 82.021, -85.1730
7.100000, 82.159, -85.4854
7.200000, 82.300, -85.7964
7.300000, 82.443, -86.1305
7.400000, 82.588, -86.4854
7.500000, 82.735, -86.8656
7.620000, 82.910, -87.3476
7.750000, 83.097, -87.9146
7.880000, 83.281, -88.5310
8.000000, 83.446, -89.1243
8.120000, 83.604, -89.7463
8.250000, 83.767, -90.4490
8.380000, 83.921, -91.1591
8.500000, 84.055, -91.8174
8.620000, 84.181, -92.4739
8.750000, 84.309, -93.1693
8.850000, 84.403, -93.6863
9.000000, 84.536, -94.4304
9.120000, 84.637, -94.9993
9.250000, 84.743, -95.5847
9.380000, 84.846, -96.1373
9.500000, 84.939, -96.6265
9.620000, 85.031, -97.0897
9.750000, 85.129, -97.5688
9.880000, 85.220, -98.0363
10.000000, 85.294, -98.4520
10.150000, 85.376, -98.9921
10.300000, 85.449, -99.5133
10.440000, 85.511, -99.9851
10.600000, 85.577, -100.5045
10.750000, 85.638, -100.9717
10.900000, 85.697, -101.4175
11.060000, 85.760, -101.8900
11.200000, 85.814, -102.3164
11.380000, 85.883, -102.8256
11.500000, 85.927, -103.1397
11.720000, 86.010, -103.6704
11.800000, 86.041, -103.8504
12.060000, 86.152, -104.4250
12.200000, 86.217, -104.7655
12.410000, 86.321, -105.2716
12.500000, 86.365, -105.4906
12.650000, 86.438, -105.8601
12.800000, 86.509, -106.2350
13.150000, 86.669, -107.1788
13.200000, 86.691, -107.3231
13.400000, 86.775, -107.8923
13.600000, 86.855, -108.4368
13.800000, 86.931, -108.9464
14.000000, 87.004, -109.4194
14.300000, 87.113, -110.1325
14.500000, 87.187, -110.5680
14.750000, 87.282, -111.0830
15.000000, 87.382, -111.5877
15.250000, 87.488, -112.1535
15.500000, 87.594, -112.7303
15.750000, 87.694, -113.3088
16.000000, 87.787, -113.8757
16.250000, 87.875, -114.4594
16.500000, 87.959, -115.0041
16.750000, 88.041, -115.5059
17.000000, 88.127, -115.9777
17.250000, 88.216, -116.4625
17.500000, 88.308, -116.9505
17.750000, 88.398, -117.4503
18.000000, 88.485, -117.9660
18.250000, 88.565, -118.5099
18.500000, 88.638, -119.0432
18.750000, 88.704, -119.5428
19.000000, 88.766, -119.9926
19.250000, 88.827, -120.4091
19.500000, 88.890, -120.7719
19.750000, 88.958, -121.0947
20.000000, 89.031, -121.3994
20.299999, 89.125, -121.8020
20.600000, 89.223, -122.2354
20.900000, 89.317, -122.7060
21.200001, 89.406, -123.2199
21.400000, 89.459, -123.5701
21.799999, 89.555, -124.2391
22.000000, 89.600, -124.5492
22.400000, 89.686, -125.1447
22.700001, 89.751, -125.5519
23.000000, 89.819, -125.9440
23.299999, 89.888, -126.3554
23.600000, 89.957, -126.7758
24.000000, 90.046, -127.3485
24.299999, 90.110, -127.7969
24.700001, 90.189, -128.3798
25.000000, 90.245, -128.7964
25.400000, 90.318, -129.3457
25.799999, 90.391, -129.8717
26.200001, 90.463, -130.3991
26.500000, 90.517, -130.8031
26.900000, 90.587, -131.3443
27.200001, 90.637, -131.7565
27.600000, 90.699, -132.3061
28.000000, 90.758, -132.8480
28.500000, 90.823, -133.5276
29.000000, 90.879, -134.1738
29.500000, 90.923, -134.7547
30.000000, 90.965, -135.2175
30.400000, 91.005, -135.5243
30.700001, 91.042, -135.7357
31.100000, 91.101, -136.0404
31.500000, 91.166, -136.4188
32.000000, 91.242, -136.9843
32.500000, 91.301, -137.6079
33.000000, 91.343, -138.1851
33.500000, 91.378, -138.6744
34.000000, 91.421, -139.0752
34.500000, 91.475, -139.4514
35.000000, 91.539, -139.8543
35.500000, 91.605, -140.3190
36.000000, 91.668, -140.8355
36.500000, 91.722, -141.3866
37.000000, 91.769, -141.9458
37.500000, 91.807, -142.5019
38.200001, 91.850, -143.2405
38.700001, 91.875, -143.7397
39.500000, 91.910, -144.4989
40.000000, 91.926, -144.9388
40.599998, 91.943, -145.4130
41.200001, 91.965, -145.8195
41.799999, 91.995, -146.2104
42.500000, 92.034, -146.6979
43.099998, 92.064, -147.1017
43.700001, 92.096, -147.4456
44.400002, 92.148, -147.8182
45.000000, 92.202, -148.2165
45.500000, 92.242, -148.6281
46.200001, 92.277, -149.2349
46.799999, 92.293, -149.6914
47.500000, 92.311, -150.1403
48.200001, 92.332, -150.5754
48.700001, 92.343, -150.8892
49.400002, 92.353, -151.2811
50.000000, 92.364, -151.5511
50.799999, 92.395, -151.8991
51.500000, 92.431, -152.2725
52.200001, 92.465, -152.7085
53.000000, 92.500, -153.2335
53.799999, 92.534, -153.7859
54.500000, 92.562, -154.3069
55.200001, 92.586, -154.8873
56.000000, 92.598, -155.6222
57.000000, 92.578, -156.5864
58.000000, 92.510, -157.5038
59.000000, 92.392, -158.1386
60.000000, 92.270, -158.3616
60.799999, 92.189, -158.3551
61.500000, 92.130, -158.2327
62.200001, 92.095, -158.0194
63.000000, 92.090, -157.8160
64.000000, 92.101, -157.8172
65.000000, 92.088, -157.9875
66.000000, 92.038, -158.0326
67.000000, 91.977, -157.7231
68.000000, 91.950, -157.0828
69.000000, 91.977, -156.3289
70.000000, 92.058, -155.6674
71.000000, 92.176, -155.2655
72.000000, 92.307, -155.1893
73.000000, 92.427, -155.3612
74.000000, 92.528, -155.6873
75.000000, 92.607, -156.0698
76.199997, 92.680, -156.5174
77.500000, 92.746, -156.9438
78.800003, 92.810, -157.3410
80.000000, 92.869, -157.7418
81.199997, 92.927, -158.1790
82.500000, 92.983, -158.7393
83.800003, 93.023, -159.3141
85.000000, 93.053, -159.8231
86.199997, 93.077, -160.3119
87.500000, 93.099, -160.8311
88.500000, 93.114, -161.2323
90.000000, 93.131, -161.8345
91.199997, 93.141, -162.3272
92.500000, 93.146, -162.8749
93.800003, 93.139, -163.4202
95.000000, 93.120, -163.9010
96.199997, 93.087, -164.3543
97.500000, 93.035, -164.7671
98.800003, 92.971, -165.0837
100.000000, 92.904, -165.2749
101.500000, 92.812, -165.2980
103.000000, 92.737, -164.9789
104.400002, 92.713, -164.4637
106.000000, 92.748, -163.9068
107.500000, 92.818, -163.6388
109.000000, 92.892, -163.6572
110.599998, 92.957, -163.8743
112.000000, 93.002, -164.1257
113.800003, 93.045, -164.4958
115.000000, 93.063, -164.7442
117.199997, 93.084, -165.1547
118.000000, 93.089, -165.3059
120.599998, 93.103, -165.7814
122.000000, 93.112, -166.0774
124.099998, 93.116, -166.4955
125.000000, 93.116, -166.6363
126.500000, 93.117, -166.8586
128.000000, 93.113, -167.1076
131.500000, 93.077, -167.5710
132.000000, 93.071, -167.6127
134.000000, 93.054, -167.7270
136.000000, 93.050, -167.7921
138.000000, 93.058, -167.8867
140.000000, 93.065, -168.0328
143.000000, 93.073, -168.2854
145.000000, 93.072, -168.4743
147.500000, 93.066, -168.6476
150.000000, 93.062, -168.7842
152.500000, 93.055, -168.8755
155.000000, 93.053, -168.9235
157.500000, 93.057, -169.0075
160.000000, 93.062, -169.1380
162.500000, 93.062, -169.2806
165.000000, 93.057, -169.3941
167.500000, 93.052, -169.4925
170.000000, 93.043, -169.5768
172.500000, 93.031, -169.6412
175.000000, 93.020, -169.6945
177.500000, 93.016, -169.7222
180.000000, 93.019, -169.7531
182.500000, 93.027, -169.8199
185.000000, 93.035, -169.9192
187.500000, 93.033, -170.0643
190.000000, 93.019, -170.2089
192.500000, 93.004, -170.3280
195.000000, 92.994, -170.4399
197.500000, 92.987, -170.5272
200.000000, 92.982, -170.6129
203.000000, 92.972, -170.7113
206.000000, 92.958, -170.8081
209.000000, 92.936, -170.8964
212.000000, 92.909, -170.9181
214.000000, 92.894, -170.8793
218.000000, 92.876, -170.8270
220.000000, 92.870, -170.8150
224.000000, 92.863, -170.7752
227.000000, 92.856, -170.7711
230.000000, 92.846, -170.7670
233.000000, 92.836, -170.7705
236.000000, 92.825, -170.7711
240.000000, 92.810, -170.7596
243.000000, 92.799, -170.7656
247.000000, 92.781, -170.7690
250.000000, 92.768, -170.7260
254.000000, 92.752, -170.6583
258.000000, 92.735, -170.6033
262.000000, 92.717, -170.5594
265.000000, 92.703, -170.5123
269.000000, 92.683, -170.4349
272.000000, 92.669, -170.3659
276.000000, 92.651, -170.2392
280.000000, 92.636, -170.0799
285.000000, 92.623, -169.8892
290.000000, 92.615, -169.6829
295.000000, 92.606, -169.4314
300.000000, 92.597, -169.1883
304.000000, 92.597, -169.0220
307.000000, 92.600, -168.8965
311.000000, 92.602, -168.7412
315.000000, 92.601, -168.5863
320.000000, 92.601, -168.3838
325.000000, 92.603, -168.1454
330.000000, 92.608, -167.8961
335.000000, 92.618, -167.6428
340.000000, 92.632, -167.3963
345.000000, 92.649, -167.1965
350.000000, 92.662, -167.0535
355.000000, 92.667, -166.9508
360.000000, 92.669, -166.8133
365.000000, 92.673, -166.6400
370.000000, 92.680, -166.4835
375.000000, 92.685, -166.3484
382.000000, 92.691, -166.1320
387.000000, 92.695, -165.9838
395.000000, 92.696, -165.7903
400.000000, 92.693, -165.6698
406.000000, 92.687, -165.4952
412.000000, 92.684, -165.3094
418.000000, 92.679, -165.1347
425.000000, 92.662, -164.9257
431.000000, 92.648, -164.6746
437.000000, 92.635, -164.3987
444.000000, 92.622, -164.0242
450.000000, 92.616, -163.6840
455.000000, 92.614, -163.3802
462.000000, 92.619, -162.9640
468.000000, 92.629, -162.5945
475.000000, 92.650, -162.1858
482.000000, 92.675, -161.8231
487.000000, 92.695, -161.5853
494.000000, 92.723, -161.2812
500.000000, 92.744, -161.0384
508.000000, 92.772, -160.6958
515.000000, 92.799, -160.4095
522.000000, 92.829, -160.1391
530.000000, 92.862, -159.8656
538.000000, 92.893, -159.6186
545.000000, 92.918, -159.4200
552.000000, 92.940, -159.2119
560.000000, 92.965, -158.9373
570.000000, 93.006, -158.5699
580.000000, 93.054, -158.2905
590.000000, 93.094, -158.0553
600.000000, 93.135, -157.8372
608.000000, 93.169, -157.7023
615.000000, 93.194, -157.6213
622.000000, 93.212, -157.5749
630.000000, 93.226, -157.5373
640.000000, 93.235, -157.4702
650.000000, 93.239, -157.4029
660.000000, 93.231, -157.4032
670.000000, 93.198, -157.3498
680.000000, 93.155, -157.1966
690.000000, 93.109, -156.8986
700.000000, 93.074, -156.5120
710.000000, 93.044, -156.1750
720.000000, 92.994, -155.8529
730.000000, 92.921, -155.3496
740.000000, 92.854, -154.5547
750.000000, 92.819, -153.5419
762.000000, 92.826, -152.3070
775.000000, 92.874, -151.1156
788.000000, 92.935, -150.1279
800.000000, 92.991, -149.2807
812.000000, 93.050, -148.4340
825.000000, 93.127, -147.5228
838.000000, 93.224, -146.6738
850.000000, 93.329, -145.9925
862.000000, 93.436, -145.4544
875.000000, 93.540, -145.0180
885.000000, 93.608, -144.7132
900.000000, 93.705, -144.3081
912.000000, 93.774, -143.9990
925.000000, 93.849, -143.5787
938.000000, 93.940, -143.1650
950.000000, 94.028, -142.9195
962.000000, 94.105, -142.7523
975.000000, 94.176, -142.6276
988.000000, 94.228, -142.5378
1000.000000, 94.271, -142.3704
1015.000000, 94.325, -142.1262
1030.000000, 94.382, -141.8819
1044.000000, 94.437, -141.6923
1060.000000, 94.494, -141.5097
1075.000000, 94.534, -141.3494
1090.000000, 94.568, -141.0969
1106.000000, 94.635, -140.6662
1120.000000, 94.717, -140.3789
1138.000000, 94.822, -140.2124
1150.000000, 94.875, -140.2145
1172.000000, 94.948, -139.9737
1180.000000, 94.985, -139.8684
1206.000000, 95.110, -139.7962
1220.000000, 95.160, -139.9553
1241.000000, 95.145, -140.1800
1250.000000, 95.119, -139.9651
1265.000000, 95.124, -139.2395
1280.000000, 95.205, -138.6196
1315.000000, 95.359, -138.2922
1320.000000, 95.368, -138.2264
1340.000000, 95.404, -137.7913
1360.000000, 95.461, -137.2945
1380.000000, 95.539, -137.1322
1400.000000, 95.573, -137.2181
1430.000000, 95.579, -136.6546
1450.000000, 95.638, -136.1320
1475.000000, 95.706, -135.9402
1500.000000, 95.705, -135.5362
1525.000000, 95.761, -134.7036
1550.000000, 95.816, -134.6260
1575.000000, 95.750, -134.0557
1600.000000, 95.767, -132.5970
1625.000000, 95.916, -131.5860
1650.000000, 96.016, -131.4048
1675.000000, 96.031, -130.8381
1700.000000, 96.106, -129.9633
1725.000000, 96.170, -129.4710
1750.000000, 96.224, -128.4113
1775.000000, 96.392, -127.4902
1800.000000, 96.538, -127.4420
1825.000000, 96.590, -127.2466
1850.000000, 96.661, -126.7496
1875.000000, 96.725, -126.4582
1900.000000, 96.769, -125.8356
1925.000000, 96.877, -125.1186
1950.000000, 96.988, -124.8868
1975.000000, 97.046, -124.6580
2000.000000, 97.116, -124.2199
2030.000000, 97.186, -124.0529
2060.000000, 97.199, -123.5182
2090.000000, 97.239, -122.7549
2120.000000, 97.267, -121.7460
2140.000000, 97.337, -120.7336
2180.000000, 97.606, -119.4804
2200.000000, 97.720, -119.1727
2240.000000, 97.944, -118.6894
2270.000000, 98.069, -118.5930
2300.000000, 98.172, -118.2589
2330.000000, 98.291, -118.1070
2360.000000, 98.325, -117.9850
2400.000000, 98.388, -116.5106
2430.000000, 98.574, -115.3064
2470.000000, 98.915, -114.3027
2500.000000, 99.188, -114.2667
2540.000000, 99.466, -114.7051
2580.000000, 99.699, -115.1181
2620.000000, 99.916, -115.6362
2650.000000, 100.073, -116.1026
2690.000000, 100.253, -116.9359
2720.000000, 100.355, -117.5599
2760.000000, 100.483, -118.3036
2800.000000, 100.617, -119.1057
2850.000000, 100.722, -120.6796
2900.000000, 100.699, -121.9450
2950.000000, 100.646, -122.5057
3000.000000, 100.650, -122.7446
3040.000000, 100.661, -122.9620
3070.000000, 100.678, -123.0156
3110.000000, 100.745, -123.0057
3150.000000, 100.860, -123.3818
3200.000000, 100.937, -124.3775
3250.000000, 100.994, -125.2362
3300.000000, 101.045, -126.4420
3350.000000, 101.021, -127.7761
3400.000000, 100.985, -128.9370
3450.000000, 100.912, -130.3753
3500.000000, 100.772, -131.6251
3550.000000, 100.610, -132.6336
3600.000000, 100.417, -133.5167
3650.000000, 100.217, -134.1123
3700.000000, 100.014, -134.7082
3750.000000, 99.777, -135.1489
3820.000000, 99.458, -135.4347
3870.000000, 99.212, -135.8755
3950.000000, 98.673, -136.2961
4000.000000, 98.276, -136.0184
4060.000000, 97.773, -135.1610
4120.000000, 97.249, -133.6794
4180.000000, 96.691, -131.5105
4250.000000, 96.012, -127.2666
4310.000000, 95.604, -121.6315
4370.000000, 95.491, -115.5346
4440.000000, 95.665, -108.5727
4500.000000, 96.107, -103.4606
4550.000000, 96.587, -100.5595
4620.000000, 97.258, -98.3197
4680.000000, 97.758, -97.4905
4750.000000, 98.273, -97.2108
4820.000000, 98.706, -97.7004
4870.000000, 98.946, -98.3795
4940.000000, 99.170, -99.4435
5000.000000, 99.287, -100.1582
5080.000000, 99.422, -100.6389
5150.000000, 99.558, -101.1373
5220.000000, 99.664, -101.6173
5300.000000, 99.784, -101.9840
5380.000000, 99.964, -102.1395
5450.000000, 100.215, -102.5437
5520.000000, 100.531, -103.6833
5600.000000, 100.895, -106.1542
5700.000000, 101.236, -111.1214
5800.000000, 101.251, -117.8302
5900.000000, 100.831, -124.9448
6000.000000, 99.989, -131.1454
6080.000000, 99.094, -134.7288
6150.000000, 98.217, -136.6505
6220.000000, 97.312, -137.5489
6300.000000, 96.275, -137.4109
6400.000000, 95.030, -135.6719
6500.000000, 93.895, -132.5982
6600.000000, 92.893, -128.5444
6700.000000, 92.027, -123.9734
6800.000000, 91.263, -119.0710
6900.000000, 90.585, -113.8146
7000.000000, 89.994, -108.0292
7100.000000, 89.508, -101.5930
7200.000000, 89.177, -94.5267
7300.000000, 89.050, -87.1952
7400.000000, 89.121, -80.2393
7500.000000, 89.346, -73.9818
7620.000000, 89.772, -67.5991
7750.000000, 90.359, -62.0998
7880.000000, 90.919, -58.2082
8000.000000, 91.364, -55.9658
8120.000000, 91.695, -54.7469
8250.000000, 91.874, -54.0613
8380.000000, 91.868, -53.2653
8500.000000, 91.754, -51.9056
8620.000000, 91.617, -49.5180
8750.000000, 91.609, -45.7724
8850.000000, 91.847, -42.6269
9000.000000, 92.680, -40.2712
9120.000000, 93.489, -42.6655
9250.000000, 93.926, -49.9826
9380.000000, 93.481, -59.2074
9500.000000, 92.295, -66.1656
9620.000000, 90.615, -69.6465
9750.000000, 88.564, -69.0355
9880.000000, 86.529, -64.3405
10000.000000, 84.802, -56.7584
10150.000000, 82.976, -43.6148
10300.000000, 81.659, -26.5362
10440.000000, 81.182, -7.0766
10600.000000, 82.067, 16.6072
10750.000000, 84.377, 33.3752
10900.000000, 87.202, 38.1213
11060.000000, 89.151, 30.0103
11200.000000, 89.071, 19.6962
11380.000000, 87.190, 15.9340
11500.000000, 85.861, 21.4783
11720.000000, 84.804, 40.3440
11800.000000, 84.891, 47.8235
12060.000000, 86.479, 69.6250
12200.000000, 88.013, 78.5040
12410.000000, 90.924, 85.4529
12500.000000, 92.263, 85.4406
12650.000000, 94.353, 81.0180
12800.000000, 95.933, 71.4482
