* Measurement data measured by REW V5.31
* Source: Headset (DS by VECLAN.COM), MICROPHONE (Master Volume), L, volume: 0.720. Timing signal peak level -10.3 dBFS, measurement signal peak level -9.3 dBFS
* Format: 2M Log Swept Sine, 1 sweep at -12.0 dBFS using an acoustic timing reference
* Dated: Apr 27, 2024 4:08:54 PM
* REW Settings:
*  C-weighting compensation: Off
*  Target level: 85.0 dB
* Note: ; Qudelix 5K Delay -0.2185 ms (-75 mm, -2.95 in) using estimated IR delay relative to Acoustic reference played from SPEAKER L with no timing offset Clock adjustment: -87.9 ppm
* Measurement: Dekoni Elite Hybrid L3
* Smoothing: 1/24 octave
* Frequency Step: 1/48 octave
* Start Frequency: 1.000 Hz
*
* Freq(Hz), SPL(dB), Phase(degrees)
1.000000, 38.353, 166.5396
1.015000, 38.250, 166.3809
1.030000, 38.151, 166.1884
1.044000, 38.064, 165.9745
1.060000, 37.972, 165.6850
1.075000, 37.893, 165.3660
1.090000, 37.821, 164.9999
1.106000, 37.751, 164.5728
1.120000, 37.692, 164.1991
1.138000, 37.616, 163.7379
1.150000, 37.567, 163.4406
1.172000, 37.478, 162.9059
1.180000, 37.447, 162.7116
1.206000, 37.350, 162.0642
1.220000, 37.302, 161.6966
1.241000, 37.237, 161.1046
1.250000, 37.211, 160.8319
1.265000, 37.173, 160.3464
1.280000, 37.141, 159.8158
1.315000, 37.091, 158.3633
1.320000, 37.087, 158.1274
1.340000, 37.080, 157.1028
1.360000, 37.089, 155.9367
1.380000, 37.114, 154.6138
1.400000, 37.157, 153.1202
1.430000, 37.258, 150.5334
1.450000, 37.352, 148.5686
1.475000, 37.502, 145.8880
1.500000, 37.688, 143.1079
1.525000, 37.909, 140.3170
1.550000, 38.162, 137.5372
1.575000, 38.443, 134.7767
1.600000, 38.750, 132.0386
1.625000, 39.079, 129.3224
1.650000, 39.428, 126.6250
1.675000, 39.792, 123.9417
1.700000, 40.170, 121.2668
1.725000, 40.557, 118.5949
1.750000, 40.951, 115.9208
1.775000, 41.349, 113.2407
1.800000, 41.747, 110.5534
1.825000, 42.146, 107.8704
1.850000, 42.551, 105.2488
1.875000, 42.973, 102.7625
1.900000, 43.412, 100.4298
1.925000, 43.866, 98.2405
1.950000, 44.333, 96.1780
1.975000, 44.808, 94.2245
2.000000, 45.290, 92.3626
2.030000, 45.871, 90.2257
2.060000, 46.451, 88.1703
2.090000, 47.025, 86.1730
2.120000, 47.587, 84.2135
2.140000, 47.953, 82.9196
2.180000, 48.657, 80.3464
2.200000, 48.995, 79.0700
2.240000, 49.652, 76.5910
2.270000, 50.133, 74.8235
2.300000, 50.607, 73.1336
2.330000, 51.072, 71.5132
2.360000, 51.528, 69.9531
2.400000, 52.122, 67.9501
2.430000, 52.558, 66.4935
2.470000, 53.124, 64.5951
2.500000, 53.537, 63.1931
2.540000, 54.074, 61.3387
2.580000, 54.592, 59.4946
2.620000, 55.092, 57.6739
2.650000, 55.455, 56.3338
2.690000, 55.924, 54.5879
2.720000, 56.264, 53.3111
2.760000, 56.705, 51.6526
2.800000, 57.132, 50.0423
2.850000, 57.648, 48.0910
2.900000, 58.145, 46.1971
2.950000, 58.625, 44.3394
3.000000, 59.082, 42.4944
3.040000, 59.433, 41.0330
3.070000, 59.687, 39.9525
3.110000, 60.015, 38.5400
3.150000, 60.332, 37.1661
3.200000, 60.715, 35.5109
3.250000, 61.084, 33.9297
3.300000, 61.440, 32.4160
3.350000, 61.781, 30.9378
3.400000, 62.106, 29.4777
3.450000, 62.415, 28.0477
3.500000, 62.711, 26.6643
3.550000, 62.996, 25.3421
3.600000, 63.272, 24.0935
3.650000, 63.542, 22.9242
3.700000, 63.802, 21.8205
3.750000, 64.052, 20.7592
3.820000, 64.384, 19.3380
3.870000, 64.612, 18.3768
3.950000, 64.969, 16.9509
4.000000, 65.189, 16.1397
4.060000, 65.452, 15.2514
4.120000, 65.709, 14.4449
4.180000, 65.960, 13.7033
4.250000, 66.251, 12.9014
4.310000, 66.501, 12.2556
4.370000, 66.755, 11.6423
4.440000, 67.058, 10.9800
4.500000, 67.320, 10.4693
4.550000, 67.541, 10.0710
4.620000, 67.852, 9.5231
4.680000, 68.122, 9.0358
4.750000, 68.441, 8.4253
4.820000, 68.765, 7.7882
4.870000, 69.001, 7.3330
4.940000, 69.333, 6.6829
5.000000, 69.618, 6.0921
5.080000, 69.994, 5.2237
5.150000, 70.319, 4.3768
5.220000, 70.642, 3.4705
5.300000, 71.007, 2.3823
5.380000, 71.364, 1.2370
5.450000, 71.665, 0.1808
5.520000, 71.955, -0.9336
5.600000, 72.274, -2.2766
5.700000, 72.654, -4.0212
5.800000, 73.010, -5.7893
5.900000, 73.337, -7.5702
6.000000, 73.636, -9.3944
6.080000, 73.857, -10.8566
6.150000, 74.038, -12.1046
6.220000, 74.207, -13.3078
6.300000, 74.385, -14.6431
6.400000, 74.585, -16.2735
6.500000, 74.766, -17.8175
6.600000, 74.933, -19.2221
6.700000, 75.087, -20.4911
6.800000, 75.228, -21.6477
6.900000, 75.366, -22.6831
7.000000, 75.508, -23.5792
7.100000, 75.652, -24.3378
7.200000, 75.801, -24.9959
7.300000, 75.962, -25.5918
7.400000, 76.138, -26.1296
7.500000, 76.329, -26.6113
7.620000, 76.573, -27.1895
7.750000, 76.858, -27.8941
7.880000, 77.163, -28.6700
8.000000, 77.452, -29.4844
8.120000, 77.740, -30.4344
8.250000, 78.051, -31.5971
8.380000, 78.351, -32.8671
8.500000, 78.612, -34.1321
8.620000, 78.856, -35.4734
8.750000, 79.100, -36.9514
8.850000, 79.271, -38.0836
9.000000, 79.503, -39.7736
9.120000, 79.670, -41.0686
9.250000, 79.835, -42.3773
9.380000, 79.987, -43.5945
9.500000, 80.121, -44.6213
9.620000, 80.254, -45.5413
9.750000, 80.398, -46.4334
9.880000, 80.540, -47.2420
10.000000, 80.670, -47.9216
10.150000, 80.835, -48.7096
10.300000, 81.007, -49.4914
10.440000, 81.177, -50.2339
10.600000, 81.380, -51.1359
10.750000, 81.578, -52.0654
10.900000, 81.779, -53.0733
11.060000, 81.986, -54.2406
11.200000, 82.160, -55.3343
11.380000, 82.366, -56.8105
11.500000, 82.492, -57.8308
11.720000, 82.697, -59.7398
11.800000, 82.764, -60.4376
12.060000, 82.952, -62.6928
12.200000, 83.035, -63.8780
12.410000, 83.133, -65.5944
12.500000, 83.164, -66.2965
12.650000, 83.203, -67.4161
12.800000, 83.225, -68.4507
13.150000, 83.221, -70.4339
13.200000, 83.215, -70.6570
13.400000, 83.189, -71.3811
13.600000, 83.164, -71.8294
13.800000, 83.154, -72.0123
14.000000, 83.171, -71.9968
14.300000, 83.262, -71.7863
14.500000, 83.365, -71.6766
14.750000, 83.523, -71.7088
15.000000, 83.695, -71.9748
15.250000, 83.856, -72.4240
15.500000, 83.998, -72.9302
15.750000, 84.125, -73.3847
16.000000, 84.260, -73.7347
16.250000, 84.426, -74.0618
16.500000, 84.634, -74.5299
16.750000, 84.874, -75.3385
17.000000, 85.115, -76.6129
17.250000, 85.317, -78.3321
17.500000, 85.439, -80.3473
17.750000, 85.462, -82.3765
18.000000, 85.387, -84.0996
18.250000, 85.245, -85.2034
18.500000, 85.095, -85.4861
18.750000, 85.012, -84.9887
19.000000, 85.056, -84.0083
19.250000, 85.248, -83.0676
19.500000, 85.547, -82.6093
19.750000, 85.887, -82.8353
20.000000, 86.200, -83.6781
20.299999, 86.485, -85.1238
20.600000, 86.665, -86.5384
20.900000, 86.786, -87.5195
21.200001, 86.924, -87.9828
21.400000, 87.056, -88.1405
21.799999, 87.424, -88.7092
22.000000, 87.629, -89.3443
22.400000, 87.964, -91.3984
22.700001, 88.074, -93.2601
23.000000, 88.043, -94.8450
23.299999, 87.907, -95.6424
23.600000, 87.758, -95.3539
24.000000, 87.732, -93.6016
24.299999, 87.915, -92.1300
24.700001, 88.343, -91.3175
25.000000, 88.665, -91.8729
25.400000, 88.932, -93.6546
25.799999, 88.962, -95.5475
26.200001, 88.845, -96.5453
26.500000, 88.770, -96.5391
26.900000, 88.806, -96.0835
27.200001, 88.937, -96.0382
27.600000, 89.138, -96.9312
28.000000, 89.221, -98.6525
28.500000, 89.076, -100.5211
29.000000, 88.862, -100.5985
29.500000, 88.938, -99.4985
30.000000, 89.318, -99.6565
30.400000, 89.592, -101.3345
30.700001, 89.671, -103.0301
31.100000, 89.594, -104.8920
31.500000, 89.433, -105.4270
32.000000, 89.434, -104.3526
32.500000, 89.794, -103.4826
33.000000, 90.241, -104.4473
33.500000, 90.486, -106.4756
34.000000, 90.536, -108.0116
34.500000, 90.582, -108.5217
35.000000, 90.728, -108.7405
35.500000, 90.891, -109.2901
36.000000, 90.988, -109.8611
36.500000, 91.082, -110.0300
37.000000, 91.265, -110.1999
37.500000, 91.485, -111.1500
38.200001, 91.571, -113.5629
38.700001, 91.431, -114.7468
39.500000, 91.243, -114.4634
40.000000, 91.310, -114.0422
40.599998, 91.450, -114.4627
41.200001, 91.503, -115.4415
41.799999, 91.504, -116.1971
42.500000, 91.567, -117.0098
43.099998, 91.627, -118.2237
43.700001, 91.593, -119.6124
44.400002, 91.483, -120.4393
45.000000, 91.492, -120.5052
45.500000, 91.602, -120.8080
46.200001, 91.751, -122.1555
46.799999, 91.759, -123.4564
47.500000, 91.720, -124.0422
48.200001, 91.802, -123.9422
48.700001, 91.924, -124.0094
49.400002, 92.095, -124.3577
50.000000, 92.236, -124.6068
50.799999, 92.463, -125.0265
51.500000, 92.645, -125.8617
52.200001, 92.732, -126.9230
53.000000, 92.726, -127.7934
53.799999, 92.689, -128.0996
54.500000, 92.678, -128.1072
55.200001, 92.694, -128.0835
56.000000, 92.748, -128.1582
57.000000, 92.865, -128.6285
58.000000, 92.991, -129.6904
59.000000, 93.071, -131.1405
60.000000, 93.072, -132.5419
60.799999, 93.028, -133.1917
61.500000, 93.009, -133.2562
62.200001, 93.050, -133.1048
63.000000, 93.154, -133.1225
64.000000, 93.273, -133.5992
65.000000, 93.339, -134.2119
66.000000, 93.379, -134.7423
67.000000, 93.424, -135.2728
68.000000, 93.467, -136.0313
69.000000, 93.472, -136.8655
70.000000, 93.468, -137.4635
71.000000, 93.493, -138.0514
72.000000, 93.494, -138.7545
73.000000, 93.470, -139.1123
74.000000, 93.491, -139.3150
75.000000, 93.513, -139.7567
76.199997, 93.513, -140.2658
77.500000, 93.533, -140.7898
78.800003, 93.564, -141.6464
80.000000, 93.551, -142.4745
81.199997, 93.538, -142.9614
82.500000, 93.574, -143.1093
83.800003, 93.673, -143.3895
85.000000, 93.727, -143.8393
86.199997, 93.741, -143.9883
87.500000, 93.772, -143.9113
88.500000, 93.793, -143.9041
90.000000, 93.840, -143.7614
91.199997, 93.926, -143.9688
92.500000, 93.991, -144.7479
93.800003, 93.999, -145.4211
95.000000, 94.025, -145.7205
96.199997, 94.092, -145.9693
97.500000, 94.162, -146.5238
98.800003, 94.153, -147.0647
100.000000, 94.120, -147.0761
101.500000, 94.145, -147.1692
103.000000, 94.158, -147.6805
104.400002, 94.201, -148.1972
106.000000, 94.243, -149.1787
107.500000, 94.247, -149.7601
109.000000, 94.249, -150.1525
110.599998, 94.221, -150.6039
112.000000, 94.161, -150.8765
113.800003, 94.107, -151.1928
115.000000, 94.056, -151.3884
117.199997, 94.000, -150.8276
118.000000, 94.010, -150.5369
120.599998, 94.176, -150.2247
122.000000, 94.248, -151.1472
124.099998, 94.284, -152.4675
125.000000, 94.305, -152.8403
126.500000, 94.351, -153.1248
128.000000, 94.412, -153.0737
131.500000, 94.449, -153.4169
132.000000, 94.433, -153.5051
134.000000, 94.373, -154.0379
136.000000, 94.342, -154.6672
138.000000, 94.395, -155.2234
140.000000, 94.511, -155.6645
143.000000, 94.542, -157.1277
145.000000, 94.371, -157.3027
147.500000, 94.307, -157.1573
150.000000, 94.361, -157.1717
152.500000, 94.506, -156.6503
155.000000, 94.591, -156.6563
157.500000, 94.500, -157.0456
160.000000, 94.448, -157.1830
162.500000, 94.448, -157.8144
165.000000, 94.347, -158.7968
167.500000, 94.230, -159.1595
170.000000, 94.215, -159.1393
172.500000, 94.244, -159.3583
175.000000, 94.232, -160.0717
177.500000, 94.185, -159.9662
180.000000, 94.419, -158.6526
182.500000, 94.524, -160.8141
185.000000, 93.785, -163.8660
187.500000, 92.604, -163.7318
190.000000, 92.126, -162.8023
192.500000, 92.495, -164.3474
195.000000, 93.197, -164.0309
197.500000, 93.831, -162.3482
200.000000, 94.058, -161.4092
203.000000, 93.963, -160.9458
206.000000, 93.907, -160.6810
209.000000, 93.931, -161.1763
212.000000, 93.950, -162.7124
214.000000, 93.929, -163.0590
218.000000, 93.711, -160.5297
220.000000, 93.549, -158.6275
224.000000, 93.438, -157.4627
227.000000, 93.445, -158.5986
230.000000, 93.421, -159.7914
233.000000, 93.475, -159.4111
236.000000, 93.563, -158.6979
240.000000, 93.481, -159.0695
243.000000, 93.439, -160.1782
247.000000, 93.451, -160.4473
250.000000, 93.419, -159.7934
254.000000, 93.337, -159.6759
258.000000, 93.328, -160.1948
262.000000, 93.350, -159.7424
265.000000, 93.301, -159.6111
269.000000, 93.213, -159.4205
272.000000, 93.201, -158.9306
276.000000, 93.190, -158.4424
280.000000, 93.165, -158.1217
285.000000, 93.114, -157.4103
290.000000, 93.078, -156.7934
295.000000, 93.056, -156.0245
300.000000, 92.972, -156.1648
304.000000, 92.879, -155.8710
307.000000, 92.811, -155.1573
311.000000, 92.749, -154.4327
315.000000, 92.736, -154.4216
320.000000, 92.759, -153.5359
325.000000, 92.815, -152.5804
330.000000, 92.817, -152.2503
335.000000, 92.793, -151.8667
340.000000, 92.734, -151.9489
345.000000, 92.756, -151.8594
350.000000, 92.788, -151.9000
355.000000, 92.817, -151.8568
360.000000, 92.835, -150.5991
365.000000, 92.779, -149.7673
370.000000, 92.778, -149.6993
375.000000, 92.813, -149.3319
382.000000, 92.766, -147.6212
387.000000, 92.549, -147.4345
395.000000, 92.358, -147.8441
400.000000, 92.389, -148.5155
406.000000, 92.509, -149.1451
412.000000, 92.655, -147.4697
418.000000, 92.623, -144.6797
425.000000, 92.426, -144.0352
431.000000, 92.325, -144.0378
437.000000, 92.246, -143.6531
444.000000, 92.177, -142.9917
450.000000, 92.294, -142.2990
455.000000, 92.401, -141.6745
462.000000, 92.531, -139.5839
468.000000, 92.767, -139.1889
475.000000, 92.432, -141.6021
482.000000, 91.860, -143.3304
487.000000, 91.695, -144.5037
494.000000, 91.720, -142.1036
500.000000, 91.932, -138.5354
508.000000, 92.072, -136.3413
515.000000, 92.088, -136.2307
522.000000, 92.095, -135.1774
530.000000, 92.055, -133.9259
538.000000, 92.004, -133.1492
545.000000, 92.007, -132.1294
552.000000, 92.025, -131.1203
560.000000, 92.022, -130.2427
570.000000, 92.033, -128.8759
580.000000, 92.015, -127.4518
590.000000, 92.012, -126.7364
600.000000, 92.039, -126.0084
608.000000, 92.065, -125.2177
615.000000, 92.089, -124.4172
622.000000, 92.073, -123.6666
630.000000, 92.051, -122.8758
640.000000, 92.044, -121.6096
650.000000, 92.013, -120.5278
660.000000, 92.015, -119.7014
670.000000, 92.016, -118.9708
680.000000, 91.993, -117.9366
690.000000, 91.993, -116.4856
700.000000, 92.018, -115.3366
710.000000, 91.970, -114.2279
720.000000, 91.903, -112.8802
730.000000, 91.858, -111.3543
740.000000, 91.833, -110.1185
750.000000, 91.830, -109.0323
762.000000, 91.859, -107.7388
775.000000, 91.870, -105.9823
788.000000, 91.938, -103.8430
800.000000, 92.024, -102.1901
812.000000, 92.119, -101.0198
825.000000, 92.217, -99.9192
838.000000, 92.276, -98.7463
850.000000, 92.323, -97.6694
862.000000, 92.378, -96.7767
875.000000, 92.420, -95.7807
885.000000, 92.426, -94.8090
900.000000, 92.431, -93.5701
912.000000, 92.429, -92.8631
925.000000, 92.421, -91.9069
938.000000, 92.454, -90.4446
950.000000, 92.512, -88.9968
962.000000, 92.559, -87.7745
975.000000, 92.565, -86.7446
988.000000, 92.502, -85.8101
1000.000000, 92.458, -85.1728
1015.000000, 92.465, -84.0356
1030.000000, 92.500, -82.6669
1044.000000, 92.528, -81.2369
1060.000000, 92.547, -78.7979
1075.000000, 92.613, -77.3760
1090.000000, 92.721, -76.6708
1106.000000, 92.709, -75.1865
1120.000000, 92.587, -73.9581
1138.000000, 92.480, -72.4567
1150.000000, 92.472, -71.1279
1172.000000, 92.544, -68.0868
1180.000000, 92.611, -67.1725
1206.000000, 92.613, -64.7666
1220.000000, 92.541, -63.7386
1241.000000, 92.660, -61.8508
1250.000000, 92.697, -61.1289
1265.000000, 92.695, -60.0301
1280.000000, 92.688, -58.0856
1315.000000, 92.677, -53.8078
1320.000000, 92.670, -53.3996
1340.000000, 92.707, -51.5957
1360.000000, 92.753, -49.3116
1380.000000, 92.713, -47.2092
1400.000000, 92.723, -45.2264
1430.000000, 92.845, -41.5735
1450.000000, 92.900, -39.2227
1475.000000, 92.952, -36.6204
1500.000000, 93.028, -34.0587
1525.000000, 93.117, -31.1897
1550.000000, 93.176, -27.7401
1575.000000, 93.171, -24.3710
1600.000000, 93.297, -21.6091
1625.000000, 93.524, -18.6614
1650.000000, 93.732, -15.7343
1675.000000, 93.925, -12.9661
1700.000000, 94.083, -10.5445
1725.000000, 94.193, -8.0642
1750.000000, 94.312, -5.2046
1775.000000, 94.504, -2.5997
1800.000000, 94.764, 0.3507
1825.000000, 95.027, 3.3051
1850.000000, 95.314, 5.9914
1875.000000, 95.600, 8.5252
1900.000000, 95.893, 11.0180
1925.000000, 96.198, 13.2076
1950.000000, 96.497, 15.0444
1975.000000, 96.772, 16.7675
2000.000000, 97.047, 18.7312
2030.000000, 97.433, 21.0798
2060.000000, 97.842, 23.0474
2090.000000, 98.218, 24.5609
2120.000000, 98.539, 25.6962
2140.000000, 98.734, 26.3611
2180.000000, 99.098, 27.9310
2200.000000, 99.282, 28.8434
2240.000000, 99.675, 30.5846
2270.000000, 99.986, 31.6946
2300.000000, 100.282, 32.4912
2330.000000, 100.531, 32.9702
2360.000000, 100.734, 33.4668
2400.000000, 101.008, 34.3277
2430.000000, 101.215, 35.0428
2470.000000, 101.470, 36.0513
2500.000000, 101.640, 36.7151
2540.000000, 101.848, 37.3109
2580.000000, 102.028, 37.8677
2620.000000, 102.198, 38.7976
2650.000000, 102.337, 39.5374
2690.000000, 102.511, 40.2453
2720.000000, 102.614, 40.6688
2760.000000, 102.739, 41.3644
2800.000000, 102.885, 41.9705
2850.000000, 103.038, 42.7117
2900.000000, 103.111, 43.5702
2950.000000, 103.185, 44.1127
3000.000000, 103.301, 44.9350
3040.000000, 103.410, 45.4571
3070.000000, 103.475, 45.5924
3110.000000, 103.515, 45.4554
3150.000000, 103.491, 45.2449
3200.000000, 103.390, 45.3141
3250.000000, 103.231, 45.7780
3300.000000, 103.063, 46.4799
3350.000000, 102.887, 47.3995
3400.000000, 102.724, 48.5367
3450.000000, 102.571, 49.5857
3500.000000, 102.376, 50.5888
3550.000000, 102.125, 51.8674
3600.000000, 101.880, 53.5828
3650.000000, 101.661, 55.4452
3700.000000, 101.447, 57.3344
3750.000000, 101.233, 59.2825
3820.000000, 100.908, 62.0393
3870.000000, 100.637, 64.1556
3950.000000, 100.166, 68.1851
4000.000000, 99.896, 71.1082
4060.000000, 99.599, 74.7965
4120.000000, 99.303, 78.6465
4180.000000, 98.998, 82.8832
4250.000000, 98.675, 88.5152
4310.000000, 98.462, 93.8178
4370.000000, 98.311, 99.6641
4440.000000, 98.311, 107.0957
4500.000000, 98.506, 113.3945
4550.000000, 98.808, 118.2371
4620.000000, 99.386, 123.6211
4680.000000, 99.902, 126.8094
4750.000000, 100.410, 129.3988
4820.000000, 100.813, 131.4086
4870.000000, 101.061, 132.6917
4940.000000, 101.382, 134.4118
5000.000000, 101.657, 135.7632
5080.000000, 102.031, 137.0755
5150.000000, 102.350, 137.6201
5220.000000, 102.638, 137.5631
5300.000000, 102.904, 136.6743
5380.000000, 103.057, 134.9379
5450.000000, 103.059, 132.8246
5520.000000, 102.891, 130.4057
5600.000000, 102.480, 127.7639
5700.000000, 101.669, 125.2715
5800.000000, 100.623, 124.3836
5900.000000, 99.450, 125.1633
6000.000000, 98.221, 127.8723
6080.000000, 97.287, 131.1539
6150.000000, 96.519, 134.6666
6220.000000, 95.799, 138.6749
6300.000000, 95.050, 143.7408
6400.000000, 94.239, 150.4814
6500.000000, 93.549, 157.5381
6600.000000, 92.984, 164.7009
6700.000000, 92.523, 171.6890
6800.000000, 92.142, 178.4146
6900.000000, 91.833, -175.1979
7000.000000, 91.579, -169.1562
7100.000000, 91.354, -163.4693
7200.000000, 91.125, -158.1380
7300.000000, 90.863, -152.9026
7400.000000, 90.591, -147.6321
7500.000000, 90.330, -142.3989
7620.000000, 90.052, -136.3302
7750.000000, 89.771, -129.9858
7880.000000, 89.440, -123.9225
8000.000000, 89.106, -118.7876
8120.000000, 88.736, -114.2773
8250.000000, 88.257, -110.1161
8380.000000, 87.663, -106.7060
8500.000000, 86.956, -104.2978
8620.000000, 86.020, -102.6099
8750.000000, 84.609, -101.4134
8850.000000, 83.126, -100.6591
9000.000000, 79.935, -97.8070
9120.000000, 76.315, -88.7612
9250.000000, 72.068, -49.8084
9380.000000, 71.940, 19.3986
9500.000000, 74.636, 45.9963
9620.000000, 77.199, 60.0041
9750.000000, 79.613, 71.2031
9880.000000, 81.856, 79.6881
10000.000000, 83.781, 85.0212
10150.000000, 85.952, 88.5341
10300.000000, 87.798, 88.8480
10440.000000, 89.182, 86.7783
10600.000000, 90.315, 82.0587
10750.000000, 90.839, 75.6487
10900.000000, 90.707, 68.2539
11060.000000, 89.774, 60.9581
11200.000000, 88.355, 56.6710
11380.000000, 85.999, 55.1097
11500.000000, 84.266, 55.9205
11720.000000, 80.752, 57.1663
11800.000000, 79.231, 56.1818
12060.000000, 76.391, -73.6344
12200.000000, 79.506, -130.9745
12410.000000, 83.786, -144.8128
12500.000000, 84.933, -149.9680
12650.000000, 86.172, -157.7702
12800.000000, 86.716, -165.1034
13150.000000, 84.873, -176.8858
13200.000000, 84.273, -176.5905
13400.000000, 81.634, -167.5477
13600.000000, 79.723, -147.7727
13800.000000, 79.381, -124.6045
14000.000000, 80.348, -104.7976
14300.000000, 82.663, -87.1288
14500.000000, 83.897, -81.9766
14750.000000, 84.805, -78.8207
