* Measurement data measured by REW V5.31.3
* Source: Headset (DS by VECLAN.COM), MICROPHONE (Master Volume), L, volume: 0.720. Timing signal peak level -12.4 dBFS, measurement signal peak level -12.4 dBFS
* Format: 2M Log Swept Sine, 1 sweep at -12.0 dBFS using an acoustic timing reference
* Dated: Sep 1, 2024 1:20:37 PM
* REW Settings:
*  C-weighting compensation: Off
*  Target level: 85.0 dB
* Note: ; Delay -0.0662 ms (-23 mm, -0.89 in) using estimated IR delay relative to Acoustic reference played from HEADPHONE L with no timing offset
* Measurement: Sennheiser HD58x L4
* Smoothing: 1/24 octave
* Frequency Step: 1/48 octave
* Start Frequency: 1.000 Hz
*
* Freq(Hz), SPL(dB), Phase(degrees)
1.000000, 60.807, 20.1047
1.015000, 60.950, 19.5356
1.030000, 61.094, 18.9326
1.044000, 61.230, 18.3381
1.060000, 61.388, 17.6200
1.075000, 61.539, 16.9085
1.090000, 61.691, 16.1611
1.106000, 61.858, 15.3354
1.120000, 62.009, 14.6092
1.138000, 62.212, 13.6858
1.150000, 62.352, 13.0781
1.172000, 62.617, 11.9737
1.180000, 62.715, 11.5705
1.206000, 63.042, 10.2769
1.220000, 63.222, 9.5898
1.241000, 63.494, 8.5694
1.250000, 63.611, 8.1353
1.265000, 63.807, 7.4152
1.280000, 64.002, 6.6984
1.315000, 64.452, 5.0333
1.320000, 64.515, 4.7957
1.340000, 64.764, 3.8444
1.360000, 65.006, 2.8915
1.380000, 65.239, 1.8956
1.400000, 65.462, 0.8783
1.430000, 65.772, -0.6636
1.450000, 65.960, -1.7028
1.475000, 66.174, -2.9996
1.500000, 66.363, -4.2517
1.525000, 66.533, -5.4404
1.550000, 66.684, -6.5679
1.575000, 66.820, -7.6615
1.600000, 66.943, -8.7447
1.625000, 67.056, -9.7851
1.650000, 67.162, -10.7893
1.675000, 67.263, -11.7638
1.700000, 67.363, -12.7146
1.725000, 67.463, -13.6473
1.750000, 67.567, -14.5671
1.775000, 67.677, -15.4957
1.800000, 67.795, -16.4532
1.825000, 67.924, -17.4057
1.850000, 68.062, -18.3412
1.875000, 68.206, -19.2401
1.900000, 68.353, -20.0970
1.925000, 68.502, -20.9141
1.950000, 68.654, -21.6942
1.975000, 68.807, -22.4580
2.000000, 68.962, -23.2253
2.030000, 69.148, -24.1114
2.060000, 69.335, -24.9678
2.090000, 69.520, -25.8007
2.120000, 69.704, -26.6158
2.140000, 69.825, -27.1520
2.180000, 70.064, -28.2334
2.200000, 70.181, -28.7870
2.240000, 70.412, -29.8628
2.270000, 70.584, -30.6329
2.300000, 70.756, -31.3713
2.330000, 70.926, -32.0802
2.360000, 71.095, -32.7628
2.400000, 71.318, -33.6847
2.430000, 71.483, -34.3595
2.470000, 71.701, -35.2338
2.500000, 71.862, -35.8744
2.540000, 72.073, -36.7132
2.580000, 72.281, -37.5535
2.620000, 72.485, -38.4054
2.650000, 72.635, -39.0228
2.690000, 72.833, -39.8183
2.720000, 72.980, -40.3950
2.760000, 73.172, -41.1379
2.800000, 73.361, -41.8951
2.850000, 73.593, -42.8170
2.900000, 73.819, -43.7103
2.950000, 74.040, -44.5793
3.000000, 74.255, -45.4526
3.040000, 74.424, -46.1406
3.070000, 74.548, -46.6433
3.110000, 74.710, -47.2961
3.150000, 74.870, -47.9295
3.200000, 75.065, -48.7266
3.250000, 75.257, -49.5129
3.300000, 75.445, -50.2766
3.350000, 75.630, -51.0186
3.400000, 75.810, -51.7723
3.450000, 75.985, -52.5175
3.500000, 76.157, -53.2397
3.550000, 76.326, -53.9387
3.600000, 76.491, -54.6425
3.650000, 76.652, -55.3379
3.700000, 76.811, -56.0164
3.750000, 76.965, -56.6799
3.820000, 77.176, -57.6175
3.870000, 77.322, -58.2748
3.950000, 77.550, -59.2902
4.000000, 77.690, -59.9249
4.060000, 77.854, -60.6795
4.120000, 78.014, -61.4182
4.180000, 78.170, -62.1476
4.250000, 78.347, -63.0079
4.310000, 78.495, -63.7214
4.370000, 78.639, -64.4179
4.440000, 78.802, -65.2433
4.500000, 78.938, -65.9392
4.550000, 79.048, -66.5086
4.620000, 79.197, -67.3133
4.680000, 79.322, -67.9872
4.750000, 79.463, -68.7453
4.820000, 79.600, -69.5035
4.870000, 79.695, -70.0399
4.940000, 79.823, -70.7734
5.000000, 79.931, -71.3971
5.080000, 80.069, -72.2057
5.150000, 80.185, -72.8788
5.220000, 80.297, -73.5508
5.300000, 80.420, -74.3010
5.380000, 80.539, -75.0193
5.450000, 80.640, -75.6327
5.520000, 80.739, -76.2103
5.600000, 80.848, -76.8467
5.700000, 80.981, -77.6139
5.800000, 81.111, -78.3336
5.900000, 81.239, -79.0128
6.000000, 81.367, -79.6441
6.080000, 81.467, -80.1327
6.150000, 81.556, -80.5368
6.220000, 81.646, -80.9377
6.300000, 81.750, -81.3745
6.400000, 81.881, -81.8941
6.500000, 82.014, -82.4081
6.600000, 82.150, -82.9183
6.700000, 82.288, -83.4326
6.800000, 82.428, -83.9422
6.900000, 82.570, -84.4703
7.000000, 82.712, -85.0167
7.100000, 82.854, -85.5855
7.200000, 82.997, -86.1690
7.300000, 83.136, -86.7799
7.400000, 83.272, -87.4155
7.500000, 83.405, -88.0820
7.620000, 83.557, -88.8971
7.750000, 83.713, -89.7950
7.880000, 83.858, -90.7181
8.000000, 83.982, -91.5602
8.120000, 84.096, -92.3852
8.250000, 84.208, -93.2629
8.380000, 84.310, -94.0972
8.500000, 84.397, -94.8177
8.620000, 84.476, -95.4905
8.750000, 84.557, -96.1571
8.850000, 84.618, -96.6189
9.000000, 84.707, -97.2296
9.120000, 84.779, -97.6615
9.250000, 84.861, -98.0749
9.380000, 84.948, -98.4349
9.500000, 85.033, -98.7441
9.620000, 85.124, -99.0325
9.750000, 85.228, -99.3306
9.880000, 85.330, -99.6401
10.000000, 85.420, -99.9365
10.150000, 85.527, -100.3631
10.300000, 85.627, -100.8191
10.440000, 85.716, -101.2738
10.600000, 85.812, -101.8196
10.750000, 85.898, -102.3540
10.900000, 85.979, -102.9004
11.060000, 86.061, -103.5048
11.200000, 86.126, -104.0632
11.380000, 86.203, -104.7475
11.500000, 86.248, -105.1763
11.720000, 86.325, -105.8988
11.800000, 86.353, -106.1383
12.060000, 86.445, -106.8629
12.200000, 86.499, -107.2519
12.410000, 86.585, -107.7912
12.500000, 86.623, -108.0115
12.650000, 86.687, -108.3682
12.800000, 86.751, -108.7182
13.150000, 86.905, -109.5876
13.200000, 86.927, -109.7227
13.400000, 87.016, -110.2651
13.600000, 87.102, -110.8042
13.800000, 87.183, -111.3334
14.000000, 87.262, -111.8489
14.300000, 87.374, -112.6562
14.500000, 87.445, -113.1620
14.750000, 87.533, -113.7575
15.000000, 87.621, -114.3236
15.250000, 87.716, -114.9265
15.500000, 87.811, -115.5202
15.750000, 87.902, -116.1036
16.000000, 87.987, -116.6733
16.250000, 88.068, -117.2626
16.500000, 88.145, -117.8146
16.750000, 88.218, -118.3180
17.000000, 88.293, -118.7750
17.250000, 88.372, -119.2210
17.500000, 88.456, -119.6444
17.750000, 88.544, -120.0629
18.000000, 88.635, -120.4985
18.250000, 88.727, -120.9851
18.500000, 88.815, -121.5042
18.750000, 88.897, -122.0435
19.000000, 88.970, -122.5863
19.250000, 89.037, -123.1343
19.500000, 89.096, -123.6422
19.750000, 89.150, -124.0962
20.000000, 89.203, -124.4943
20.299999, 89.270, -124.9435
20.600000, 89.343, -125.3596
20.900000, 89.422, -125.7795
21.200001, 89.503, -126.2488
21.400000, 89.554, -126.5885
21.799999, 89.647, -127.2955
22.000000, 89.686, -127.6482
22.400000, 89.755, -128.3387
22.700001, 89.800, -128.7933
23.000000, 89.846, -129.1941
23.299999, 89.897, -129.5764
23.600000, 89.953, -129.9451
24.000000, 90.034, -130.4502
24.299999, 90.096, -130.8710
24.700001, 90.177, -131.4614
25.000000, 90.233, -131.9135
25.400000, 90.302, -132.5325
25.799999, 90.366, -133.1299
26.200001, 90.426, -133.7084
26.500000, 90.470, -134.1312
26.900000, 90.527, -134.6766
27.200001, 90.570, -135.0875
27.600000, 90.626, -135.6474
28.000000, 90.674, -136.2193
28.500000, 90.717, -136.9293
29.000000, 90.739, -137.5207
29.500000, 90.755, -137.9145
30.000000, 90.788, -138.1136
30.400000, 90.838, -138.2374
30.700001, 90.889, -138.3631
31.100000, 90.965, -138.6285
31.500000, 91.041, -139.0258
32.000000, 91.119, -139.6266
32.500000, 91.177, -140.2532
33.000000, 91.223, -140.8199
33.500000, 91.269, -141.3411
34.000000, 91.319, -141.8466
34.500000, 91.373, -142.3793
35.000000, 91.425, -142.9411
35.500000, 91.471, -143.5315
36.000000, 91.511, -144.1324
36.500000, 91.544, -144.7354
37.000000, 91.569, -145.3246
37.500000, 91.588, -145.8991
38.200001, 91.603, -146.6522
38.700001, 91.606, -147.1334
39.500000, 91.605, -147.7525
40.000000, 91.610, -148.0518
40.599998, 91.625, -148.3757
41.200001, 91.646, -148.6768
41.799999, 91.672, -148.9550
42.500000, 91.713, -149.2764
43.099998, 91.754, -149.6006
43.700001, 91.791, -149.9834
44.400002, 91.819, -150.4392
45.000000, 91.834, -150.7842
45.500000, 91.845, -151.0376
46.200001, 91.862, -151.3647
46.799999, 91.880, -151.6503
47.500000, 91.898, -152.0008
48.200001, 91.912, -152.3356
48.700001, 91.923, -152.5500
49.400002, 91.947, -152.8466
50.000000, 91.971, -153.1464
50.799999, 91.995, -153.6157
51.500000, 92.000, -154.0018
52.200001, 91.999, -154.2796
53.000000, 92.010, -154.4525
53.799999, 92.049, -154.6162
54.500000, 92.100, -154.8868
55.200001, 92.150, -155.3023
56.000000, 92.198, -155.9306
57.000000, 92.229, -156.9238
58.000000, 92.211, -157.9698
59.000000, 92.149, -158.9713
60.000000, 92.025, -159.7210
60.799999, 91.909, -159.9120
61.500000, 91.818, -159.8625
62.200001, 91.732, -159.6663
63.000000, 91.642, -159.1779
64.000000, 91.584, -158.2043
65.000000, 91.608, -157.1522
66.000000, 91.704, -156.3116
67.000000, 91.836, -155.8647
68.000000, 91.971, -155.7490
69.000000, 92.098, -155.8643
70.000000, 92.211, -156.1458
71.000000, 92.305, -156.5370
72.000000, 92.382, -157.0071
73.000000, 92.440, -157.5048
74.000000, 92.481, -157.9985
75.000000, 92.510, -158.4685
76.199997, 92.533, -158.9608
77.500000, 92.560, -159.3632
78.800003, 92.600, -159.7298
80.000000, 92.643, -160.1399
81.199997, 92.679, -160.6410
82.500000, 92.696, -161.2703
83.800003, 92.683, -161.8696
85.000000, 92.655, -162.2541
86.199997, 92.640, -162.4300
87.500000, 92.657, -162.5822
88.500000, 92.682, -162.7862
90.000000, 92.711, -163.2456
91.199997, 92.714, -163.6630
92.500000, 92.702, -164.0860
93.800003, 92.676, -164.4808
95.000000, 92.638, -164.7913
96.199997, 92.589, -164.9834
97.500000, 92.535, -165.0020
98.800003, 92.495, -164.8347
100.000000, 92.484, -164.5669
101.500000, 92.511, -164.2556
103.000000, 92.565, -164.1102
104.400002, 92.624, -164.1371
106.000000, 92.685, -164.3220
107.500000, 92.726, -164.5927
109.000000, 92.751, -164.8935
110.599998, 92.766, -165.1764
112.000000, 92.779, -165.3895
113.800003, 92.797, -165.6383
115.000000, 92.812, -165.8108
117.199997, 92.840, -166.1933
118.000000, 92.848, -166.3415
120.599998, 92.875, -166.8348
122.000000, 92.884, -167.0962
124.099998, 92.894, -167.4482
125.000000, 92.896, -167.6092
126.500000, 92.893, -167.8701
128.000000, 92.887, -168.1105
131.500000, 92.872, -168.6112
132.000000, 92.870, -168.6691
134.000000, 92.865, -168.9076
136.000000, 92.858, -169.1900
138.000000, 92.847, -169.4755
140.000000, 92.833, -169.7199
143.000000, 92.804, -170.0150
145.000000, 92.778, -170.1606
147.500000, 92.743, -170.2649
150.000000, 92.719, -170.2481
152.500000, 92.710, -170.1773
155.000000, 92.712, -170.1209
157.500000, 92.722, -170.1502
160.000000, 92.734, -170.2300
162.500000, 92.741, -170.3526
165.000000, 92.731, -170.4599
167.500000, 92.724, -170.5072
170.000000, 92.723, -170.6024
172.500000, 92.719, -170.6958
175.000000, 92.714, -170.7514
177.500000, 92.708, -170.7774
180.000000, 92.707, -170.8016
182.500000, 92.708, -170.8862
185.000000, 92.708, -170.9749
187.500000, 92.707, -171.0728
190.000000, 92.702, -171.1766
192.500000, 92.697, -171.2788
195.000000, 92.693, -171.3799
197.500000, 92.687, -171.4643
200.000000, 92.680, -171.5563
203.000000, 92.666, -171.6891
206.000000, 92.646, -171.8204
209.000000, 92.621, -171.9150
212.000000, 92.592, -171.9234
214.000000, 92.575, -171.8744
218.000000, 92.553, -171.7880
220.000000, 92.548, -171.7494
224.000000, 92.542, -171.7052
227.000000, 92.537, -171.6954
230.000000, 92.533, -171.6960
233.000000, 92.531, -171.6835
236.000000, 92.526, -171.6695
240.000000, 92.514, -171.6984
243.000000, 92.501, -171.7193
247.000000, 92.479, -171.7170
250.000000, 92.463, -171.6924
254.000000, 92.443, -171.6248
258.000000, 92.422, -171.5424
262.000000, 92.397, -171.4699
265.000000, 92.379, -171.3809
269.000000, 92.354, -171.2158
272.000000, 92.338, -171.0479
276.000000, 92.326, -170.7564
280.000000, 92.330, -170.4106
285.000000, 92.364, -170.0534
290.000000, 92.406, -169.9075
295.000000, 92.430, -169.9341
300.000000, 92.436, -169.9442
304.000000, 92.440, -169.9369
307.000000, 92.446, -169.9194
311.000000, 92.449, -169.8897
315.000000, 92.446, -169.8439
320.000000, 92.439, -169.7395
325.000000, 92.431, -169.5992
330.000000, 92.424, -169.4366
335.000000, 92.423, -169.2312
340.000000, 92.428, -169.0279
345.000000, 92.436, -168.8544
350.000000, 92.442, -168.6742
355.000000, 92.443, -168.5110
360.000000, 92.446, -168.3324
365.000000, 92.459, -168.1471
370.000000, 92.476, -168.0052
375.000000, 92.488, -167.9059
382.000000, 92.500, -167.7785
387.000000, 92.505, -167.6997
395.000000, 92.505, -167.5807
400.000000, 92.500, -167.4778
406.000000, 92.494, -167.2989
412.000000, 92.495, -167.1005
418.000000, 92.502, -166.9023
425.000000, 92.513, -166.7117
431.000000, 92.524, -166.5798
437.000000, 92.530, -166.5144
444.000000, 92.524, -166.4229
450.000000, 92.519, -166.2969
455.000000, 92.518, -166.1836
462.000000, 92.509, -166.0804
468.000000, 92.493, -165.9532
475.000000, 92.474, -165.7492
482.000000, 92.459, -165.5071
487.000000, 92.448, -165.2984
494.000000, 92.436, -164.9482
500.000000, 92.435, -164.6045
508.000000, 92.450, -164.1576
515.000000, 92.473, -163.8397
522.000000, 92.496, -163.5540
530.000000, 92.522, -163.3053
538.000000, 92.543, -163.0778
545.000000, 92.558, -162.8531
552.000000, 92.577, -162.6196
560.000000, 92.603, -162.4013
570.000000, 92.634, -162.2059
580.000000, 92.644, -162.0692
590.000000, 92.632, -161.8235
600.000000, 92.643, -161.4173
608.000000, 92.669, -161.1411
615.000000, 92.693, -160.9683
622.000000, 92.714, -160.8171
630.000000, 92.735, -160.6971
640.000000, 92.752, -160.6405
650.000000, 92.755, -160.6668
660.000000, 92.733, -160.7694
670.000000, 92.674, -160.8377
680.000000, 92.584, -160.6881
690.000000, 92.491, -160.2009
700.000000, 92.417, -159.5471
710.000000, 92.358, -158.7899
720.000000, 92.315, -157.8987
730.000000, 92.294, -156.9263
740.000000, 92.299, -155.9269
750.000000, 92.326, -154.9782
762.000000, 92.370, -153.9392
775.000000, 92.432, -152.8027
788.000000, 92.518, -151.7113
800.000000, 92.620, -150.7784
812.000000, 92.743, -150.0059
825.000000, 92.877, -149.4315
838.000000, 92.992, -149.0493
850.000000, 93.082, -148.7050
862.000000, 93.168, -148.3255
875.000000, 93.268, -147.9074
885.000000, 93.350, -147.6564
900.000000, 93.461, -147.4314
912.000000, 93.538, -147.2565
925.000000, 93.624, -147.0350
938.000000, 93.710, -146.9204
950.000000, 93.783, -146.8223
962.000000, 93.856, -146.7888
975.000000, 93.925, -146.8371
988.000000, 93.971, -146.9561
1000.000000, 93.987, -147.0476
1015.000000, 93.985, -146.8944
1030.000000, 94.007, -146.4408
1044.000000, 94.080, -146.0318
1060.000000, 94.184, -146.0000
1075.000000, 94.226, -146.1709
1090.000000, 94.271, -146.0110
1106.000000, 94.356, -146.0691
1120.000000, 94.400, -146.3273
1138.000000, 94.402, -146.5279
1150.000000, 94.397, -146.4502
1172.000000, 94.385, -146.1152
1180.000000, 94.389, -145.8113
1206.000000, 94.522, -145.1364
1220.000000, 94.581, -145.2658
1241.000000, 94.609, -145.1489
1250.000000, 94.642, -144.9805
1265.000000, 94.700, -145.0736
1280.000000, 94.692, -145.2785
1315.000000, 94.627, -144.4096
1320.000000, 94.628, -144.1387
1340.000000, 94.728, -142.9376
1360.000000, 94.892, -142.8903
1380.000000, 94.892, -143.3948
1400.000000, 94.861, -143.0876
1430.000000, 94.879, -142.4727
1450.000000, 94.913, -142.0413
1475.000000, 94.940, -141.5865
1500.000000, 94.971, -140.8688
1525.000000, 95.037, -139.9870
1550.000000, 95.195, -139.5038
1575.000000, 95.232, -139.7740
1600.000000, 95.225, -139.3534
1625.000000, 95.241, -138.7249
1650.000000, 95.317, -138.0349
1675.000000, 95.403, -137.8464
1700.000000, 95.425, -137.8730
1725.000000, 95.389, -137.4295
1750.000000, 95.419, -136.7666
1775.000000, 95.427, -136.3774
1800.000000, 95.418, -135.7342
1825.000000, 95.441, -134.7061
1850.000000, 95.534, -133.8744
1875.000000, 95.632, -133.4739
1900.000000, 95.676, -133.3633
1925.000000, 95.652, -133.0256
1950.000000, 95.627, -132.0674
1975.000000, 95.697, -130.9356
2000.000000, 95.778, -130.4158
2030.000000, 95.806, -129.5261
2060.000000, 95.878, -128.2319
2090.000000, 96.024, -126.8665
2120.000000, 96.225, -125.8382
2140.000000, 96.386, -125.2705
2180.000000, 96.755, -125.2236
2200.000000, 96.860, -125.8569
2240.000000, 96.857, -126.2115
2270.000000, 96.938, -125.6796
2300.000000, 97.020, -125.9186
2330.000000, 96.982, -126.0248
2360.000000, 96.914, -125.2211
2400.000000, 96.976, -123.5011
2430.000000, 97.090, -122.3249
2470.000000, 97.316, -120.9775
2500.000000, 97.512, -120.2009
2540.000000, 97.805, -119.4608
2580.000000, 98.143, -119.1221
2620.000000, 98.468, -119.5841
2650.000000, 98.662, -120.1852
2690.000000, 98.887, -121.0551
2720.000000, 99.019, -121.9323
2760.000000, 99.121, -123.0636
2800.000000, 99.185, -123.8480
2850.000000, 99.271, -124.6803
2900.000000, 99.388, -125.5515
2950.000000, 99.453, -126.8711
3000.000000, 99.433, -128.0455
3040.000000, 99.387, -128.7924
3070.000000, 99.345, -129.1244
3110.000000, 99.328, -129.3843
3150.000000, 99.320, -129.9586
3200.000000, 99.242, -130.4906
3250.000000, 99.213, -130.6186
3300.000000, 99.209, -131.0301
3350.000000, 99.194, -131.5453
3400.000000, 99.184, -132.1555
3450.000000, 99.162, -133.0708
3500.000000, 99.077, -134.1313
3550.000000, 98.952, -134.9322
3600.000000, 98.817, -135.7654
3650.000000, 98.631, -136.5960
3700.000000, 98.399, -137.1646
3750.000000, 98.148, -137.4486
3820.000000, 97.752, -137.4315
3870.000000, 97.479, -136.9078
3950.000000, 97.099, -136.1649
4000.000000, 96.820, -135.7418
4060.000000, 96.432, -134.8974
4120.000000, 96.005, -133.5420
4180.000000, 95.543, -131.3444
4250.000000, 95.075, -127.5987
4310.000000, 94.760, -123.5971
4370.000000, 94.583, -118.8225
4440.000000, 94.605, -113.1481
4500.000000, 94.793, -108.4067
4550.000000, 95.105, -104.7863
4620.000000, 95.674, -101.1259
4680.000000, 96.217, -99.2050
4750.000000, 96.804, -98.4076
4820.000000, 97.300, -98.4765
4870.000000, 97.588, -99.0252
4940.000000, 97.864, -100.0488
5000.000000, 98.003, -100.8212
5080.000000, 98.106, -101.4226
5150.000000, 98.167, -101.4159
5220.000000, 98.262, -100.9379
5300.000000, 98.457, -100.1328
5380.000000, 98.775, -99.4552
5450.000000, 99.141, -99.2903
5520.000000, 99.588, -99.8254
5600.000000, 100.127, -101.6386
5700.000000, 100.739, -105.7038
5800.000000, 101.190, -111.7348
5900.000000, 101.328, -119.5403
6000.000000, 101.004, -128.1096
6080.000000, 100.396, -134.4695
6150.000000, 99.653, -139.0610
6220.000000, 98.775, -142.5459
6300.000000, 97.689, -144.9691
6400.000000, 96.326, -146.0422
6500.000000, 95.041, -145.4244
6600.000000, 93.853, -143.7650
6700.000000, 92.747, -141.4122
6800.000000, 91.689, -138.5008
6900.000000, 90.660, -134.9578
7000.000000, 89.663, -130.4051
7100.000000, 88.743, -124.7205
7200.000000, 87.945, -118.0671
7300.000000, 87.297, -110.4591
7400.000000, 86.840, -102.1561
7500.000000, 86.622, -93.4784
7620.000000, 86.696, -83.4562
7750.000000, 87.096, -73.7612
7880.000000, 87.677, -65.3425
8000.000000, 88.391, -59.1389
8120.000000, 89.206, -55.1532
8250.000000, 90.037, -53.4843
8380.000000, 90.653, -54.1876
8500.000000, 90.869, -56.2361
8620.000000, 90.667, -57.9642
8750.000000, 90.125, -57.4909
8850.000000, 89.726, -54.8712
9000.000000, 89.551, -49.1290
9120.000000, 89.813, -45.1790
9250.000000, 90.336, -43.2258
9380.000000, 90.848, -44.4919
9500.000000, 91.019, -48.2602
9620.000000, 90.717, -53.0017
9750.000000, 89.832, -57.2237
9880.000000, 88.509, -58.7593
10000.000000, 87.106, -56.8819
10150.000000, 85.424, -50.4233
10300.000000, 84.012, -40.4915
10440.000000, 83.024, -28.2738
10600.000000, 82.570, -10.8543
10750.000000, 83.193, 6.8229
10900.000000, 84.932, 21.0923
11060.000000, 87.481, 27.6666
11200.000000, 89.509, 24.5621
11380.000000, 90.664, 11.7920
11500.000000, 90.208, 3.1010
11720.000000, 87.768, -1.1745
11800.000000, 86.863, 1.7611
12060.000000, 85.405, 19.1946
12200.000000, 85.546, 28.9072
12410.000000, 86.590, 40.4607
12500.000000, 87.269, 43.6558
12650.000000, 88.524, 45.6919
12800.000000, 89.643, 43.3513
13150.000000, 90.316, 28.1129
13200.000000, 90.157, 25.8087
