* Measurement data measured by REW V5.31.3
* Source: Headset (DS by VECLAN.COM), MICROPHONE (Master Volume), L, volume: 0.720. Timing signal peak level -12.4 dBFS, measurement signal peak level -12.3 dBFS
* Format: 2M Log Swept Sine, 1 sweep at -12.0 dBFS using an acoustic timing reference
* Dated: Sep 1, 2024 1:19:51 PM
* REW Settings:
*  C-weighting compensation: Off
*  Target level: 85.0 dB
* Note: ; Delay -0.0655 ms (-22 mm, -0.88 in) using estimated IR delay relative to Acoustic reference played from HEADPHONE L with no timing offset
* Measurement: Sennheiser HD58x L2
* Smoothing: 1/24 octave
* Frequency Step: 1/48 octave
* Start Frequency: 1.000 Hz
*
* Freq(Hz), SPL(dB), Phase(degrees)
1.000000, 59.180, 0.3776
1.015000, 59.437, -0.1094
1.030000, 59.693, -0.6174
1.044000, 59.930, -1.1112
1.060000, 60.199, -1.6996
1.075000, 60.450, -2.2748
1.090000, 60.698, -2.8706
1.106000, 60.963, -3.5132
1.120000, 61.196, -4.0555
1.138000, 61.502, -4.7093
1.150000, 61.708, -5.1192
1.172000, 62.090, -5.8300
1.180000, 62.231, -6.0820
1.206000, 62.688, -6.8601
1.220000, 62.935, -7.2581
1.241000, 63.304, -7.8342
1.250000, 63.461, -8.0751
1.265000, 63.722, -8.4707
1.280000, 63.980, -8.8610
1.315000, 64.567, -9.7630
1.320000, 64.649, -9.8918
1.340000, 64.971, -10.4101
1.360000, 65.282, -10.9340
1.380000, 65.580, -11.5058
1.400000, 65.864, -12.1047
1.430000, 66.260, -13.0310
1.450000, 66.501, -13.6681
1.475000, 66.775, -14.4703
1.500000, 67.017, -15.2341
1.525000, 67.230, -15.9425
1.550000, 67.418, -16.6015
1.575000, 67.583, -17.2408
1.600000, 67.730, -17.8861
1.625000, 67.861, -18.5058
1.650000, 67.980, -19.1072
1.675000, 68.091, -19.6968
1.700000, 68.197, -20.2806
1.725000, 68.302, -20.8638
1.750000, 68.408, -21.4512
1.775000, 68.520, -22.0638
1.800000, 68.641, -22.7214
1.825000, 68.773, -23.3896
1.850000, 68.913, -24.0563
1.875000, 69.056, -24.7020
1.900000, 69.199, -25.3213
1.925000, 69.343, -25.9154
1.950000, 69.487, -26.4866
1.975000, 69.630, -27.0545
2.000000, 69.773, -27.6384
2.030000, 69.943, -28.3196
2.060000, 70.112, -28.9864
2.090000, 70.279, -29.6438
2.120000, 70.445, -30.2965
2.140000, 70.554, -30.7314
2.180000, 70.768, -31.6256
2.200000, 70.874, -32.0937
2.240000, 71.083, -33.0174
2.270000, 71.237, -33.6900
2.300000, 71.390, -34.3433
2.330000, 71.541, -34.9777
2.360000, 71.690, -35.5945
2.400000, 71.886, -36.4398
2.430000, 72.031, -37.0637
2.470000, 72.221, -37.8769
2.500000, 72.361, -38.4757
2.540000, 72.545, -39.2632
2.580000, 72.726, -40.0594
2.620000, 72.903, -40.8800
2.650000, 73.034, -41.4827
2.690000, 73.205, -42.2677
2.720000, 73.332, -42.8412
2.760000, 73.497, -43.5833
2.800000, 73.659, -44.3412
2.850000, 73.858, -45.2620
2.900000, 74.051, -46.1492
2.950000, 74.240, -47.0086
3.000000, 74.423, -47.8789
3.040000, 74.565, -48.5705
3.070000, 74.670, -49.0778
3.110000, 74.807, -49.7370
3.150000, 74.941, -50.3752
3.200000, 75.105, -51.1723
3.250000, 75.267, -51.9483
3.300000, 75.425, -52.6902
3.350000, 75.580, -53.4041
3.400000, 75.732, -54.1289
3.450000, 75.879, -54.8433
3.500000, 76.024, -55.5310
3.550000, 76.166, -56.1891
3.600000, 76.305, -56.8430
3.650000, 76.443, -57.4775
3.700000, 76.579, -58.0839
3.750000, 76.713, -58.6669
3.820000, 76.895, -59.4821
3.870000, 77.023, -60.0466
3.950000, 77.225, -60.9059
4.000000, 77.351, -61.4373
4.060000, 77.502, -62.0589
4.120000, 77.651, -62.6511
4.180000, 77.799, -63.2249
4.250000, 77.970, -63.9006
4.310000, 78.115, -64.4598
4.370000, 78.260, -65.0081
4.440000, 78.427, -65.6623
4.500000, 78.570, -66.2049
4.550000, 78.689, -66.6445
4.620000, 78.853, -67.2737
4.680000, 78.993, -67.8109
4.750000, 79.155, -68.4313
4.820000, 79.316, -69.0677
4.870000, 79.430, -69.5206
4.940000, 79.589, -70.1449
5.000000, 79.723, -70.6887
5.080000, 79.899, -71.4211
5.150000, 80.050, -72.0596
5.220000, 80.197, -72.7188
5.300000, 80.363, -73.4752
5.380000, 80.523, -74.2249
5.450000, 80.660, -74.8913
5.520000, 80.793, -75.5490
5.600000, 80.941, -76.3077
5.700000, 81.118, -77.2629
5.800000, 81.288, -78.1982
5.900000, 81.449, -79.1210
6.000000, 81.602, -80.0316
6.080000, 81.719, -80.7577
6.150000, 81.817, -81.3683
6.220000, 81.913, -81.9695
6.300000, 82.017, -82.6337
6.400000, 82.142, -83.4399
6.500000, 82.262, -84.2203
6.600000, 82.377, -84.9531
6.700000, 82.489, -85.6514
6.800000, 82.596, -86.3120
6.900000, 82.702, -86.9427
7.000000, 82.807, -87.5313
7.100000, 82.912, -88.0883
7.200000, 83.016, -88.6139
7.300000, 83.121, -89.1220
7.400000, 83.226, -89.6068
7.500000, 83.332, -90.0789
7.620000, 83.461, -90.6267
7.750000, 83.601, -91.2105
7.880000, 83.742, -91.7914
8.000000, 83.873, -92.3221
8.120000, 84.002, -92.8627
8.250000, 84.140, -93.4567
8.380000, 84.276, -94.0533
8.500000, 84.398, -94.6135
8.620000, 84.516, -95.1767
8.750000, 84.640, -95.7832
8.850000, 84.731, -96.2450
9.000000, 84.862, -96.9249
9.120000, 84.963, -97.4555
9.250000, 85.068, -98.0124
9.380000, 85.169, -98.5472
9.500000, 85.259, -99.0227
9.620000, 85.349, -99.4718
9.750000, 85.442, -99.9342
9.880000, 85.528, -100.3788
10.000000, 85.598, -100.7653
10.150000, 85.676, -101.2602
10.300000, 85.748, -101.7299
10.440000, 85.811, -102.1487
10.600000, 85.881, -102.6124
10.750000, 85.949, -103.0393
10.900000, 86.018, -103.4605
11.060000, 86.094, -103.9343
11.200000, 86.159, -104.3863
11.380000, 86.241, -104.9610
11.500000, 86.292, -105.3392
11.720000, 86.382, -106.0145
11.800000, 86.414, -106.2521
12.060000, 86.517, -107.0137
12.200000, 86.573, -107.4402
12.410000, 86.657, -108.0449
12.500000, 86.692, -108.2911
12.650000, 86.750, -108.6850
12.800000, 86.808, -109.0615
13.150000, 86.945, -109.9408
13.200000, 86.965, -110.0724
13.400000, 87.046, -110.5910
13.600000, 87.128, -111.0998
13.800000, 87.209, -111.6003
14.000000, 87.288, -112.0951
14.300000, 87.403, -112.8911
14.500000, 87.475, -113.4000
14.750000, 87.562, -114.0021
15.000000, 87.648, -114.5682
15.250000, 87.739, -115.1562
15.500000, 87.831, -115.7193
15.750000, 87.922, -116.2615
16.000000, 88.009, -116.7887
16.250000, 88.094, -117.3442
16.500000, 88.174, -117.8763
16.750000, 88.251, -118.3738
17.000000, 88.326, -118.8315
17.250000, 88.401, -119.2736
17.500000, 88.478, -119.6765
17.750000, 88.558, -120.0489
18.000000, 88.642, -120.4111
18.250000, 88.730, -120.8029
18.500000, 88.820, -121.2196
18.750000, 88.909, -121.6662
19.000000, 88.994, -122.1427
19.250000, 89.073, -122.6634
19.500000, 89.145, -123.1862
19.750000, 89.208, -123.6917
20.000000, 89.264, -124.1626
20.299999, 89.326, -124.6993
20.600000, 89.388, -125.1733
20.900000, 89.453, -125.6058
21.200001, 89.525, -126.0512
21.400000, 89.575, -126.3691
21.799999, 89.674, -127.0662
22.000000, 89.719, -127.4467
22.400000, 89.794, -128.2632
22.700001, 89.835, -128.8435
23.000000, 89.866, -129.3503
23.299999, 89.896, -129.7812
23.600000, 89.933, -130.1272
24.000000, 90.003, -130.5258
24.299999, 90.071, -130.8643
24.700001, 90.170, -131.4139
25.000000, 90.239, -131.8995
25.400000, 90.317, -132.6069
25.799999, 90.377, -133.2660
26.200001, 90.432, -133.8317
26.500000, 90.477, -134.2101
26.900000, 90.547, -134.7075
27.200001, 90.603, -135.1239
27.600000, 90.669, -135.7500
28.000000, 90.715, -136.4029
28.500000, 90.741, -137.1284
29.000000, 90.751, -137.6051
29.500000, 90.774, -137.8519
30.000000, 90.827, -137.9955
30.400000, 90.890, -138.1584
30.700001, 90.944, -138.3392
31.100000, 91.019, -138.6786
31.500000, 91.089, -139.1315
32.000000, 91.159, -139.7847
32.500000, 91.208, -140.4627
33.000000, 91.242, -141.0682
33.500000, 91.273, -141.5844
34.000000, 91.315, -142.0391
34.500000, 91.370, -142.5145
35.000000, 91.428, -143.0528
35.500000, 91.480, -143.6565
36.000000, 91.521, -144.2797
36.500000, 91.551, -144.8888
37.000000, 91.572, -145.4618
37.500000, 91.586, -146.0020
38.200001, 91.594, -146.6862
38.700001, 91.591, -147.1129
39.500000, 91.579, -147.6360
40.000000, 91.576, -147.8512
40.599998, 91.587, -148.0561
41.200001, 91.616, -148.2827
41.799999, 91.650, -148.5785
42.500000, 91.691, -148.9785
43.099998, 91.728, -149.3470
43.700001, 91.765, -149.7556
44.400002, 91.798, -150.2446
45.000000, 91.821, -150.6058
45.500000, 91.845, -150.8714
46.200001, 91.886, -151.2732
46.799999, 91.916, -151.6778
47.500000, 91.932, -152.1290
48.200001, 91.940, -152.4587
48.700001, 91.950, -152.6268
49.400002, 91.978, -152.8357
50.000000, 92.013, -153.0629
50.799999, 92.062, -153.5228
51.500000, 92.088, -154.0445
52.200001, 92.092, -154.5674
53.000000, 92.078, -155.0377
53.799999, 92.067, -155.3252
54.500000, 92.079, -155.4794
55.200001, 92.113, -155.6798
56.000000, 92.164, -156.0863
57.000000, 92.206, -156.8654
58.000000, 92.191, -157.7366
59.000000, 92.134, -158.4183
60.000000, 92.062, -159.0302
60.799999, 91.966, -159.4893
61.500000, 91.852, -159.6755
62.200001, 91.733, -159.5604
63.000000, 91.617, -159.1006
64.000000, 91.529, -158.1579
65.000000, 91.531, -157.0435
66.000000, 91.619, -156.1077
67.000000, 91.750, -155.5471
68.000000, 91.891, -155.3233
69.000000, 92.021, -155.3523
70.000000, 92.132, -155.5214
71.000000, 92.233, -155.7273
72.000000, 92.333, -156.0581
73.000000, 92.415, -156.5087
74.000000, 92.480, -156.9557
75.000000, 92.540, -157.3956
76.199997, 92.603, -157.9542
77.500000, 92.659, -158.5631
78.800003, 92.701, -159.1597
80.000000, 92.730, -159.6956
81.199997, 92.756, -160.2302
82.500000, 92.770, -160.8561
83.800003, 92.766, -161.4112
85.000000, 92.759, -161.8338
86.199997, 92.756, -162.1966
87.500000, 92.755, -162.5788
88.500000, 92.752, -162.8758
90.000000, 92.735, -163.2968
91.199997, 92.715, -163.5587
92.500000, 92.696, -163.7560
93.800003, 92.687, -163.9218
95.000000, 92.684, -164.1158
96.199997, 92.675, -164.3310
97.500000, 92.660, -164.5268
98.800003, 92.643, -164.6606
100.000000, 92.633, -164.7252
101.500000, 92.626, -164.7856
103.000000, 92.620, -164.8124
104.400002, 92.620, -164.7850
106.000000, 92.635, -164.7345
107.500000, 92.659, -164.7590
109.000000, 92.683, -164.8183
110.599998, 92.713, -164.8937
112.000000, 92.743, -164.9840
113.800003, 92.784, -165.1722
115.000000, 92.810, -165.3538
117.199997, 92.849, -165.7554
118.000000, 92.862, -165.9177
120.599998, 92.888, -166.4541
122.000000, 92.896, -166.6955
124.099998, 92.912, -167.0449
125.000000, 92.916, -167.2321
126.500000, 92.913, -167.5283
128.000000, 92.903, -167.7605
131.500000, 92.883, -168.2399
132.000000, 92.880, -168.3020
134.000000, 92.870, -168.5423
136.000000, 92.865, -168.8313
138.000000, 92.855, -169.1196
140.000000, 92.839, -169.3788
143.000000, 92.794, -169.6334
145.000000, 92.758, -169.6809
147.500000, 92.724, -169.6068
150.000000, 92.714, -169.4504
152.500000, 92.727, -169.3348
155.000000, 92.750, -169.3184
157.500000, 92.771, -169.3821
160.000000, 92.788, -169.5075
162.500000, 92.797, -169.6886
165.000000, 92.793, -169.8520
167.500000, 92.786, -169.9498
170.000000, 92.781, -170.0264
172.500000, 92.776, -170.0785
175.000000, 92.771, -170.0968
177.500000, 92.769, -170.1150
180.000000, 92.771, -170.1685
182.500000, 92.774, -170.2884
185.000000, 92.776, -170.4003
187.500000, 92.779, -170.5118
190.000000, 92.781, -170.6264
192.500000, 92.780, -170.7437
195.000000, 92.776, -170.8737
197.500000, 92.769, -171.0132
200.000000, 92.761, -171.1608
203.000000, 92.746, -171.3375
206.000000, 92.718, -171.4871
209.000000, 92.680, -171.5681
212.000000, 92.643, -171.5462
214.000000, 92.623, -171.4712
218.000000, 92.600, -171.3295
220.000000, 92.593, -171.2727
224.000000, 92.583, -171.1842
227.000000, 92.578, -171.1266
230.000000, 92.572, -171.0966
233.000000, 92.561, -171.0739
236.000000, 92.552, -171.0273
240.000000, 92.542, -170.9657
243.000000, 92.535, -170.9047
247.000000, 92.527, -170.8860
250.000000, 92.517, -170.8552
254.000000, 92.502, -170.7525
258.000000, 92.488, -170.6632
262.000000, 92.474, -170.5841
265.000000, 92.463, -170.5066
269.000000, 92.449, -170.3698
272.000000, 92.440, -170.2267
276.000000, 92.431, -169.9779
280.000000, 92.431, -169.6900
285.000000, 92.458, -169.3805
290.000000, 92.498, -169.2188
295.000000, 92.530, -169.1991
300.000000, 92.545, -169.1294
304.000000, 92.549, -169.0957
307.000000, 92.551, -169.0713
311.000000, 92.553, -169.0295
315.000000, 92.553, -168.9677
320.000000, 92.555, -168.8632
325.000000, 92.555, -168.7334
330.000000, 92.558, -168.5855
335.000000, 92.565, -168.4087
340.000000, 92.574, -168.2276
345.000000, 92.583, -168.0950
350.000000, 92.592, -167.9644
355.000000, 92.599, -167.8508
360.000000, 92.607, -167.7115
365.000000, 92.618, -167.5730
370.000000, 92.628, -167.4633
375.000000, 92.637, -167.3796
382.000000, 92.647, -167.2837
387.000000, 92.650, -167.2160
395.000000, 92.647, -167.1109
400.000000, 92.638, -167.0126
406.000000, 92.626, -166.8439
412.000000, 92.618, -166.6562
418.000000, 92.614, -166.4227
425.000000, 92.621, -166.1607
431.000000, 92.644, -165.9619
437.000000, 92.661, -165.8167
444.000000, 92.651, -165.6690
450.000000, 92.636, -165.5922
455.000000, 92.632, -165.4945
462.000000, 92.631, -165.4068
468.000000, 92.626, -165.2829
475.000000, 92.614, -165.0479
482.000000, 92.603, -164.8195
487.000000, 92.597, -164.6525
494.000000, 92.588, -164.3558
500.000000, 92.582, -164.0625
508.000000, 92.588, -163.5844
515.000000, 92.607, -163.2319
522.000000, 92.624, -162.9212
530.000000, 92.643, -162.5871
538.000000, 92.666, -162.2879
545.000000, 92.690, -161.9934
552.000000, 92.718, -161.7005
560.000000, 92.758, -161.4568
570.000000, 92.804, -161.2393
580.000000, 92.830, -161.0750
590.000000, 92.844, -160.8335
600.000000, 92.868, -160.4853
608.000000, 92.898, -160.2742
615.000000, 92.923, -160.1679
622.000000, 92.943, -160.0721
630.000000, 92.965, -159.9867
640.000000, 92.984, -159.9577
650.000000, 92.990, -159.9981
660.000000, 92.976, -160.1108
670.000000, 92.923, -160.2032
680.000000, 92.836, -160.0865
690.000000, 92.745, -159.6216
700.000000, 92.675, -158.9721
710.000000, 92.626, -158.2563
720.000000, 92.601, -157.4803
730.000000, 92.598, -156.6590
740.000000, 92.610, -155.8510
750.000000, 92.630, -155.0951
762.000000, 92.655, -154.2449
775.000000, 92.688, -153.2697
788.000000, 92.736, -152.2748
800.000000, 92.799, -151.3288
812.000000, 92.886, -150.4590
825.000000, 92.991, -149.6561
838.000000, 93.099, -148.9914
850.000000, 93.197, -148.4218
862.000000, 93.300, -147.8854
875.000000, 93.424, -147.3824
885.000000, 93.525, -147.1053
900.000000, 93.659, -146.8967
912.000000, 93.749, -146.7651
925.000000, 93.850, -146.5940
938.000000, 93.948, -146.5663
950.000000, 94.028, -146.5712
962.000000, 94.101, -146.6211
975.000000, 94.165, -146.7595
988.000000, 94.204, -146.9854
1000.000000, 94.210, -147.1354
1015.000000, 94.198, -147.0022
1030.000000, 94.211, -146.5809
1044.000000, 94.267, -146.1835
1060.000000, 94.350, -146.0624
1075.000000, 94.382, -146.0932
1090.000000, 94.427, -145.7806
1106.000000, 94.529, -145.7216
1120.000000, 94.592, -145.9612
1138.000000, 94.608, -146.2149
1150.000000, 94.607, -146.1805
1172.000000, 94.589, -145.8823
1180.000000, 94.591, -145.5444
1206.000000, 94.742, -144.7128
1220.000000, 94.824, -144.8257
1241.000000, 94.873, -144.8857
1250.000000, 94.905, -144.8089
1265.000000, 94.959, -144.9924
1280.000000, 94.948, -145.2653
1315.000000, 94.869, -144.3493
1320.000000, 94.871, -144.0640
1340.000000, 94.979, -142.9023
1360.000000, 95.142, -142.9632
1380.000000, 95.131, -143.4887
1400.000000, 95.103, -143.1530
1430.000000, 95.128, -142.6293
1450.000000, 95.152, -142.2701
1475.000000, 95.160, -141.7440
1500.000000, 95.199, -140.8707
1525.000000, 95.291, -139.9456
1550.000000, 95.461, -139.6620
1575.000000, 95.483, -140.0105
1600.000000, 95.471, -139.5215
1625.000000, 95.504, -138.9201
1650.000000, 95.584, -138.4157
1675.000000, 95.650, -138.3566
1700.000000, 95.647, -138.3639
1725.000000, 95.609, -137.8393
1750.000000, 95.636, -137.1842
1775.000000, 95.632, -136.7817
1800.000000, 95.606, -136.0715
1825.000000, 95.621, -134.8997
1850.000000, 95.725, -133.9321
1875.000000, 95.826, -133.4910
1900.000000, 95.882, -133.1731
1925.000000, 95.900, -132.7814
1950.000000, 95.910, -131.9399
1975.000000, 95.994, -131.0171
2000.000000, 96.073, -130.6082
2030.000000, 96.110, -129.8529
2060.000000, 96.168, -128.8100
2090.000000, 96.273, -127.5394
2120.000000, 96.447, -126.3313
2140.000000, 96.615, -125.6910
2180.000000, 96.962, -125.7636
2200.000000, 97.040, -126.2687
2240.000000, 97.051, -126.1522
2270.000000, 97.164, -125.5710
2300.000000, 97.257, -125.7598
2330.000000, 97.245, -125.6986
2360.000000, 97.226, -124.8447
2400.000000, 97.331, -123.3258
2430.000000, 97.472, -122.2123
2470.000000, 97.742, -121.1370
2500.000000, 97.949, -120.7186
2540.000000, 98.229, -120.2177
2580.000000, 98.572, -120.0926
2620.000000, 98.891, -120.8386
2650.000000, 99.068, -121.6557
2690.000000, 99.256, -122.7674
2720.000000, 99.348, -123.7176
2760.000000, 99.423, -124.7902
2800.000000, 99.463, -125.6682
2850.000000, 99.490, -126.3983
2900.000000, 99.587, -126.9794
2950.000000, 99.660, -128.0394
3000.000000, 99.669, -129.0736
3040.000000, 99.647, -129.7620
3070.000000, 99.632, -130.0797
3110.000000, 99.654, -130.5439
3150.000000, 99.649, -131.4126
3200.000000, 99.572, -132.1537
3250.000000, 99.523, -132.7432
3300.000000, 99.444, -133.3950
3350.000000, 99.357, -133.7920
3400.000000, 99.308, -134.1333
3450.000000, 99.263, -134.8063
3500.000000, 99.170, -135.5403
3550.000000, 99.061, -136.1135
3600.000000, 98.945, -136.7618
3650.000000, 98.791, -137.4962
3700.000000, 98.583, -138.0541
3750.000000, 98.360, -138.4004
3820.000000, 97.974, -138.5344
3870.000000, 97.701, -138.0912
3950.000000, 97.307, -137.2935
4000.000000, 97.043, -136.7752
4060.000000, 96.686, -136.0325
4120.000000, 96.251, -134.9193
4180.000000, 95.764, -132.7439
4250.000000, 95.252, -128.8652
4310.000000, 94.932, -124.2883
4370.000000, 94.822, -119.0132
4440.000000, 94.987, -113.1122
4500.000000, 95.308, -108.8923
4550.000000, 95.661, -106.0708
4620.000000, 96.213, -103.3057
4680.000000, 96.702, -101.8726
4750.000000, 97.234, -101.3306
4820.000000, 97.686, -101.5596
4870.000000, 97.946, -102.1917
4940.000000, 98.178, -103.2811
5000.000000, 98.289, -103.9669
5080.000000, 98.379, -104.3847
5150.000000, 98.472, -104.2832
5220.000000, 98.602, -104.0277
5300.000000, 98.801, -103.6715
5380.000000, 99.077, -103.3579
5450.000000, 99.406, -103.2915
5520.000000, 99.839, -103.8274
5600.000000, 100.402, -105.7625
5700.000000, 101.033, -110.6080
5800.000000, 101.376, -117.6655
5900.000000, 101.291, -125.9879
6000.000000, 100.718, -134.1530
6080.000000, 99.953, -139.5857
6150.000000, 99.137, -143.1588
6220.000000, 98.242, -145.6099
6300.000000, 97.193, -146.9840
6400.000000, 95.929, -147.0616
6500.000000, 94.777, -145.8510
6600.000000, 93.724, -143.9340
6700.000000, 92.738, -141.6010
6800.000000, 91.785, -138.8269
6900.000000, 90.856, -135.5007
7000.000000, 89.956, -131.3601
7100.000000, 89.112, -126.2395
7200.000000, 88.368, -120.1881
7300.000000, 87.770, -113.2303
7400.000000, 87.357, -105.7767
7500.000000, 87.139, -98.2561
7620.000000, 87.110, -89.5775
7750.000000, 87.330, -80.4969
7880.000000, 87.797, -71.9935
8000.000000, 88.483, -65.7972
8120.000000, 89.300, -62.2174
8250.000000, 90.105, -61.5418
8380.000000, 90.593, -63.4898
8500.000000, 90.617, -66.4042
8620.000000, 90.192, -68.7450
8750.000000, 89.346, -68.8277
8850.000000, 88.618, -66.2792
9000.000000, 87.882, -58.4878
9120.000000, 87.954, -51.2085
9250.000000, 88.589, -46.7898
9380.000000, 89.192, -47.4206
9500.000000, 89.306, -50.9665
9620.000000, 88.846, -55.0358
9750.000000, 87.751, -57.5473
9880.000000, 86.293, -56.2691
10000.000000, 84.915, -51.3320
10150.000000, 83.448, -41.1089
10300.000000, 82.447, -27.4357
10440.000000, 82.112, -12.0862
10600.000000, 82.765, 6.6708
10750.000000, 84.503, 21.2637
10900.000000, 86.888, 28.2033
11060.000000, 89.203, 25.4679
11200.000000, 90.292, 16.7804
11380.000000, 89.939, 4.6833
11500.000000, 88.858, 0.7998
11720.000000, 86.649, 6.5739
11800.000000, 86.159, 11.6940
12060.000000, 86.114, 29.2832
12200.000000, 86.752, 36.6486
12410.000000, 88.183, 43.7487
12500.000000, 88.915, 45.0179
12650.000000, 90.164, 44.1897
12800.000000, 91.224, 39.4009
13150.000000, 91.547, 18.5443
