* Measurement data measured by REW V5.31.3
* Source: Headset (DS by VECLAN.COM), MICROPHONE (Master Volume), L, volume: 0.720. Timing signal peak level -14.9 dBFS, measurement signal peak level -14.9 dBFS
* Format: 2M Log Swept Sine, 1 sweep at -22.5 dBFS using an acoustic timing reference
* Dated: Oct 15, 2024 12:45:46 PM
* REW Settings:
*  C-weighting compensation: Off
*  Target level: 85.0 dB
* Note: ; Fosi DS1 Delay -0.0200 ms (-6.9 mm, -0.27 in) using estimated IR delay relative to Acoustic reference played from SPEAKER L with no timing offset Clock adjustment: -26.3 ppm
* Measurement: Sennheiser HD58x L5
* Smoothing: 1/24 octave
* Frequency Step: 1/48 octave
* Start Frequency: 1.000 Hz
*
* Freq(Hz), SPL(dB), Phase(degrees)
1.000000, 62.011, 26.3694
1.015000, 62.330, 25.0743
1.030000, 62.639, 23.8239
1.044000, 62.917, 22.6904
1.060000, 63.222, 21.4265
1.075000, 63.492, 20.2649
1.090000, 63.745, 19.1190
1.106000, 64.001, 17.9067
1.120000, 64.217, 16.8513
1.138000, 64.490, 15.5052
1.150000, 64.669, 14.6176
1.172000, 64.991, 13.0136
1.180000, 65.106, 12.4361
1.206000, 65.471, 10.6039
1.220000, 65.663, 9.6476
1.241000, 65.942, 8.2558
1.250000, 66.059, 7.6755
1.265000, 66.250, 6.7301
1.280000, 66.436, 5.8122
1.315000, 66.849, 3.7760
1.320000, 66.906, 3.4969
1.340000, 67.126, 2.4093
1.360000, 67.336, 1.3670
1.380000, 67.535, 0.3294
1.400000, 67.722, -0.6833
1.430000, 67.982, -2.1354
1.450000, 68.141, -3.0642
1.475000, 68.319, -4.1932
1.500000, 68.471, -5.3051
1.525000, 68.597, -6.4031
1.550000, 68.700, -7.4816
1.575000, 68.782, -8.5527
1.600000, 68.846, -9.6260
1.625000, 68.896, -10.6684
1.650000, 68.934, -11.6785
1.675000, 68.964, -12.6554
1.700000, 68.987, -13.5993
1.725000, 69.008, -14.5109
1.750000, 69.030, -15.3912
1.775000, 69.054, -16.2558
1.800000, 69.085, -17.1205
1.825000, 69.123, -17.9619
1.850000, 69.167, -18.7931
1.875000, 69.211, -19.6263
1.900000, 69.254, -20.4613
1.925000, 69.294, -21.2931
1.950000, 69.333, -22.1161
1.975000, 69.370, -22.9369
2.000000, 69.405, -23.7620
2.030000, 69.445, -24.7242
2.060000, 69.484, -25.6525
2.090000, 69.520, -26.5432
2.120000, 69.555, -27.3934
2.140000, 69.577, -27.9366
2.180000, 69.620, -28.9867
2.200000, 69.641, -29.5066
2.240000, 69.679, -30.5293
2.270000, 69.705, -31.2926
2.300000, 69.729, -32.0495
2.330000, 69.752, -32.7943
2.360000, 69.772, -33.5220
2.400000, 69.797, -34.4944
2.430000, 69.815, -35.1959
2.470000, 69.837, -36.0789
2.500000, 69.853, -36.6969
2.540000, 69.873, -37.4572
2.580000, 69.893, -38.1671
2.620000, 69.910, -38.8713
2.650000, 69.921, -39.3832
2.690000, 69.935, -40.0427
2.720000, 69.944, -40.5165
2.760000, 69.955, -41.1136
2.800000, 69.967, -41.7029
2.850000, 69.982, -42.3721
2.900000, 70.001, -42.9483
2.950000, 70.021, -43.4286
3.000000, 70.042, -43.8609
3.040000, 70.059, -44.1728
3.070000, 70.071, -44.3828
3.110000, 70.089, -44.6315
3.150000, 70.110, -44.8448
3.200000, 70.140, -45.0906
3.250000, 70.178, -45.2926
3.300000, 70.223, -45.4319
3.350000, 70.275, -45.4993
3.400000, 70.332, -45.5247
3.450000, 70.395, -45.5090
3.500000, 70.465, -45.4576
3.550000, 70.542, -45.3841
3.600000, 70.627, -45.3271
3.650000, 70.721, -45.2769
3.700000, 70.824, -45.2083
3.750000, 70.937, -45.1041
3.820000, 71.110, -44.9456
3.870000, 71.242, -44.8353
3.950000, 71.465, -44.7006
4.000000, 71.610, -44.6855
4.060000, 71.791, -44.7198
4.120000, 71.981, -44.7639
4.180000, 72.179, -44.8222
4.250000, 72.418, -44.9531
4.310000, 72.624, -45.1145
4.370000, 72.830, -45.3394
4.440000, 73.069, -45.7001
4.500000, 73.275, -46.0460
4.550000, 73.448, -46.3527
4.620000, 73.689, -46.8361
4.680000, 73.892, -47.2878
4.750000, 74.122, -47.8568
4.820000, 74.346, -48.4942
4.870000, 74.502, -48.9764
4.940000, 74.717, -49.6701
5.000000, 74.896, -50.2881
5.080000, 75.126, -51.1279
5.150000, 75.319, -51.8670
5.220000, 75.503, -52.6401
5.300000, 75.705, -53.5400
5.380000, 75.897, -54.4288
5.450000, 76.057, -55.1994
5.520000, 76.210, -55.9402
5.600000, 76.375, -56.7795
5.700000, 76.568, -57.8152
5.800000, 76.751, -58.7896
5.900000, 76.927, -59.6933
6.000000, 77.093, -60.5330
6.080000, 77.221, -61.1704
6.150000, 77.331, -61.6852
6.220000, 77.440, -62.1743
6.300000, 77.564, -62.6849
6.400000, 77.717, -63.2641
6.500000, 77.870, -63.7990
6.600000, 78.027, -64.2872
6.700000, 78.189, -64.7376
6.800000, 78.355, -65.1464
6.900000, 78.524, -65.5482
7.000000, 78.698, -65.9439
7.100000, 78.876, -66.3360
7.200000, 79.057, -66.7268
7.300000, 79.240, -67.1454
7.400000, 79.426, -67.5881
7.500000, 79.615, -68.0550
7.620000, 79.841, -68.6486
7.750000, 80.080, -69.3483
7.880000, 80.315, -70.1094
8.000000, 80.524, -70.8428
8.120000, 80.725, -71.6133
8.250000, 80.933, -72.4836
8.380000, 81.130, -73.3631
8.500000, 81.300, -74.1786
8.620000, 81.459, -74.9931
8.750000, 81.620, -75.8540
8.850000, 81.737, -76.4938
9.000000, 81.901, -77.4137
9.120000, 82.024, -78.1100
9.250000, 82.152, -78.8132
9.380000, 82.274, -79.4638
9.500000, 82.384, -80.0264
9.620000, 82.492, -80.5406
9.750000, 82.607, -81.0537
9.880000, 82.716, -81.5274
10.000000, 82.810, -81.9257
10.150000, 82.920, -82.4176
10.300000, 83.026, -82.8791
10.440000, 83.125, -83.2889
10.600000, 83.238, -83.7489
10.750000, 83.348, -84.1854
10.900000, 83.461, -84.6300
11.060000, 83.583, -85.1534
11.200000, 83.689, -85.6725
11.380000, 83.821, -86.3543
11.500000, 83.904, -86.8163
11.720000, 84.046, -87.6621
11.800000, 84.095, -87.9651
12.060000, 84.248, -88.9386
12.200000, 84.327, -89.4671
12.410000, 84.442, -90.2093
12.500000, 84.489, -90.5057
12.650000, 84.565, -90.9711
12.800000, 84.639, -91.4036
13.150000, 84.818, -92.3538
13.200000, 84.845, -92.4906
13.400000, 84.955, -93.0255
13.600000, 85.070, -93.5565
13.800000, 85.186, -94.0971
14.000000, 85.301, -94.6610
14.300000, 85.469, -95.6143
14.500000, 85.572, -96.2698
14.750000, 85.690, -97.0864
15.000000, 85.796, -97.8783
15.250000, 85.898, -98.6682
15.500000, 85.994, -99.3919
15.750000, 86.087, -100.0445
16.000000, 86.181, -100.6380
16.250000, 86.279, -101.2391
16.500000, 86.381, -101.8260
16.750000, 86.485, -102.4174
17.000000, 86.590, -103.0259
17.250000, 86.692, -103.6785
17.500000, 86.788, -104.3314
17.750000, 86.878, -104.9608
18.000000, 86.961, -105.5537
18.250000, 87.043, -106.1284
18.500000, 87.126, -106.6585
18.750000, 87.213, -107.1532
19.000000, 87.305, -107.6323
19.250000, 87.402, -108.1458
19.500000, 87.501, -108.6777
19.750000, 87.596, -109.2300
20.000000, 87.687, -109.7940
20.299999, 87.786, -110.4941
20.600000, 87.875, -111.1504
20.900000, 87.957, -111.7378
21.200001, 88.039, -112.2704
21.400000, 88.094, -112.5987
21.799999, 88.212, -113.2136
22.000000, 88.274, -113.5207
22.400000, 88.400, -114.1920
22.700001, 88.491, -114.7237
23.000000, 88.574, -115.2669
23.299999, 88.650, -115.8155
23.600000, 88.720, -116.3380
24.000000, 88.809, -116.9806
24.299999, 88.876, -117.4458
24.700001, 88.966, -118.0446
25.000000, 89.034, -118.4917
25.400000, 89.123, -119.1159
25.799999, 89.208, -119.7460
26.200001, 89.288, -120.3848
26.500000, 89.346, -120.8667
26.900000, 89.421, -121.4997
27.200001, 89.476, -121.9785
27.600000, 89.547, -122.6199
28.000000, 89.613, -123.2507
28.500000, 89.689, -124.0241
29.000000, 89.764, -124.7348
29.500000, 89.842, -125.4069
30.000000, 89.921, -126.0762
30.400000, 89.980, -126.6311
30.700001, 90.020, -127.0349
31.100000, 90.072, -127.5420
31.500000, 90.122, -128.0145
32.000000, 90.189, -128.5697
32.500000, 90.256, -129.1273
33.000000, 90.317, -129.6759
33.500000, 90.374, -130.2056
34.000000, 90.435, -130.6893
34.500000, 90.504, -131.1678
35.000000, 90.574, -131.6898
35.500000, 90.638, -132.2634
36.000000, 90.692, -132.8374
36.500000, 90.741, -133.3886
37.000000, 90.789, -133.9149
37.500000, 90.835, -134.4388
38.200001, 90.895, -135.1451
38.700001, 90.938, -135.6298
39.500000, 91.006, -136.3818
40.000000, 91.047, -136.8273
40.599998, 91.098, -137.3513
41.200001, 91.156, -137.8779
41.799999, 91.214, -138.4648
42.500000, 91.265, -139.2034
43.099998, 91.295, -139.7889
43.700001, 91.323, -140.2852
44.400002, 91.361, -140.8245
45.000000, 91.395, -141.2789
45.500000, 91.424, -141.6323
46.200001, 91.469, -142.1189
46.799999, 91.511, -142.5669
47.500000, 91.557, -143.1008
48.200001, 91.597, -143.6119
48.700001, 91.627, -143.9539
49.400002, 91.671, -144.4272
50.000000, 91.710, -144.8555
50.799999, 91.752, -145.4527
51.500000, 91.778, -145.9549
52.200001, 91.803, -146.3945
53.000000, 91.839, -146.8668
53.799999, 91.877, -147.4583
54.500000, 91.896, -148.0267
55.200001, 91.904, -148.5499
56.000000, 91.916, -149.0891
57.000000, 91.933, -149.7655
58.000000, 91.939, -150.3529
59.000000, 91.968, -150.8534
60.000000, 91.974, -151.4162
60.799999, 91.960, -151.6307
61.500000, 91.977, -151.6156
62.200001, 92.021, -151.6818
63.000000, 92.071, -151.9574
64.000000, 92.114, -152.3804
65.000000, 92.137, -152.9485
66.000000, 92.150, -153.5047
67.000000, 92.170, -154.0334
68.000000, 92.198, -154.7061
69.000000, 92.220, -155.4210
70.000000, 92.243, -156.0901
71.000000, 92.265, -156.8188
72.000000, 92.259, -157.4915
73.000000, 92.245, -157.9316
74.000000, 92.234, -158.3443
75.000000, 92.203, -158.7507
76.199997, 92.153, -159.0720
77.500000, 92.108, -159.3292
78.800003, 92.076, -159.6166
80.000000, 92.047, -159.9664
81.199997, 92.019, -160.2823
82.500000, 92.000, -160.6073
83.800003, 91.978, -160.9810
85.000000, 91.938, -161.3338
86.199997, 91.873, -161.6215
87.500000, 91.780, -161.6206
88.500000, 91.720, -161.3837
90.000000, 91.678, -160.8423
91.199997, 91.695, -160.4016
92.500000, 91.760, -160.0044
93.800003, 91.851, -159.9504
95.000000, 91.921, -160.1797
96.199997, 91.972, -160.4700
97.500000, 92.010, -160.8120
98.800003, 92.027, -161.2271
100.000000, 92.021, -161.6074
101.500000, 91.999, -161.9975
103.000000, 91.976, -162.2891
104.400002, 91.959, -162.5391
106.000000, 91.927, -162.8331
107.500000, 91.872, -162.9648
109.000000, 91.796, -162.7514
110.599998, 91.742, -162.1144
112.000000, 91.758, -161.4391
113.800003, 91.855, -160.9035
115.000000, 91.939, -160.8532
117.199997, 92.084, -161.0893
118.000000, 92.129, -161.1811
120.599998, 92.261, -161.4120
122.000000, 92.316, -161.7329
124.099998, 92.330, -162.3891
125.000000, 92.329, -162.6012
126.500000, 92.335, -162.8876
128.000000, 92.347, -163.2063
131.500000, 92.387, -163.7686
132.000000, 92.391, -163.8537
134.000000, 92.397, -164.1805
136.000000, 92.406, -164.4893
138.000000, 92.424, -164.7962
140.000000, 92.443, -165.1021
143.000000, 92.456, -165.5530
145.000000, 92.451, -165.9315
147.500000, 92.436, -166.3419
150.000000, 92.419, -166.6190
152.500000, 92.400, -166.8593
155.000000, 92.371, -167.1317
157.500000, 92.332, -167.3215
160.000000, 92.298, -167.3253
162.500000, 92.287, -167.2136
165.000000, 92.290, -167.1424
167.500000, 92.304, -167.0593
170.000000, 92.322, -167.0525
172.500000, 92.325, -167.0940
175.000000, 92.330, -167.1543
177.500000, 92.337, -167.2947
180.000000, 92.337, -167.4346
182.500000, 92.337, -167.4552
185.000000, 92.338, -167.4491
187.500000, 92.347, -167.4148
190.000000, 92.363, -167.5625
192.500000, 92.374, -167.7634
195.000000, 92.381, -167.8750
197.500000, 92.382, -167.9493
200.000000, 92.384, -168.0272
203.000000, 92.380, -168.2189
206.000000, 92.370, -168.3745
209.000000, 92.363, -168.5528
212.000000, 92.353, -168.7100
214.000000, 92.344, -168.7279
218.000000, 92.318, -168.7116
220.000000, 92.307, -168.7437
224.000000, 92.299, -168.7724
227.000000, 92.293, -168.7624
230.000000, 92.292, -168.7646
233.000000, 92.297, -168.7883
236.000000, 92.296, -168.7859
240.000000, 92.287, -168.8150
243.000000, 92.283, -168.8599
247.000000, 92.277, -168.9095
250.000000, 92.266, -168.9104
254.000000, 92.255, -168.8818
258.000000, 92.240, -168.8902
262.000000, 92.225, -168.9148
265.000000, 92.214, -168.9478
269.000000, 92.192, -168.9718
272.000000, 92.167, -168.9319
276.000000, 92.130, -168.8080
280.000000, 92.096, -168.5364
285.000000, 92.085, -168.0721
290.000000, 92.118, -167.6177
295.000000, 92.168, -167.3176
300.000000, 92.219, -167.2507
304.000000, 92.245, -167.2698
307.000000, 92.259, -167.2809
311.000000, 92.271, -167.3068
315.000000, 92.276, -167.3407
320.000000, 92.273, -167.3464
325.000000, 92.266, -167.2498
330.000000, 92.262, -167.1457
335.000000, 92.260, -167.0124
340.000000, 92.258, -166.9015
345.000000, 92.253, -166.7552
350.000000, 92.255, -166.5519
355.000000, 92.256, -166.4510
360.000000, 92.254, -166.2463
365.000000, 92.260, -165.9807
370.000000, 92.271, -165.7696
375.000000, 92.281, -165.6183
382.000000, 92.296, -165.3679
387.000000, 92.310, -165.2132
395.000000, 92.328, -165.0938
400.000000, 92.336, -164.9858
406.000000, 92.345, -164.7328
412.000000, 92.345, -164.5286
418.000000, 92.354, -164.3646
425.000000, 92.374, -164.1502
431.000000, 92.392, -163.9794
437.000000, 92.404, -163.8511
444.000000, 92.419, -163.6800
450.000000, 92.433, -163.5063
455.000000, 92.442, -163.3581
462.000000, 92.452, -163.1543
468.000000, 92.456, -163.0357
475.000000, 92.469, -162.8300
482.000000, 92.486, -162.6042
487.000000, 92.501, -162.4477
494.000000, 92.521, -162.2198
500.000000, 92.536, -162.0592
508.000000, 92.557, -161.8165
515.000000, 92.580, -161.5789
522.000000, 92.602, -161.3566
530.000000, 92.630, -161.1054
538.000000, 92.667, -160.8737
545.000000, 92.702, -160.7213
552.000000, 92.733, -160.5916
560.000000, 92.758, -160.4003
570.000000, 92.792, -160.1078
580.000000, 92.836, -159.8644
590.000000, 92.884, -159.6832
600.000000, 92.929, -159.6002
608.000000, 92.959, -159.5549
615.000000, 92.980, -159.4928
622.000000, 92.994, -159.4256
630.000000, 93.005, -159.3598
640.000000, 93.027, -159.2384
650.000000, 93.054, -159.1722
660.000000, 93.067, -159.1376
670.000000, 93.067, -159.1037
680.000000, 93.074, -159.0719
690.000000, 93.069, -159.0339
700.000000, 93.061, -158.8983
710.000000, 93.058, -158.7011
720.000000, 93.053, -158.6337
730.000000, 93.036, -158.6362
740.000000, 92.989, -158.5826
750.000000, 92.919, -158.3856
762.000000, 92.830, -157.8537
775.000000, 92.748, -157.0191
788.000000, 92.692, -155.8263
800.000000, 92.699, -154.5900
812.000000, 92.746, -153.4941
825.000000, 92.826, -152.4431
838.000000, 92.929, -151.4814
850.000000, 93.051, -150.7512
862.000000, 93.175, -150.2542
875.000000, 93.285, -149.9236
885.000000, 93.354, -149.7918
900.000000, 93.435, -149.5752
912.000000, 93.500, -149.3027
925.000000, 93.587, -149.1129
938.000000, 93.662, -149.0034
950.000000, 93.726, -148.8517
962.000000, 93.776, -148.7860
975.000000, 93.805, -148.7566
988.000000, 93.817, -148.5811
1000.000000, 93.820, -148.2703
1015.000000, 93.840, -147.7317
1030.000000, 93.920, -147.0754
1044.000000, 94.023, -146.6768
1060.000000, 94.114, -146.4679
1075.000000, 94.181, -146.2568
1090.000000, 94.264, -146.0639
1106.000000, 94.356, -146.0029
1120.000000, 94.425, -145.9341
1138.000000, 94.508, -145.7431
1150.000000, 94.566, -145.5812
1172.000000, 94.701, -145.4370
1180.000000, 94.749, -145.5028
1206.000000, 94.861, -145.6934
1220.000000, 94.910, -145.6729
1241.000000, 94.995, -145.6326
1250.000000, 95.031, -145.6466
1265.000000, 95.076, -145.7345
1280.000000, 95.100, -145.6966
1315.000000, 95.248, -145.1181
1320.000000, 95.274, -145.1070
1340.000000, 95.361, -145.0726
1360.000000, 95.447, -144.9981
1380.000000, 95.512, -145.4966
1400.000000, 95.491, -145.8237
1430.000000, 95.561, -145.3766
1450.000000, 95.630, -145.8092
1475.000000, 95.598, -146.0738
1500.000000, 95.627, -145.9824
1525.000000, 95.591, -146.3690
1550.000000, 95.484, -145.9858
1575.000000, 95.448, -145.2512
1600.000000, 95.436, -144.3970
1625.000000, 95.497, -143.7466
1650.000000, 95.510, -143.4321
1675.000000, 95.490, -142.8103
1700.000000, 95.490, -141.7295
1725.000000, 95.595, -140.6252
1750.000000, 95.743, -140.1699
1775.000000, 95.819, -140.2092
1800.000000, 95.851, -139.9894
1825.000000, 95.879, -139.6016
1850.000000, 95.924, -139.2055
1875.000000, 95.950, -138.9574
1900.000000, 95.960, -138.3892
1925.000000, 95.999, -137.7995
1950.000000, 96.007, -137.3114
1975.000000, 96.013, -136.3786
2000.000000, 96.106, -135.2923
2030.000000, 96.251, -134.6419
2060.000000, 96.335, -133.9922
2090.000000, 96.469, -132.9739
2120.000000, 96.668, -132.4968
2140.000000, 96.771, -132.5372
2180.000000, 96.860, -132.6050
2200.000000, 96.877, -132.3636
2240.000000, 96.925, -131.5520
2270.000000, 96.985, -130.5533
2300.000000, 97.112, -129.4653
2330.000000, 97.266, -128.5700
2360.000000, 97.444, -127.5124
2400.000000, 97.808, -126.4398
2430.000000, 98.097, -126.3800
2470.000000, 98.447, -126.7069
2500.000000, 98.679, -127.2500
2540.000000, 98.950, -128.1362
2580.000000, 99.180, -129.3873
2620.000000, 99.323, -130.8163
2650.000000, 99.387, -131.6016
2690.000000, 99.478, -132.6038
2720.000000, 99.525, -133.3954
2760.000000, 99.538, -134.3756
2800.000000, 99.520, -134.7420
2850.000000, 99.608, -134.7779
2900.000000, 99.790, -135.3074
2950.000000, 99.947, -136.3798
3000.000000, 100.102, -137.8535
3040.000000, 100.144, -139.4610
3070.000000, 100.128, -140.4457
3110.000000, 100.112, -141.5736
3150.000000, 100.102, -142.7879
3200.000000, 100.037, -144.5768
3250.000000, 99.890, -146.0579
3300.000000, 99.730, -147.2125
3350.000000, 99.556, -148.1652
3400.000000, 99.399, -148.9898
3450.000000, 99.233, -149.8837
3500.000000, 99.036, -150.7422
3550.000000, 98.814, -151.2984
3600.000000, 98.601, -151.6966
3650.000000, 98.382, -151.9958
3700.000000, 98.164, -152.2412
3750.000000, 97.925, -152.4446
3820.000000, 97.581, -152.4711
3870.000000, 97.327, -152.4866
3950.000000, 96.869, -152.3557
4000.000000, 96.550, -152.2993
4060.000000, 96.062, -152.0266
4120.000000, 95.482, -150.9654
4180.000000, 94.846, -148.7923
4250.000000, 94.154, -144.4420
4310.000000, 93.664, -139.5179
4370.000000, 93.370, -133.0739
4440.000000, 93.453, -125.3943
4500.000000, 93.794, -119.9131
4550.000000, 94.169, -116.3658
4620.000000, 94.755, -112.4618
4680.000000, 95.298, -110.1236
4750.000000, 95.913, -108.4534
4820.000000, 96.476, -107.8241
4870.000000, 96.823, -107.8083
4940.000000, 97.228, -108.1707
5000.000000, 97.509, -108.5690
5080.000000, 97.821, -109.2634
5150.000000, 98.019, -109.8399
5220.000000, 98.164, -110.1341
5300.000000, 98.335, -109.7967
5380.000000, 98.624, -109.0652
5450.000000, 98.997, -108.6904
5520.000000, 99.449, -108.9408
5600.000000, 100.028, -110.1802
5700.000000, 100.761, -113.4969
5800.000000, 101.403, -118.9806
5900.000000, 101.774, -126.7058
6000.000000, 101.666, -135.6860
6080.000000, 101.192, -142.5591
6150.000000, 100.547, -147.6256
6220.000000, 99.754, -151.5007
6300.000000, 98.758, -154.3507
6400.000000, 97.507, -155.7469
6500.000000, 96.361, -155.3046
6600.000000, 95.364, -153.7695
6700.000000, 94.504, -151.7437
6800.000000, 93.731, -149.5802
6900.000000, 92.990, -147.2462
7000.000000, 92.271, -144.3136
7100.000000, 91.620, -140.5045
7200.000000, 91.086, -136.0791
7300.000000, 90.675, -131.3669
7400.000000, 90.385, -126.5929
7500.000000, 90.197, -121.9370
7620.000000, 90.099, -116.5481
7750.000000, 90.159, -111.0517
7880.000000, 90.276, -106.3556
8000.000000, 90.392, -102.7696
8120.000000, 90.517, -99.7618
8250.000000, 90.663, -97.0037
8380.000000, 90.836, -94.9109
8500.000000, 90.974, -93.8639
8620.000000, 91.009, -93.5684
8750.000000, 90.867, -93.4910
8850.000000, 90.651, -93.1178
9000.000000, 90.270, -91.7513
9120.000000, 89.974, -90.2559
9250.000000, 89.656, -88.3674
9380.000000, 89.381, -86.1876
9500.000000, 89.177, -84.3690
9620.000000, 88.968, -82.9952
9750.000000, 88.667, -81.8355
9880.000000, 88.250, -80.4899
10000.000000, 87.791, -78.5192
10150.000000, 87.236, -75.0209
10300.000000, 86.742, -70.9929
10440.000000, 86.280, -66.7949
10600.000000, 85.769, -60.6585
10750.000000, 85.484, -53.1161
10900.000000, 85.625, -44.6477
11060.000000, 86.343, -36.9309
11200.000000, 87.309, -33.3028
11380.000000, 88.526, -34.4439
11500.000000, 88.993, -38.2781
11720.000000, 88.727, -47.1194
11800.000000, 88.292, -49.5713
12060.000000, 86.274, -50.8851
12200.000000, 85.218, -47.5646
12410.000000, 84.044, -39.5450
12500.000000, 83.728, -35.5645
12650.000000, 83.466, -29.0557
12800.000000, 83.492, -23.6098
