* Measurement data measured by REW V5.31
* Source: Headset (DS by VECLAN.COM), MICROPHONE (Master Volume), L, volume: 0.720. Timing signal peak level -14.0 dBFS, measurement signal peak level -13.4 dBFS
* Format: 4M Log Swept Sine, 1 sweep at -12.0 dBFS using an acoustic timing reference
* Dated: Apr 13, 2024 8:33:41 PM
* REW Settings:
*  C-weighting compensation: Off
*  Target level: 85.0 dB
* Note: ; Delay -0.1574 ms (-54 mm, -2.13 in) using estimated IR delay relative to Acoustic reference played from HEADPHONE R with no timing offset
* Measurement: R2
* Smoothing: 1/24 octave
* Frequency Step: 1/48 octave
* Start Frequency: 1.000 Hz
*
* Freq(Hz), SPL(dB), Phase(degrees)
1.000000, 62.490, 7.3039
1.015000, 62.598, 7.2876
1.030000, 62.706, 7.2659
1.044000, 62.805, 7.2404
1.060000, 62.918, 7.2046
1.075000, 63.023, 7.1642
1.090000, 63.128, 7.1170
1.106000, 63.239, 7.0612
1.120000, 63.339, 7.0116
1.138000, 63.473, 6.9496
1.150000, 63.565, 6.9096
1.172000, 63.738, 6.8319
1.180000, 63.802, 6.7977
1.206000, 64.013, 6.6884
1.220000, 64.127, 6.6302
1.241000, 64.298, 6.5430
1.250000, 64.371, 6.5055
1.265000, 64.491, 6.4425
1.280000, 64.609, 6.3787
1.315000, 64.873, 6.2246
1.320000, 64.909, 6.2018
1.340000, 65.048, 6.1082
1.360000, 65.178, 6.0112
1.380000, 65.296, 5.8708
1.400000, 65.402, 5.7097
1.430000, 65.535, 5.4546
1.450000, 65.603, 5.2742
1.475000, 65.663, 5.0374
1.500000, 65.695, 4.7917
1.525000, 65.700, 4.5411
1.550000, 65.682, 4.2881
1.575000, 65.644, 4.0130
1.600000, 65.590, 3.7001
1.625000, 65.522, 3.3894
1.650000, 65.445, 3.0817
1.675000, 65.362, 2.7773
1.700000, 65.275, 2.4764
1.725000, 65.189, 2.1791
1.750000, 65.107, 1.8851
1.775000, 65.033, 1.5770
1.800000, 64.968, 1.2379
1.825000, 64.917, 0.9000
1.850000, 64.877, 0.5584
1.875000, 64.841, 0.2096
1.900000, 64.809, -0.1450
1.925000, 64.779, -0.5028
1.950000, 64.752, -0.8605
1.975000, 64.726, -1.2325
2.000000, 64.701, -1.6327
2.030000, 64.673, -2.1031
2.060000, 64.646, -2.5620
2.090000, 64.619, -3.0072
2.120000, 64.593, -3.4370
2.140000, 64.575, -3.7144
2.180000, 64.539, -4.2681
2.200000, 64.520, -4.5562
2.240000, 64.482, -5.1324
2.270000, 64.455, -5.5703
2.300000, 64.428, -6.0098
2.330000, 64.401, -6.4463
2.360000, 64.375, -6.8759
2.400000, 64.340, -7.4787
2.430000, 64.314, -7.9192
2.470000, 64.279, -8.4755
2.500000, 64.252, -8.8658
2.540000, 64.216, -9.3464
2.580000, 64.179, -9.8061
2.620000, 64.140, -10.2870
2.650000, 64.111, -10.6414
2.690000, 64.072, -11.1030
2.720000, 64.042, -11.4370
2.760000, 64.002, -11.8590
2.800000, 63.963, -12.2894
2.850000, 63.913, -12.7786
2.900000, 63.864, -13.1953
2.950000, 63.815, -13.5383
3.000000, 63.764, -13.8613
3.040000, 63.723, -14.1023
3.070000, 63.692, -14.2658
3.110000, 63.652, -14.4596
3.150000, 63.612, -14.6239
3.200000, 63.566, -14.8148
3.250000, 63.524, -14.9650
3.300000, 63.487, -15.0547
3.350000, 63.454, -15.0807
3.400000, 63.424, -15.0839
3.450000, 63.397, -15.0544
3.500000, 63.375, -14.9874
3.550000, 63.357, -14.8905
3.600000, 63.347, -14.7974
3.650000, 63.342, -14.6963
3.700000, 63.346, -14.5678
3.750000, 63.356, -14.4019
3.820000, 63.380, -14.1573
3.870000, 63.404, -13.9752
3.950000, 63.454, -13.6940
4.000000, 63.491, -13.5628
4.060000, 63.542, -13.4396
4.120000, 63.603, -13.3205
4.180000, 63.672, -13.2116
4.250000, 63.759, -13.1394
4.310000, 63.836, -13.1107
4.370000, 63.912, -13.1301
4.440000, 64.001, -13.2460
4.500000, 64.079, -13.3860
4.550000, 64.144, -13.5237
4.620000, 64.235, -13.7716
4.680000, 64.309, -14.0132
4.750000, 64.388, -14.3220
4.820000, 64.460, -14.6947
4.870000, 64.508, -14.9929
4.940000, 64.570, -15.4330
5.000000, 64.618, -15.8304
5.080000, 64.670, -16.3571
5.150000, 64.705, -16.7990
5.220000, 64.729, -17.2677
5.300000, 64.745, -17.8151
5.380000, 64.750, -18.3341
5.450000, 64.746, -18.7524
5.520000, 64.734, -19.1074
5.600000, 64.710, -19.4709
5.700000, 64.667, -19.8685
5.800000, 64.616, -20.1515
5.900000, 64.563, -20.2931
6.000000, 64.504, -20.2896
6.080000, 64.457, -20.2094
6.150000, 64.420, -20.0736
6.220000, 64.390, -19.8938
6.300000, 64.364, -19.6098
6.400000, 64.343, -19.1489
6.500000, 64.337, -18.6348
6.600000, 64.352, -18.1089
6.700000, 64.390, -17.5758
6.800000, 64.449, -17.0367
6.900000, 64.522, -16.5636
7.000000, 64.609, -16.1884
7.100000, 64.712, -15.9052
7.200000, 64.824, -15.7090
7.300000, 64.937, -15.6302
7.400000, 65.047, -15.6732
7.500000, 65.157, -15.8327
7.620000, 65.281, -16.1321
7.750000, 65.398, -16.5732
7.880000, 65.496, -17.1395
8.000000, 65.569, -17.7077
8.120000, 65.623, -18.2871
8.250000, 65.661, -18.9306
8.380000, 65.682, -19.5402
8.500000, 65.688, -20.0402
8.620000, 65.682, -20.4805
8.750000, 65.670, -20.8787
8.850000, 65.659, -21.1162
9.000000, 65.642, -21.3618
9.120000, 65.633, -21.4875
9.250000, 65.632, -21.5612
9.380000, 65.640, -21.5742
9.500000, 65.656, -21.5673
9.620000, 65.683, -21.5505
9.750000, 65.721, -21.5280
9.880000, 65.760, -21.5254
10.000000, 65.792, -21.5421
10.150000, 65.829, -21.6229
10.300000, 65.862, -21.7193
10.440000, 65.890, -21.8206
10.600000, 65.922, -21.9330
10.750000, 65.957, -22.0215
10.900000, 65.996, -22.0929
11.060000, 66.049, -22.1738
11.200000, 66.105, -22.2687
11.380000, 66.190, -22.4029
11.500000, 66.255, -22.5098
11.720000, 66.389, -22.7888
11.800000, 66.443, -22.9302
12.060000, 66.625, -23.5741
12.200000, 66.720, -24.0775
12.410000, 66.849, -24.9508
12.500000, 66.893, -25.3534
12.650000, 66.950, -26.0472
12.800000, 66.985, -26.7179
13.150000, 66.979, -28.0102
13.200000, 66.971, -28.1395
13.400000, 66.924, -28.4427
13.600000, 66.877, -28.3548
13.800000, 66.851, -27.8571
14.000000, 66.876, -27.0400
14.300000, 67.043, -25.6036
14.500000, 67.246, -24.7558
14.750000, 67.574, -24.1378
15.000000, 67.939, -24.1796
15.250000, 68.289, -24.9475
15.500000, 68.573, -26.2125
15.750000, 68.765, -27.7328
16.000000, 68.858, -29.2293
16.250000, 68.869, -30.4855
16.500000, 68.827, -31.2748
16.750000, 68.774, -31.5004
17.000000, 68.755, -31.2330
17.250000, 68.801, -30.6863
17.500000, 68.919, -30.0910
17.750000, 69.094, -29.6777
18.000000, 69.297, -29.5684
18.250000, 69.499, -29.7918
18.500000, 69.677, -30.2369
18.750000, 69.823, -30.7766
19.000000, 69.943, -31.2980
19.250000, 70.049, -31.7512
19.500000, 70.154, -32.0991
19.750000, 70.266, -32.3699
20.000000, 70.390, -32.6171
20.299999, 70.549, -32.9741
20.600000, 70.710, -33.3844
20.900000, 70.864, -33.8182
21.200001, 71.013, -34.2440
21.400000, 71.113, -34.5047
21.799999, 71.322, -34.9801
22.000000, 71.434, -35.2265
22.400000, 71.664, -35.8361
22.700001, 71.827, -36.3667
23.000000, 71.973, -36.9021
23.299999, 72.102, -37.3775
23.600000, 72.225, -37.7116
24.000000, 72.408, -37.9449
24.299999, 72.574, -38.0832
24.700001, 72.827, -38.4072
25.000000, 73.019, -38.8416
25.400000, 73.245, -39.6626
25.799999, 73.412, -40.5270
26.200001, 73.531, -41.1823
26.500000, 73.610, -41.4485
26.900000, 73.735, -41.5323
27.200001, 73.857, -41.5091
27.600000, 74.053, -41.5505
28.000000, 74.264, -41.7933
28.500000, 74.509, -42.3573
29.000000, 74.718, -42.9563
29.500000, 74.919, -43.4326
30.000000, 75.147, -43.8940
30.400000, 75.343, -44.4503
30.700001, 75.482, -45.0155
31.100000, 75.631, -45.8910
31.500000, 75.729, -46.7085
32.000000, 75.811, -47.2732
32.500000, 75.928, -47.2629
33.000000, 76.145, -47.0867
33.500000, 76.430, -47.3063
34.000000, 76.702, -48.0190
34.500000, 76.916, -48.8996
35.000000, 77.091, -49.5902
35.500000, 77.275, -50.0624
36.000000, 77.483, -50.5090
36.500000, 77.695, -51.0672
37.000000, 77.891, -51.6771
37.500000, 78.079, -52.2459
38.200001, 78.351, -53.0029
38.700001, 78.548, -53.6211
39.500000, 78.838, -54.6701
40.000000, 79.013, -55.2581
40.599998, 79.237, -55.9534
41.200001, 79.468, -56.7512
41.799999, 79.682, -57.6277
42.500000, 79.914, -58.5741
43.099998, 80.122, -59.3170
43.700001, 80.338, -60.1228
44.400002, 80.571, -61.1571
45.000000, 80.751, -61.9943
45.500000, 80.900, -62.6235
46.200001, 81.121, -63.5023
46.799999, 81.311, -64.3495
47.500000, 81.518, -65.4253
48.200001, 81.710, -66.5157
48.700001, 81.841, -67.2887
49.400002, 82.020, -68.3558
50.000000, 82.172, -69.2586
50.799999, 82.376, -70.5001
51.500000, 82.544, -71.6340
52.200001, 82.696, -72.7302
53.000000, 82.862, -73.8585
53.799999, 83.032, -74.9069
54.500000, 83.184, -75.7892
55.200001, 83.340, -76.6658
56.000000, 83.522, -77.7288
57.000000, 83.739, -79.1708
58.000000, 83.936, -80.6887
59.000000, 84.114, -82.1733
60.000000, 84.310, -83.5853
60.799999, 84.480, -84.9095
61.500000, 84.605, -86.2387
62.200001, 84.698, -87.5419
63.000000, 84.785, -88.8698
64.000000, 84.888, -90.3257
65.000000, 84.991, -91.5818
66.000000, 85.113, -92.7023
67.000000, 85.250, -93.8047
68.000000, 85.401, -94.9524
69.000000, 85.555, -96.2294
70.000000, 85.697, -97.5946
71.000000, 85.829, -98.9937
72.000000, 85.951, -100.4400
73.000000, 86.059, -101.8953
74.000000, 86.152, -103.3212
75.000000, 86.234, -104.6793
76.199997, 86.328, -106.2258
77.500000, 86.432, -107.8571
78.800003, 86.534, -109.4973
80.000000, 86.625, -111.0236
81.199997, 86.714, -112.5719
82.500000, 86.804, -114.2714
83.800003, 86.888, -115.9727
85.000000, 86.958, -117.5589
86.199997, 87.014, -119.1253
87.500000, 87.061, -120.7252
88.500000, 87.099, -121.8963
90.000000, 87.155, -123.6809
91.199997, 87.192, -125.1479
92.500000, 87.219, -126.7596
93.800003, 87.233, -128.3665
95.000000, 87.234, -129.8362
96.199997, 87.221, -131.2764
97.500000, 87.188, -132.7489
98.800003, 87.142, -134.0873
100.000000, 87.095, -135.1888
101.500000, 87.039, -136.3922
103.000000, 87.006, -137.4711
104.400002, 86.996, -138.5099
106.000000, 86.993, -139.7709
107.500000, 86.983, -141.0162
109.000000, 86.960, -142.2502
110.599998, 86.924, -143.5435
112.000000, 86.883, -144.6552
113.800003, 86.824, -146.0363
115.000000, 86.782, -146.9392
117.199997, 86.698, -148.5163
118.000000, 86.665, -149.0592
120.599998, 86.559, -150.6671
122.000000, 86.509, -151.4734
124.099998, 86.438, -152.6685
125.000000, 86.405, -153.1834
126.500000, 86.347, -153.9942
128.000000, 86.291, -154.7998
131.500000, 86.147, -156.8854
132.000000, 86.123, -157.1573
134.000000, 86.035, -158.1121
136.000000, 85.956, -158.9893
138.000000, 85.859, -159.8844
140.000000, 85.753, -160.6520
143.000000, 85.605, -161.7066
145.000000, 85.480, -162.1259
147.500000, 85.321, -162.3270
150.000000, 85.204, -162.6104
152.500000, 85.135, -163.0462
155.000000, 85.064, -163.3618
157.500000, 84.945, -163.5175
160.000000, 84.796, -163.8023
162.500000, 84.667, -164.2756
165.000000, 84.571, -164.6664
167.500000, 84.481, -164.9095
170.000000, 84.378, -165.1472
172.500000, 84.274, -165.4017
175.000000, 84.172, -165.5592
177.500000, 84.052, -165.6331
180.000000, 83.911, -165.7581
182.500000, 83.785, -165.9130
185.000000, 83.695, -165.9580
187.500000, 83.602, -165.8785
190.000000, 83.491, -165.7406
192.500000, 83.399, -165.7024
195.000000, 83.332, -165.8721
197.500000, 83.255, -166.0193
200.000000, 83.155, -166.0150
203.000000, 83.023, -165.8008
206.000000, 82.910, -165.4939
209.000000, 82.799, -165.2855
212.000000, 82.695, -165.0806
214.000000, 82.631, -164.9661
218.000000, 82.500, -164.7542
220.000000, 82.432, -164.5625
224.000000, 82.309, -163.9862
227.000000, 82.241, -163.3699
230.000000, 82.215, -162.8538
233.000000, 82.217, -162.6944
236.000000, 82.216, -162.8131
240.000000, 82.202, -162.9818
243.000000, 82.192, -162.9047
247.000000, 82.149, -162.4330
250.000000, 82.096, -162.0691
254.000000, 82.031, -161.7305
258.000000, 81.964, -161.2641
262.000000, 81.883, -160.6745
265.000000, 81.833, -160.2060
269.000000, 81.794, -159.6406
272.000000, 81.780, -159.2693
276.000000, 81.742, -158.6777
280.000000, 81.687, -157.8950
285.000000, 81.641, -156.8076
290.000000, 81.603, -155.8286
295.000000, 81.580, -154.7221
300.000000, 81.617, -153.4030
304.000000, 81.687, -152.5116
307.000000, 81.759, -151.8761
311.000000, 81.880, -151.1793
315.000000, 82.020, -150.7639
320.000000, 82.183, -150.6889
325.000000, 82.310, -151.1060
330.000000, 82.378, -151.8115
335.000000, 82.362, -152.5183
340.000000, 82.283, -152.9195
345.000000, 82.195, -153.0147
350.000000, 82.094, -153.0754
355.000000, 81.984, -153.0200
360.000000, 81.878, -152.8178
365.000000, 81.770, -152.5500
370.000000, 81.658, -152.2529
375.000000, 81.545, -151.9140
382.000000, 81.370, -151.2873
387.000000, 81.240, -150.8796
395.000000, 81.019, -150.0469
400.000000, 80.875, -149.2826
406.000000, 80.723, -148.3013
412.000000, 80.589, -147.2048
418.000000, 80.453, -146.1724
425.000000, 80.309, -144.8431
431.000000, 80.205, -143.5080
437.000000, 80.104, -142.1644
444.000000, 79.998, -140.4763
450.000000, 79.923, -139.1216
455.000000, 79.860, -137.9877
462.000000, 79.787, -136.2824
468.000000, 79.744, -134.7997
475.000000, 79.700, -133.2650
482.000000, 79.655, -131.7563
487.000000, 79.640, -130.6236
494.000000, 79.620, -129.1549
500.000000, 79.592, -127.8500
508.000000, 79.560, -125.9657
515.000000, 79.546, -124.2660
522.000000, 79.526, -122.5486
530.000000, 79.511, -120.4951
538.000000, 79.533, -118.4826
545.000000, 79.564, -116.8805
552.000000, 79.581, -115.3419
560.000000, 79.578, -113.3282
570.000000, 79.622, -110.4444
580.000000, 79.706, -107.7563
590.000000, 79.792, -105.1703
600.000000, 79.895, -102.5041
608.000000, 79.985, -100.4715
615.000000, 80.071, -98.5551
622.000000, 80.194, -96.5289
630.000000, 80.380, -94.4703
640.000000, 80.603, -92.3023
650.000000, 80.808, -90.1548
660.000000, 81.047, -87.9786
670.000000, 81.286, -86.0483
680.000000, 81.512, -84.1504
690.000000, 81.760, -82.2324
700.000000, 82.021, -80.5994
710.000000, 82.284, -78.8683
720.000000, 82.565, -77.3449
730.000000, 82.801, -76.1330
740.000000, 83.016, -74.6370
750.000000, 83.284, -73.0217
762.000000, 83.645, -71.3401
775.000000, 84.052, -69.9974
788.000000, 84.390, -69.2911
800.000000, 84.634, -68.4508
812.000000, 84.887, -67.4156
825.000000, 85.157, -66.4067
838.000000, 85.396, -65.3269
850.000000, 85.657, -63.8857
862.000000, 85.994, -62.7788
875.000000, 86.328, -62.1860
885.000000, 86.551, -61.7294
900.000000, 86.875, -61.1546
912.000000, 87.110, -60.7531
925.000000, 87.361, -60.3214
938.000000, 87.584, -60.0861
950.000000, 87.748, -59.8665
962.000000, 87.866, -59.5650
975.000000, 87.962, -58.8427
988.000000, 88.041, -57.6755
1000.000000, 88.172, -55.8942
1015.000000, 88.478, -53.7884
1030.000000, 88.854, -52.2709
1044.000000, 89.208, -51.1744
1060.000000, 89.626, -50.0717
1075.000000, 90.053, -49.2502
1090.000000, 90.507, -49.0544
1106.000000, 90.912, -49.4694
1120.000000, 91.209, -49.6375
1138.000000, 91.593, -49.5350
1150.000000, 91.881, -49.5579
1172.000000, 92.399, -50.4724
1180.000000, 92.542, -51.0423
1206.000000, 92.850, -52.2670
1220.000000, 93.012, -52.4656
1241.000000, 93.267, -52.7509
1250.000000, 93.369, -52.8102
1265.000000, 93.546, -52.7061
1280.000000, 93.773, -52.3889
1315.000000, 94.376, -53.2576
1320.000000, 94.440, -53.4693
1340.000000, 94.661, -54.2007
1360.000000, 94.823, -54.9659
1380.000000, 94.925, -55.4268
1400.000000, 95.057, -55.3508
1430.000000, 95.369, -55.1067
1450.000000, 95.631, -55.2646
1475.000000, 95.914, -55.9078
1500.000000, 96.129, -56.6618
1525.000000, 96.304, -57.0835
1550.000000, 96.528, -57.4594
1575.000000, 96.729, -58.2664
1600.000000, 96.893, -58.8972
1625.000000, 97.110, -59.7080
1650.000000, 97.246, -61.1491
1675.000000, 97.297, -62.3344
1700.000000, 97.298, -63.3958
1725.000000, 97.256, -63.9062
1750.000000, 97.265, -64.0486
1775.000000, 97.303, -64.2853
1800.000000, 97.363, -64.6115
1825.000000, 97.408, -65.1529
1850.000000, 97.428, -65.7324
1875.000000, 97.425, -66.2116
1900.000000, 97.432, -66.5651
1925.000000, 97.451, -67.0503
1950.000000, 97.454, -67.7290
1975.000000, 97.426, -68.5447
2000.000000, 97.354, -69.4368
2030.000000, 97.187, -70.3039
2060.000000, 97.014, -70.5545
2090.000000, 96.889, -70.8033
2120.000000, 96.749, -71.3112
2140.000000, 96.630, -71.7339
2180.000000, 96.301, -72.4576
2200.000000, 96.093, -72.6267
2240.000000, 95.642, -72.3216
2270.000000, 95.322, -71.6830
2300.000000, 94.996, -71.2281
2330.000000, 94.561, -70.4339
2360.000000, 94.111, -68.3954
2400.000000, 93.721, -64.5981
2430.000000, 93.608, -62.0452
2470.000000, 93.477, -60.0107
2500.000000, 93.278, -58.7112
2540.000000, 92.946, -56.3323
2580.000000, 92.670, -53.2902
2620.000000, 92.485, -50.3684
2650.000000, 92.322, -48.6576
2690.000000, 91.980, -45.9240
2720.000000, 91.732, -42.9158
2760.000000, 91.572, -38.5376
2800.000000, 91.522, -34.9966
2850.000000, 91.329, -31.3696
2900.000000, 91.028, -26.3899
2950.000000, 90.916, -20.0496
3000.000000, 91.089, -13.9708
3040.000000, 91.325, -10.3128
3070.000000, 91.472, -8.0370
3110.000000, 91.637, -5.1153
3150.000000, 91.810, -2.4644
3200.000000, 91.917, 0.0650
3250.000000, 91.861, 3.4306
3300.000000, 91.929, 8.1989
3350.000000, 92.208, 12.2612
3400.000000, 92.456, 15.1514
3450.000000, 92.640, 18.2395
3500.000000, 92.957, 21.3151
3550.000000, 93.283, 22.7622
3600.000000, 93.382, 23.3634
3650.000000, 93.327, 24.6550
3700.000000, 93.262, 26.0384
3750.000000, 93.029, 27.0450
3820.000000, 92.377, 30.6601
3870.000000, 91.924, 34.9227
3950.000000, 91.133, 43.7549
4000.000000, 90.685, 52.0462
4060.000000, 90.496, 65.1214
4120.000000, 91.171, 81.7769
4180.000000, 93.112, 96.5212
4250.000000, 95.927, 102.9822
4310.000000, 97.907, 101.2707
4370.000000, 99.286, 96.6448
4440.000000, 100.235, 90.3314
4500.000000, 100.585, 85.4346
4550.000000, 100.678, 82.3827
4620.000000, 100.667, 79.3876
4680.000000, 100.576, 77.8825
4750.000000, 100.460, 77.1635
4820.000000, 100.368, 76.9424
4870.000000, 100.291, 76.9585
4940.000000, 100.177, 77.3696
5000.000000, 100.081, 77.9130
5080.000000, 99.948, 78.9610
5150.000000, 99.853, 80.1269
5220.000000, 99.778, 81.3686
5300.000000, 99.709, 82.8136
5380.000000, 99.673, 84.1680
5450.000000, 99.650, 85.0391
5520.000000, 99.613, 85.5445
5600.000000, 99.504, 85.5699
5700.000000, 99.135, 85.1053
5800.000000, 98.447, 85.2905
5900.000000, 97.463, 87.2186
6000.000000, 96.272, 92.6926
6080.000000, 95.479, 100.8910
6150.000000, 95.207, 109.7543
6220.000000, 95.361, 118.1749
6300.000000, 95.869, 126.0675
6400.000000, 96.740, 133.0692
6500.000000, 97.643, 137.0751
6600.000000, 98.403, 138.8043
6700.000000, 98.953, 139.2065
6800.000000, 99.328, 138.9576
6900.000000, 99.554, 138.2274
7000.000000, 99.603, 137.2801
7100.000000, 99.473, 136.5780
7200.000000, 99.208, 136.4163
7300.000000, 98.870, 136.9022
7400.000000, 98.487, 137.7720
7500.000000, 98.059, 138.8891
7620.000000, 97.461, 140.4821
7750.000000, 96.681, 143.1220
7880.000000, 95.778, 147.5134
8000.000000, 95.029, 152.6793
8120.000000, 94.355, 157.6932
8250.000000, 93.572, 163.5283
8380.000000, 92.859, 170.4316
8500.000000, 92.336, 177.0260
8620.000000, 91.929, -176.4121
8750.000000, 91.640, -169.9422
8850.000000, 91.476, -165.9820
9000.000000, 91.179, -161.4714
9120.000000, 90.882, -158.9701
9250.000000, 90.406, -157.3636
9380.000000, 89.749, -156.2419
9500.000000, 89.020, -155.7820
9620.000000, 88.115, -156.0304
9750.000000, 86.841, -156.5293
9880.000000, 85.316, -156.6566
10000.000000, 83.778, -156.7384
10150.000000, 81.654, -158.2146
10300.000000, 79.144, -162.3353
10440.000000, 76.480, -170.4589
10600.000000, 73.773, 168.8775
10750.000000, 73.305, 138.0091
10900.000000, 75.283, 115.5288
11060.000000, 78.362, 104.2813
11200.000000, 80.852, 97.2713
11380.000000, 82.978, 87.1091
11500.000000, 83.464, 80.4083
11720.000000, 82.569, 76.4423
11800.000000, 82.158, 79.9120
12060.000000, 82.737, 96.1408
12200.000000, 83.339, 100.1591
12410.000000, 83.102, 103.5733
12500.000000, 82.494, 107.0615
12650.000000, 81.313, 121.6142
12800.000000, 81.348, 146.3092
13150.000000, 85.478, 179.9246
13200.000000, 86.033, -177.9918
13400.000000, 87.770, -172.6414
13600.000000, 88.719, -168.4812
13800.000000, 89.243, -161.6292
14000.000000, 90.090, -151.6620
14300.000000, 92.205, -141.4279
14500.000000, 93.336, -140.3506
14750.000000, 93.825, -142.2188
15000.000000, 93.325, -143.5739
15250.000000, 92.105, -141.6210
15500.000000, 90.588, -135.0652
15750.000000, 89.193, -124.1854
16000.000000, 88.167, -110.0926
16250.000000, 87.672, -94.0844
