* Measurement data measured by REW V5.31.3
* Source: Headset (DS by VECLAN.COM), MICROPHONE (Master Volume), L, volume: 0.720. Timing signal peak level -16.2 dBFS, measurement signal peak level -16.1 dBFS
* Format: 2M Log Swept Sine, 1 sweep at -22.5 dBFS using an acoustic timing reference
* Dated: Oct 15, 2024 12:42:50 PM
* REW Settings:
*  C-weighting compensation: Off
*  Target level: 85.0 dB
* Note: ; Fosi DS1 Delay -0.0574 ms (-20 mm, -0.78 in) using estimated IR delay relative to Acoustic reference played from SPEAKER L with no timing offset Clock adjustment: -26.3 ppm
* Measurement: Sennheiser HD58x L2
* Smoothing: 1/24 octave
* Frequency Step: 1/48 octave
* Start Frequency: 1.000 Hz
*
* Freq(Hz), SPL(dB), Phase(degrees)
1.000000, 51.004, 26.5657
1.015000, 51.172, 26.1622
1.030000, 51.341, 25.7056
1.044000, 51.499, 25.2309
1.060000, 51.680, 24.6307
1.075000, 51.850, 24.0127
1.090000, 52.019, 23.3454
1.106000, 52.201, 22.6018
1.120000, 52.364, 21.9614
1.138000, 52.579, 21.1756
1.150000, 52.727, 20.6746
1.172000, 53.004, 19.7917
1.180000, 53.107, 19.4770
1.206000, 53.446, 18.4840
1.220000, 53.632, 17.9632
1.241000, 53.913, 17.1922
1.250000, 54.034, 16.8636
1.265000, 54.236, 16.3160
1.280000, 54.439, 15.7662
1.315000, 54.908, 14.4608
1.320000, 54.975, 14.2706
1.340000, 55.238, 13.4978
1.360000, 55.497, 12.7044
1.380000, 55.750, 11.8492
1.400000, 55.996, 10.9529
1.430000, 56.348, 9.5554
1.450000, 56.570, 8.5897
1.475000, 56.833, 7.3725
1.500000, 57.081, 6.2142
1.525000, 57.316, 5.1407
1.550000, 57.540, 4.1432
1.575000, 57.755, 3.1916
1.600000, 57.961, 2.2602
1.625000, 58.161, 1.3681
1.650000, 58.356, 0.5050
1.675000, 58.547, -0.3382
1.700000, 58.735, -1.1695
1.725000, 58.923, -1.9959
1.750000, 59.112, -2.8233
1.775000, 59.303, -3.6706
1.800000, 59.497, -4.5547
1.825000, 59.696, -5.4454
1.850000, 59.899, -6.3223
1.875000, 60.104, -7.1566
1.900000, 60.309, -7.9425
1.925000, 60.515, -8.6846
1.950000, 60.721, -9.3888
1.975000, 60.926, -10.0720
2.000000, 61.131, -10.7503
2.030000, 61.376, -11.5361
2.060000, 61.619, -12.3000
2.090000, 61.859, -13.0495
2.120000, 62.096, -13.7913
2.140000, 62.252, -14.2843
2.180000, 62.559, -15.2912
2.200000, 62.710, -15.8113
2.240000, 63.006, -16.8198
2.270000, 63.225, -17.5359
2.300000, 63.441, -18.2186
2.330000, 63.655, -18.8718
2.360000, 63.865, -19.4997
2.400000, 64.142, -20.3425
2.430000, 64.346, -20.9605
2.470000, 64.614, -21.7653
2.500000, 64.812, -22.3590
2.540000, 65.072, -23.1420
2.580000, 65.328, -23.9279
2.620000, 65.578, -24.7164
2.650000, 65.762, -25.2844
2.690000, 66.004, -26.0125
2.720000, 66.182, -26.5387
2.760000, 66.415, -27.2154
2.800000, 66.644, -27.9056
2.850000, 66.925, -28.7475
2.900000, 67.201, -29.5667
2.950000, 67.470, -30.3646
3.000000, 67.733, -31.1590
3.040000, 67.939, -31.7793
3.070000, 68.090, -32.2303
3.110000, 68.289, -32.8139
3.150000, 68.485, -33.3792
3.200000, 68.725, -34.0927
3.250000, 68.960, -34.7987
3.300000, 69.191, -35.4852
3.350000, 69.418, -36.1486
3.400000, 69.640, -36.8118
3.450000, 69.856, -37.4606
3.500000, 70.069, -38.0865
3.550000, 70.278, -38.6912
3.600000, 70.483, -39.3039
3.650000, 70.685, -39.9116
3.700000, 70.884, -40.5028
3.750000, 71.080, -41.0758
3.820000, 71.348, -41.8753
3.870000, 71.535, -42.4322
3.950000, 71.829, -43.2919
4.000000, 72.009, -43.8359
4.060000, 72.222, -44.4853
4.120000, 72.430, -45.1161
4.180000, 72.634, -45.7340
4.250000, 72.867, -46.4602
4.310000, 73.062, -47.0629
4.370000, 73.255, -47.6532
4.440000, 73.474, -48.3531
4.500000, 73.658, -48.9394
4.550000, 73.809, -49.4164
4.620000, 74.015, -50.0895
4.680000, 74.189, -50.6542
4.750000, 74.387, -51.2924
4.820000, 74.581, -51.9336
4.870000, 74.717, -52.3858
4.940000, 74.903, -53.0023
5.000000, 75.060, -53.5284
5.080000, 75.264, -54.2161
5.150000, 75.439, -54.7935
5.220000, 75.611, -55.3718
5.300000, 75.802, -56.0177
5.380000, 75.989, -56.6408
5.450000, 76.150, -57.1838
5.520000, 76.307, -57.7027
5.600000, 76.483, -58.2818
5.700000, 76.698, -58.9901
5.800000, 76.909, -59.6697
5.900000, 77.117, -60.3315
6.000000, 77.323, -60.9641
6.080000, 77.485, -61.4615
6.150000, 77.626, -61.8816
6.220000, 77.766, -62.3083
6.300000, 77.924, -62.7858
6.400000, 78.120, -63.3697
6.500000, 78.314, -63.9547
6.600000, 78.507, -64.5392
6.700000, 78.698, -65.1354
6.800000, 78.887, -65.7285
6.900000, 79.073, -66.3329
7.000000, 79.255, -66.9418
7.100000, 79.432, -67.5637
7.200000, 79.606, -68.1870
7.300000, 79.775, -68.8191
7.400000, 79.940, -69.4528
7.500000, 80.101, -70.0947
7.620000, 80.287, -70.8618
7.750000, 80.480, -71.6846
7.880000, 80.663, -72.5111
8.000000, 80.823, -73.2550
8.120000, 80.977, -73.9822
8.250000, 81.136, -74.7510
8.380000, 81.288, -75.4873
8.500000, 81.422, -76.1375
8.620000, 81.550, -76.7574
8.750000, 81.685, -77.3933
8.850000, 81.786, -77.8573
9.000000, 81.934, -78.5086
9.120000, 82.051, -79.0003
9.250000, 82.176, -79.5032
9.380000, 82.301, -79.9738
9.500000, 82.415, -80.3941
9.620000, 82.530, -80.7932
9.750000, 82.653, -81.2082
9.880000, 82.769, -81.6075
10.000000, 82.868, -81.9573
10.150000, 82.983, -82.4092
10.300000, 83.092, -82.8411
10.440000, 83.189, -83.2286
10.600000, 83.301, -83.6614
10.750000, 83.408, -84.0635
10.900000, 83.518, -84.4665
11.060000, 83.638, -84.9386
11.200000, 83.745, -85.4090
11.380000, 83.881, -86.0352
11.500000, 83.969, -86.4682
11.720000, 84.124, -87.2896
11.800000, 84.179, -87.5967
12.060000, 84.349, -88.6330
12.200000, 84.437, -89.2284
12.410000, 84.558, -90.1057
12.500000, 84.606, -90.4685
12.650000, 84.679, -91.0521
12.800000, 84.747, -91.6008
13.150000, 84.891, -92.7646
13.200000, 84.911, -92.9204
13.400000, 84.995, -93.4962
13.600000, 85.083, -94.0085
13.800000, 85.177, -94.4735
14.000000, 85.279, -94.9218
14.300000, 85.442, -95.6688
14.500000, 85.555, -96.2001
14.750000, 85.695, -96.9113
15.000000, 85.829, -97.6743
15.250000, 85.959, -98.5173
15.500000, 86.076, -99.3590
15.750000, 86.180, -100.1658
16.000000, 86.273, -100.9117
16.250000, 86.360, -101.6281
16.500000, 86.447, -102.2712
16.750000, 86.535, -102.8523
17.000000, 86.628, -103.3975
17.250000, 86.727, -103.9584
17.500000, 86.828, -104.5214
17.750000, 86.926, -105.0888
18.000000, 87.021, -105.6598
18.250000, 87.112, -106.2507
18.500000, 87.197, -106.8176
18.750000, 87.278, -107.3453
19.000000, 87.360, -107.8302
19.250000, 87.444, -108.3075
19.500000, 87.532, -108.7635
19.750000, 87.624, -109.2160
20.000000, 87.717, -109.6819
20.299999, 87.827, -110.3032
20.600000, 87.931, -110.9495
20.900000, 88.025, -111.5978
21.200001, 88.109, -112.2385
21.400000, 88.161, -112.6460
21.799999, 88.259, -113.3923
22.000000, 88.309, -113.7391
22.400000, 88.409, -114.4343
22.700001, 88.484, -114.9473
23.000000, 88.555, -115.4519
23.299999, 88.622, -115.9469
23.600000, 88.687, -116.4031
24.000000, 88.780, -116.9521
24.299999, 88.858, -117.3685
24.700001, 88.973, -117.9791
25.000000, 89.058, -118.5112
25.400000, 89.157, -119.3267
25.799999, 89.228, -120.1491
26.200001, 89.274, -120.8654
26.500000, 89.305, -121.2885
26.900000, 89.357, -121.7062
27.200001, 89.412, -121.9771
27.600000, 89.505, -122.3835
28.000000, 89.605, -122.9065
28.500000, 89.716, -123.7318
29.000000, 89.800, -124.5866
29.500000, 89.865, -125.3527
30.000000, 89.926, -126.0071
30.400000, 89.978, -126.4975
30.700001, 90.019, -126.8523
31.100000, 90.077, -127.3279
31.500000, 90.136, -127.8278
32.000000, 90.206, -128.4836
32.500000, 90.263, -129.1505
33.000000, 90.309, -129.7518
33.500000, 90.353, -130.2672
34.000000, 90.410, -130.7094
34.500000, 90.480, -131.1607
35.000000, 90.552, -131.6761
35.500000, 90.615, -132.2439
36.000000, 90.667, -132.7960
36.500000, 90.715, -133.3094
37.000000, 90.762, -133.7900
37.500000, 90.807, -134.2655
38.200001, 90.868, -134.9023
38.700001, 90.913, -135.3453
39.500000, 90.986, -136.0827
40.000000, 91.028, -136.5610
40.599998, 91.072, -137.1358
41.200001, 91.116, -137.6725
41.799999, 91.163, -138.2093
42.500000, 91.214, -138.8602
43.099998, 91.252, -139.3849
43.700001, 91.290, -139.8322
44.400002, 91.346, -140.3330
45.000000, 91.396, -140.8027
45.500000, 91.433, -141.2057
46.200001, 91.475, -141.7587
46.799999, 91.505, -142.2079
47.500000, 91.539, -142.6856
48.200001, 91.570, -143.1403
48.700001, 91.592, -143.4680
49.400002, 91.620, -143.9454
50.000000, 91.635, -144.3355
50.799999, 91.657, -144.7428
51.500000, 91.701, -145.0957
52.200001, 91.760, -145.6324
53.000000, 91.800, -146.3978
53.799999, 91.813, -147.0795
54.500000, 91.831, -147.5561
55.200001, 91.856, -148.0280
56.000000, 91.884, -148.5583
57.000000, 91.922, -149.1994
58.000000, 91.940, -149.8126
59.000000, 91.978, -150.2644
60.000000, 92.018, -151.0880
60.799999, 91.975, -151.8761
61.500000, 91.905, -152.2292
62.200001, 91.845, -152.3245
63.000000, 91.797, -152.3294
64.000000, 91.758, -152.0795
65.000000, 91.788, -151.7839
66.000000, 91.872, -151.8025
67.000000, 91.954, -152.1057
68.000000, 92.020, -152.5886
69.000000, 92.073, -153.1530
70.000000, 92.103, -153.7637
71.000000, 92.111, -154.3213
72.000000, 92.124, -154.7709
73.000000, 92.144, -155.2865
74.000000, 92.146, -155.8763
75.000000, 92.135, -156.3863
76.199997, 92.119, -156.8985
77.500000, 92.105, -157.3320
78.800003, 92.089, -157.7349
80.000000, 92.059, -158.0521
81.199997, 92.031, -158.2019
82.500000, 92.026, -158.2745
83.800003, 92.050, -158.4005
85.000000, 92.084, -158.7144
86.199997, 92.107, -159.1920
87.500000, 92.117, -159.7567
88.500000, 92.109, -160.2739
90.000000, 92.056, -161.0824
91.199997, 91.977, -161.6514
92.500000, 91.865, -161.9496
93.800003, 91.751, -161.9225
95.000000, 91.659, -161.6543
96.199997, 91.603, -161.1328
97.500000, 91.597, -160.5216
98.800003, 91.628, -160.0949
100.000000, 91.673, -159.9115
101.500000, 91.730, -159.9329
103.000000, 91.775, -160.1502
104.400002, 91.779, -160.4168
106.000000, 91.756, -160.5122
107.500000, 91.723, -160.4486
109.000000, 91.685, -160.2091
110.599998, 91.660, -159.8451
112.000000, 91.671, -159.4324
113.800003, 91.745, -158.9891
115.000000, 91.810, -158.9284
117.199997, 91.899, -158.9539
118.000000, 91.931, -158.9770
120.599998, 91.978, -159.4194
122.000000, 91.993, -159.5170
124.099998, 92.087, -159.8113
125.000000, 92.130, -160.0431
126.500000, 92.192, -160.3123
128.000000, 92.240, -160.5350
131.500000, 92.285, -160.8947
132.000000, 92.287, -160.9522
134.000000, 92.302, -161.2298
136.000000, 92.332, -161.5871
138.000000, 92.357, -161.9397
140.000000, 92.366, -162.1533
143.000000, 92.366, -162.4886
145.000000, 92.368, -162.7196
147.500000, 92.368, -163.0615
150.000000, 92.356, -163.2133
152.500000, 92.346, -163.3421
155.000000, 92.342, -163.4598
157.500000, 92.340, -163.6190
160.000000, 92.326, -163.7100
162.500000, 92.318, -163.7363
165.000000, 92.315, -163.7782
167.500000, 92.312, -163.7707
170.000000, 92.316, -163.7133
172.500000, 92.324, -163.6787
175.000000, 92.332, -163.6603
177.500000, 92.332, -163.6766
180.000000, 92.327, -163.7493
182.500000, 92.324, -163.7957
185.000000, 92.324, -163.7748
187.500000, 92.337, -163.6656
190.000000, 92.355, -163.7160
192.500000, 92.367, -163.8485
195.000000, 92.374, -163.9266
197.500000, 92.379, -164.0051
200.000000, 92.386, -164.0392
203.000000, 92.401, -164.1189
206.000000, 92.402, -164.2319
209.000000, 92.395, -164.3148
212.000000, 92.387, -164.3436
214.000000, 92.380, -164.3149
218.000000, 92.368, -164.2331
220.000000, 92.364, -164.2232
224.000000, 92.364, -164.1638
227.000000, 92.367, -164.1204
230.000000, 92.367, -164.0863
233.000000, 92.366, -164.0516
236.000000, 92.370, -164.0390
240.000000, 92.385, -164.0240
243.000000, 92.394, -164.0114
247.000000, 92.395, -163.9972
250.000000, 92.394, -164.0131
254.000000, 92.390, -163.9963
258.000000, 92.388, -163.9586
262.000000, 92.383, -164.0021
265.000000, 92.375, -164.0205
269.000000, 92.361, -164.0098
272.000000, 92.350, -164.0205
276.000000, 92.321, -164.0409
280.000000, 92.273, -163.9434
285.000000, 92.207, -163.4767
290.000000, 92.192, -162.6930
295.000000, 92.255, -162.0476
300.000000, 92.334, -161.8115
304.000000, 92.378, -161.7723
307.000000, 92.403, -161.7207
311.000000, 92.431, -161.6839
315.000000, 92.448, -161.6890
320.000000, 92.455, -161.6744
325.000000, 92.460, -161.6051
330.000000, 92.466, -161.5111
335.000000, 92.473, -161.3989
340.000000, 92.479, -161.2529
345.000000, 92.477, -161.0713
350.000000, 92.474, -160.9043
355.000000, 92.474, -160.7012
360.000000, 92.482, -160.4360
365.000000, 92.493, -160.2208
370.000000, 92.506, -160.0513
375.000000, 92.515, -159.9173
382.000000, 92.518, -159.6898
387.000000, 92.524, -159.5097
395.000000, 92.537, -159.2190
400.000000, 92.541, -159.0512
406.000000, 92.541, -158.8495
412.000000, 92.544, -158.6123
418.000000, 92.555, -158.3753
425.000000, 92.568, -158.1310
431.000000, 92.573, -157.8945
437.000000, 92.576, -157.6566
444.000000, 92.583, -157.3250
450.000000, 92.582, -157.0740
455.000000, 92.580, -156.8511
462.000000, 92.582, -156.5091
468.000000, 92.582, -156.2707
475.000000, 92.594, -155.9594
482.000000, 92.611, -155.5703
487.000000, 92.621, -155.2871
494.000000, 92.640, -154.9405
500.000000, 92.661, -154.6879
508.000000, 92.687, -154.3236
515.000000, 92.708, -154.0125
522.000000, 92.728, -153.7085
530.000000, 92.759, -153.3120
538.000000, 92.798, -152.9487
545.000000, 92.830, -152.7109
552.000000, 92.858, -152.4879
560.000000, 92.888, -152.2062
570.000000, 92.929, -151.8329
580.000000, 92.969, -151.4943
590.000000, 93.002, -151.1601
600.000000, 93.038, -150.8672
608.000000, 93.064, -150.6335
615.000000, 93.083, -150.4399
622.000000, 93.097, -150.2759
630.000000, 93.105, -150.0901
640.000000, 93.116, -149.7836
650.000000, 93.133, -149.4850
660.000000, 93.151, -149.1849
670.000000, 93.160, -148.8411
680.000000, 93.175, -148.5427
690.000000, 93.191, -148.2991
700.000000, 93.203, -148.0497
710.000000, 93.213, -147.7924
720.000000, 93.219, -147.6163
730.000000, 93.205, -147.5426
740.000000, 93.153, -147.4223
750.000000, 93.070, -147.0879
762.000000, 92.969, -146.2730
775.000000, 92.895, -144.9928
788.000000, 92.887, -143.3981
800.000000, 92.945, -142.0341
812.000000, 93.028, -140.9760
825.000000, 93.120, -139.9842
838.000000, 93.224, -139.0832
850.000000, 93.338, -138.4598
862.000000, 93.437, -137.9990
875.000000, 93.530, -137.6350
885.000000, 93.586, -137.4093
900.000000, 93.651, -136.9746
912.000000, 93.699, -136.5061
925.000000, 93.764, -135.9932
938.000000, 93.827, -135.5485
950.000000, 93.889, -135.1738
962.000000, 93.950, -134.8857
975.000000, 94.002, -134.6143
988.000000, 94.031, -134.2573
1000.000000, 94.045, -133.8340
1015.000000, 94.059, -133.1347
1030.000000, 94.118, -132.2863
1044.000000, 94.216, -131.7294
1060.000000, 94.306, -131.3893
1075.000000, 94.365, -131.0013
1090.000000, 94.438, -130.5984
1106.000000, 94.518, -130.2106
1120.000000, 94.580, -129.8208
1138.000000, 94.661, -129.3809
1150.000000, 94.720, -129.0524
1172.000000, 94.861, -128.4800
1180.000000, 94.909, -128.3777
1206.000000, 95.022, -128.0941
1220.000000, 95.076, -127.8560
1241.000000, 95.166, -127.4936
1250.000000, 95.206, -127.3274
1265.000000, 95.267, -127.1219
1280.000000, 95.304, -126.8895
1315.000000, 95.447, -125.7678
1320.000000, 95.474, -125.6793
1340.000000, 95.559, -125.3763
1360.000000, 95.655, -124.9628
1380.000000, 95.743, -125.1151
1400.000000, 95.739, -125.1855
1430.000000, 95.796, -124.2890
1450.000000, 95.885, -124.2975
1475.000000, 95.881, -124.2358
1500.000000, 95.931, -123.7807
1525.000000, 95.919, -123.8879
1550.000000, 95.831, -123.2482
1575.000000, 95.798, -122.3176
1600.000000, 95.781, -121.1180
1625.000000, 95.849, -120.0813
1650.000000, 95.869, -119.5040
1675.000000, 95.855, -118.6608
1700.000000, 95.852, -117.3423
1725.000000, 95.938, -115.7801
1750.000000, 96.100, -114.7692
1775.000000, 96.207, -114.3750
1800.000000, 96.263, -113.7920
1825.000000, 96.324, -113.0881
1850.000000, 96.401, -112.4325
1875.000000, 96.444, -111.9847
1900.000000, 96.459, -111.2403
1925.000000, 96.497, -110.4505
1950.000000, 96.511, -109.6994
1975.000000, 96.520, -108.5062
2000.000000, 96.619, -107.0784
2030.000000, 96.791, -106.1037
2060.000000, 96.881, -105.3051
2090.000000, 96.992, -104.0934
2120.000000, 97.167, -103.1309
2140.000000, 97.277, -102.8136
2180.000000, 97.409, -102.2729
2200.000000, 97.456, -101.8005
2240.000000, 97.549, -100.8154
2270.000000, 97.606, -99.7784
2300.000000, 97.710, -98.4946
2330.000000, 97.848, -97.3022
2360.000000, 98.010, -95.9629
2400.000000, 98.363, -94.3535
2430.000000, 98.665, -93.9512
2470.000000, 99.014, -93.9845
2500.000000, 99.234, -94.3089
2540.000000, 99.478, -94.8145
2580.000000, 99.691, -95.5765
2620.000000, 99.817, -96.5960
2650.000000, 99.863, -97.0907
2690.000000, 99.917, -97.5874
2720.000000, 99.948, -97.9029
2760.000000, 99.961, -98.3314
2800.000000, 99.929, -98.2865
2850.000000, 99.982, -97.6333
2900.000000, 100.152, -97.3363
2950.000000, 100.315, -97.7258
3000.000000, 100.468, -98.5061
3040.000000, 100.518, -99.6073
3070.000000, 100.503, -100.2677
3110.000000, 100.481, -100.9191
3150.000000, 100.466, -101.6165
3200.000000, 100.403, -102.8226
3250.000000, 100.238, -103.7709
3300.000000, 100.065, -104.3102
3350.000000, 99.876, -104.6619
3400.000000, 99.705, -104.8041
3450.000000, 99.540, -105.0460
3500.000000, 99.347, -105.3957
3550.000000, 99.100, -105.4625
3600.000000, 98.861, -105.2242
3650.000000, 98.627, -104.8956
3700.000000, 98.400, -104.5227
3750.000000, 98.153, -104.1969
3820.000000, 97.772, -103.5402
3870.000000, 97.479, -103.0372
3950.000000, 96.924, -101.8975
4000.000000, 96.556, -101.0195
4060.000000, 96.013, -99.8161
4120.000000, 95.363, -97.6027
4180.000000, 94.690, -93.9368
4250.000000, 94.053, -87.8539
4310.000000, 93.663, -82.1503
4370.000000, 93.383, -75.4594
4440.000000, 93.399, -66.8509
4500.000000, 93.722, -60.0912
4550.000000, 94.130, -55.4807
4620.000000, 94.801, -50.3438
4680.000000, 95.445, -47.2390
4750.000000, 96.146, -45.2318
4820.000000, 96.738, -44.3978
4870.000000, 97.070, -44.2322
4940.000000, 97.425, -44.1232
5000.000000, 97.671, -43.8762
5080.000000, 97.983, -43.6606
5150.000000, 98.191, -43.6487
5220.000000, 98.352, -43.5166
5300.000000, 98.513, -43.0082
5380.000000, 98.727, -42.2125
5450.000000, 99.001, -41.5246
5520.000000, 99.374, -41.3568
5600.000000, 99.872, -42.3548
5700.000000, 100.418, -45.9656
5800.000000, 100.661, -51.5800
5900.000000, 100.481, -58.1432
6000.000000, 99.836, -64.2599
6080.000000, 99.048, -67.9319
6150.000000, 98.233, -69.9472
6220.000000, 97.359, -70.7621
6300.000000, 96.366, -70.3404
6400.000000, 95.206, -68.2591
6500.000000, 94.180, -64.9890
6600.000000, 93.287, -61.0868
6700.000000, 92.504, -56.9485
6800.000000, 91.799, -52.7453
6900.000000, 91.126, -48.4260
7000.000000, 90.474, -43.6162
7100.000000, 89.876, -38.0880
7200.000000, 89.367, -32.0007
7300.000000, 88.965, -25.5772
7400.000000, 88.676, -19.0016
7500.000000, 88.494, -12.4659
7620.000000, 88.420, -4.7708
7750.000000, 88.541, 3.1231
7880.000000, 88.730, 9.7503
8000.000000, 88.863, 14.5961
8120.000000, 88.882, 18.5877
8250.000000, 88.730, 22.9461
8380.000000, 88.500, 28.1115
8500.000000, 88.289, 33.5584
8620.000000, 88.117, 39.7913
8750.000000, 88.091, 47.5683
8850.000000, 88.297, 53.7429
9000.000000, 88.988, 61.1095
9120.000000, 89.648, 64.0274
9250.000000, 90.163, 64.3863
9380.000000, 90.287, 63.1298
9500.000000, 90.017, 61.8812
9620.000000, 89.420, 61.5146
9750.000000, 88.474, 63.0452
9880.000000, 87.356, 67.7090
10000.000000, 86.410, 75.3704
10150.000000, 85.735, 88.1420
10300.000000, 85.754, 101.3354
10440.000000, 86.261, 112.2666
10600.000000, 87.259, 122.0770
10750.000000, 88.389, 127.5879
10900.000000, 89.418, 129.3438
11060.000000, 90.124, 127.9605
11200.000000, 90.256, 125.4359
11380.000000, 89.724, 122.8938
11500.000000, 89.017, 123.0329
11720.000000, 87.460, 128.9387
11800.000000, 86.946, 132.7697
12060.000000, 85.822, 149.3531
12200.000000, 85.659, 159.8535
12410.000000, 86.112, 176.1909
12500.000000, 86.621, -177.1099
12650.000000, 87.903, -167.9025
12800.000000, 89.528, -162.9945
13150.000000, 92.333, -170.3514
13200.000000, 92.446, -172.6006
13400.000000, 92.153, 179.1933
13600.000000, 91.131, 174.8738
