* Measurement data measured by REW V5.31
* Source: Headset (DS by VECLAN.COM), MICROPHONE (Master Volume), L, volume: 0.720. Timing signal peak level -7.6 dBFS, measurement signal peak level -7.3 dBFS
* Format: 2M Log Swept Sine, 1 sweep at -8.0 dBFS using an acoustic timing reference
* Dated: Apr 27, 2024 5:39:46 PM
* REW Settings:
*  C-weighting compensation: Off
*  Target level: 85.0 dB
* Note: ; Serial Number 22056 Delay -0.0683 ms (-23 mm, -0.92 in) using estimated IR delay relative to Acoustic reference played from HEADPHONE R with no timing offset
* Measurement: Dekoni Elite Sheepskin R2
* Smoothing: 1/24 octave
* Frequency Step: 1/48 octave
* Start Frequency: 1.000 Hz
*
* Freq(Hz), SPL(dB), Phase(degrees)
1.000000, 72.350, -89.1556
1.015000, 72.368, -88.6627
1.030000, 72.386, -88.1390
1.044000, 72.404, -87.6204
1.060000, 72.426, -86.9903
1.075000, 72.449, -86.3610
1.090000, 72.474, -85.6931
1.106000, 72.502, -84.9406
1.120000, 72.527, -84.2551
1.138000, 72.557, -83.3421
1.150000, 72.576, -82.7140
1.172000, 72.609, -81.5282
1.180000, 72.620, -81.0905
1.206000, 72.653, -79.6187
1.220000, 72.670, -78.7952
1.241000, 72.693, -77.5198
1.250000, 72.702, -76.9586
1.265000, 72.717, -76.0040
1.280000, 72.730, -75.0261
1.315000, 72.760, -72.6587
1.320000, 72.764, -72.3114
1.340000, 72.779, -70.9014
1.360000, 72.793, -69.4608
1.380000, 72.807, -68.0337
1.400000, 72.820, -66.6028
1.430000, 72.839, -64.4369
1.450000, 72.852, -62.9893
1.475000, 72.866, -61.1678
1.500000, 72.873, -59.2928
1.525000, 72.873, -57.3604
1.550000, 72.868, -55.3949
1.575000, 72.858, -53.4443
1.600000, 72.846, -51.5513
1.625000, 72.834, -49.7000
1.650000, 72.824, -47.9117
1.675000, 72.817, -46.2048
1.700000, 72.815, -44.5951
1.725000, 72.821, -43.0960
1.750000, 72.836, -41.7178
1.775000, 72.863, -40.4858
1.800000, 72.902, -39.4213
1.825000, 72.956, -38.4853
1.850000, 73.026, -37.6411
1.875000, 73.111, -36.8403
1.900000, 73.210, -36.0728
1.925000, 73.321, -35.3449
1.950000, 73.443, -34.6639
1.975000, 73.572, -34.0529
2.000000, 73.708, -33.5332
2.030000, 73.876, -32.9915
2.060000, 74.047, -32.5469
2.090000, 74.217, -32.2041
2.120000, 74.384, -31.9672
2.140000, 74.492, -31.8698
2.180000, 74.694, -31.8424
2.200000, 74.789, -31.9166
2.240000, 74.971, -32.1578
2.270000, 75.105, -32.3934
2.300000, 75.238, -32.6664
2.330000, 75.369, -32.9733
2.360000, 75.497, -33.3121
2.400000, 75.665, -33.8592
2.430000, 75.788, -34.3113
2.470000, 75.946, -34.9625
2.500000, 76.061, -35.4893
2.540000, 76.209, -36.2474
2.580000, 76.349, -37.0946
2.620000, 76.482, -38.0492
2.650000, 76.578, -38.8004
2.690000, 76.701, -39.8344
2.720000, 76.789, -40.6252
2.760000, 76.902, -41.6882
2.800000, 77.010, -42.7945
2.850000, 77.139, -44.1794
2.900000, 77.261, -45.5573
2.950000, 77.377, -46.9469
3.000000, 77.485, -48.4194
3.040000, 77.566, -49.6421
3.070000, 77.624, -50.5678
3.110000, 77.697, -51.8009
3.150000, 77.767, -53.0204
3.200000, 77.849, -54.5392
3.250000, 77.928, -56.0172
3.300000, 78.004, -57.4410
3.350000, 78.076, -58.8487
3.400000, 78.142, -60.2993
3.450000, 78.204, -61.7580
3.500000, 78.262, -63.1875
3.550000, 78.318, -64.5649
3.600000, 78.372, -65.8975
3.650000, 78.426, -67.1592
3.700000, 78.477, -68.3548
3.750000, 78.526, -69.5150
3.820000, 78.590, -71.1207
3.870000, 78.635, -72.2225
3.950000, 78.709, -73.8579
4.000000, 78.758, -74.8034
4.060000, 78.821, -75.8436
4.120000, 78.887, -76.7884
4.180000, 78.954, -77.6626
4.250000, 79.037, -78.6267
4.310000, 79.115, -79.3779
4.370000, 79.202, -80.0623
4.440000, 79.313, -80.7929
4.500000, 79.417, -81.3290
4.550000, 79.508, -81.7235
4.620000, 79.645, -82.2516
4.680000, 79.771, -82.6837
4.750000, 79.928, -83.1722
4.820000, 80.097, -83.6501
4.870000, 80.227, -83.9632
4.940000, 80.416, -84.3713
5.000000, 80.585, -84.7329
5.080000, 80.815, -85.2591
5.150000, 81.020, -85.7606
5.220000, 81.230, -86.3004
5.300000, 81.475, -86.9323
5.380000, 81.722, -87.5893
5.450000, 81.934, -88.2185
5.520000, 82.140, -88.8875
5.600000, 82.372, -89.7053
5.700000, 82.654, -90.7789
5.800000, 82.921, -91.8721
5.900000, 83.168, -93.0004
6.000000, 83.395, -94.1726
6.080000, 83.564, -95.1257
6.150000, 83.700, -95.9294
6.220000, 83.826, -96.7124
6.300000, 83.957, -97.5824
6.400000, 84.100, -98.6508
6.500000, 84.225, -99.6583
6.600000, 84.333, -100.5435
6.700000, 84.424, -101.3298
6.800000, 84.499, -102.0231
6.900000, 84.565, -102.6025
7.000000, 84.626, -103.0313
7.100000, 84.682, -103.3283
7.200000, 84.736, -103.5083
7.300000, 84.795, -103.5890
7.400000, 84.863, -103.5581
7.500000, 84.939, -103.4341
7.620000, 85.044, -103.2140
7.750000, 85.181, -102.9504
7.880000, 85.342, -102.6692
8.000000, 85.505, -102.4532
8.120000, 85.679, -102.3461
8.250000, 85.878, -102.3396
8.380000, 86.079, -102.4596
8.500000, 86.256, -102.7129
8.620000, 86.426, -103.0820
8.750000, 86.594, -103.5738
8.850000, 86.709, -104.0081
9.000000, 86.856, -104.7351
9.120000, 86.953, -105.3292
9.250000, 87.035, -105.9498
9.380000, 87.097, -106.5388
9.500000, 87.142, -107.0208
9.620000, 87.179, -107.4111
9.750000, 87.210, -107.7454
9.880000, 87.236, -107.9999
10.000000, 87.259, -108.1513
10.150000, 87.290, -108.3073
10.300000, 87.336, -108.4620
10.440000, 87.395, -108.6322
10.600000, 87.480, -108.9460
10.750000, 87.574, -109.4271
10.900000, 87.675, -110.0947
11.060000, 87.773, -111.0740
11.200000, 87.845, -112.1647
11.380000, 87.898, -113.7465
11.500000, 87.901, -114.8955
11.720000, 87.838, -117.0296
11.800000, 87.791, -117.7685
12.060000, 87.559, -119.9027
12.200000, 87.394, -120.7546
12.410000, 87.120, -121.4700
12.500000, 87.005, -121.5279
12.650000, 86.826, -121.2798
12.800000, 86.689, -120.6716
13.150000, 86.639, -118.4435
13.200000, 86.667, -118.1345
13.400000, 86.861, -117.1014
13.600000, 87.144, -116.6452
13.800000, 87.468, -116.9063
14.000000, 87.775, -117.8408
14.300000, 88.126, -120.2447
14.500000, 88.253, -122.1396
14.750000, 88.289, -124.4090
15.000000, 88.214, -126.2226
15.250000, 88.084, -127.3277
15.500000, 87.966, -127.6183
15.750000, 87.918, -127.2645
16.000000, 87.977, -126.6634
16.250000, 88.123, -126.2895
16.500000, 88.309, -126.3345
16.750000, 88.471, -126.8104
17.000000, 88.570, -127.4987
17.250000, 88.596, -128.1361
17.500000, 88.568, -128.4122
17.750000, 88.533, -128.1750
18.000000, 88.543, -127.4969
18.250000, 88.639, -126.6591
18.500000, 88.821, -126.0117
18.750000, 89.054, -125.8229
19.000000, 89.289, -126.1880
19.250000, 89.481, -127.0271
19.500000, 89.610, -128.0998
19.750000, 89.677, -129.1907
20.000000, 89.708, -130.1453
20.299999, 89.740, -131.1340
20.600000, 89.800, -132.1255
20.900000, 89.880, -133.4293
21.200001, 89.924, -135.2297
21.400000, 89.898, -136.6342
21.799999, 89.642, -139.3051
22.000000, 89.412, -140.1732
22.400000, 88.862, -140.0002
22.700001, 88.572, -137.8965
23.000000, 88.589, -134.8669
23.299999, 88.946, -132.4016
23.600000, 89.494, -131.6237
24.000000, 90.174, -133.3620
24.299999, 90.478, -135.9706
24.700001, 90.545, -139.6455
25.000000, 90.394, -141.6709
25.400000, 90.097, -142.6876
25.799999, 89.907, -141.9859
26.200001, 89.922, -140.7179
26.500000, 90.015, -139.9903
26.900000, 90.143, -139.3508
27.200001, 90.221, -138.8430
27.600000, 90.359, -137.8659
28.000000, 90.617, -136.8900
28.500000, 91.076, -136.8551
29.000000, 91.446, -138.6137
29.500000, 91.522, -141.1227
30.000000, 91.331, -142.7258
30.400000, 91.137, -142.7363
30.700001, 91.061, -142.1343
31.100000, 91.102, -141.1675
31.500000, 91.267, -140.7559
32.000000, 91.485, -141.4253
32.500000, 91.574, -142.8934
33.000000, 91.515, -144.1932
33.500000, 91.409, -144.7564
34.000000, 91.377, -144.7861
34.500000, 91.445, -144.9856
35.000000, 91.527, -145.7928
35.500000, 91.536, -146.9753
36.000000, 91.464, -148.0178
36.500000, 91.367, -148.6638
37.000000, 91.290, -149.0060
37.500000, 91.236, -149.2068
38.200001, 91.197, -149.2397
38.700001, 91.222, -149.1579
39.500000, 91.346, -149.3586
40.000000, 91.422, -149.7392
40.599998, 91.493, -150.2337
41.200001, 91.556, -150.7107
41.799999, 91.594, -151.2320
42.500000, 91.569, -151.6120
43.099998, 91.532, -151.4293
43.700001, 91.547, -150.9594
44.400002, 91.629, -150.6941
45.000000, 91.686, -150.9539
45.500000, 91.689, -151.3740
46.200001, 91.629, -151.8862
46.799999, 91.558, -152.0345
47.500000, 91.522, -151.8541
48.200001, 91.601, -151.7028
48.700001, 91.716, -152.0523
49.400002, 91.834, -153.3847
50.000000, 91.792, -154.6388
50.799999, 91.625, -154.8355
51.500000, 91.633, -153.7856
52.200001, 91.804, -153.1853
53.000000, 91.958, -153.3905
53.799999, 92.045, -153.5977
54.500000, 92.154, -154.0643
55.200001, 92.206, -155.4947
56.000000, 91.994, -157.5141
57.000000, 91.480, -157.3143
58.000000, 91.448, -154.8807
59.000000, 91.735, -155.0417
60.000000, 91.860, -156.2013
60.799999, 91.959, -156.8157
61.500000, 92.044, -157.4447
62.200001, 92.091, -157.9926
63.000000, 92.128, -158.3529
64.000000, 92.150, -158.7066
65.000000, 92.112, -158.7283
66.000000, 92.106, -158.2916
67.000000, 92.164, -158.0477
68.000000, 92.231, -158.3414
69.000000, 92.232, -158.8748
70.000000, 92.207, -159.0445
71.000000, 92.213, -159.1456
72.000000, 92.207, -159.1754
73.000000, 92.249, -158.9475
74.000000, 92.347, -159.1537
75.000000, 92.396, -159.8379
76.199997, 92.382, -160.4530
77.500000, 92.386, -160.7493
78.800003, 92.397, -161.0464
80.000000, 92.403, -161.1322
81.199997, 92.440, -161.1954
82.500000, 92.466, -161.4748
83.800003, 92.501, -161.6350
85.000000, 92.541, -161.9999
86.199997, 92.557, -162.1196
87.500000, 92.628, -162.0133
88.500000, 92.678, -162.0980
90.000000, 92.715, -161.9512
91.199997, 92.748, -162.0435
92.500000, 92.699, -162.3099
93.800003, 92.633, -162.3720
95.000000, 92.573, -162.3454
96.199997, 92.579, -162.1917
97.500000, 92.618, -162.4216
98.800003, 92.650, -162.4863
100.000000, 92.725, -162.5003
101.500000, 92.787, -163.0350
103.000000, 92.736, -163.1760
104.400002, 92.742, -162.9093
106.000000, 92.724, -163.2680
107.500000, 92.645, -163.3330
109.000000, 92.610, -163.3080
110.599998, 92.599, -163.5429
112.000000, 92.602, -163.8017
113.800003, 92.631, -163.8718
115.000000, 92.677, -163.7761
117.199997, 92.747, -163.3000
118.000000, 92.770, -163.0216
120.599998, 92.829, -162.7213
122.000000, 92.804, -162.8552
124.099998, 92.798, -163.0443
125.000000, 92.815, -163.1625
126.500000, 92.858, -163.3545
128.000000, 92.905, -163.3924
131.500000, 93.012, -163.3888
132.000000, 93.017, -163.4199
134.000000, 93.022, -163.6494
136.000000, 93.035, -163.8953
138.000000, 93.096, -164.4112
140.000000, 93.125, -164.9676
143.000000, 93.173, -164.4344
145.000000, 93.263, -164.0932
147.500000, 93.266, -164.4589
150.000000, 93.231, -164.7089
152.500000, 93.199, -165.0689
155.000000, 93.211, -164.9535
157.500000, 93.287, -165.2859
160.000000, 93.313, -165.8100
162.500000, 93.309, -165.9023
165.000000, 93.298, -165.9901
167.500000, 93.281, -166.2519
170.000000, 93.334, -166.4907
172.500000, 93.436, -166.6931
175.000000, 93.492, -166.7890
177.500000, 93.462, -166.6384
180.000000, 93.406, -166.6890
182.500000, 93.345, -167.0116
185.000000, 93.339, -167.1502
187.500000, 93.374, -167.1953
190.000000, 93.418, -167.2315
192.500000, 93.485, -167.4073
195.000000, 93.548, -167.5483
197.500000, 93.520, -167.6676
200.000000, 93.381, -167.3223
203.000000, 93.286, -167.0991
206.000000, 93.298, -167.3058
209.000000, 93.392, -167.5392
212.000000, 93.467, -167.6172
214.000000, 93.476, -167.4484
218.000000, 93.444, -167.2975
220.000000, 93.419, -167.6712
224.000000, 93.407, -168.2047
227.000000, 93.446, -168.3093
230.000000, 93.489, -168.5976
233.000000, 93.487, -169.0175
236.000000, 93.451, -169.1253
240.000000, 93.409, -169.7327
243.000000, 93.350, -170.7679
247.000000, 93.254, -171.7320
250.000000, 93.230, -171.1714
254.000000, 93.357, -168.8570
258.000000, 93.525, -167.2339
262.000000, 93.498, -167.9351
265.000000, 93.416, -167.9223
269.000000, 93.461, -167.5731
272.000000, 93.492, -167.6327
276.000000, 93.511, -167.7775
280.000000, 93.466, -167.6359
285.000000, 93.368, -168.3547
290.000000, 93.387, -168.5197
295.000000, 93.454, -168.0695
300.000000, 93.500, -168.5613
304.000000, 93.536, -168.4665
307.000000, 93.564, -168.3898
311.000000, 93.402, -167.8675
315.000000, 93.282, -167.3148
320.000000, 93.653, -168.6700
325.000000, 93.726, -169.9730
330.000000, 93.574, -169.7736
335.000000, 93.767, -168.1216
340.000000, 93.772, -165.5056
345.000000, 93.534, -166.9443
350.000000, 93.506, -168.3077
355.000000, 93.550, -167.7529
360.000000, 93.580, -167.4859
365.000000, 93.520, -166.9013
370.000000, 93.403, -166.4017
375.000000, 93.391, -166.6351
382.000000, 93.495, -166.5370
387.000000, 93.484, -166.1872
395.000000, 93.457, -165.9032
400.000000, 93.513, -166.0630
406.000000, 93.549, -166.0852
412.000000, 93.526, -166.2993
418.000000, 93.524, -165.9666
425.000000, 93.494, -165.7471
431.000000, 93.497, -165.7135
437.000000, 93.504, -165.6617
444.000000, 93.470, -165.4522
450.000000, 93.436, -165.2634
455.000000, 93.427, -165.1481
462.000000, 93.441, -165.2407
468.000000, 93.435, -165.4342
475.000000, 93.326, -164.9495
482.000000, 93.288, -164.6310
487.000000, 93.378, -165.1914
494.000000, 93.614, -165.1949
500.000000, 93.740, -164.5958
508.000000, 93.572, -164.0509
515.000000, 93.449, -163.9907
522.000000, 93.522, -164.3231
530.000000, 93.528, -164.7278
538.000000, 93.635, -164.0211
545.000000, 93.760, -163.3845
552.000000, 93.761, -162.7933
560.000000, 93.687, -162.2036
570.000000, 93.739, -162.2334
580.000000, 93.852, -163.0146
590.000000, 94.048, -162.1693
600.000000, 94.004, -160.5740
608.000000, 93.999, -160.6674
615.000000, 93.946, -161.5278
622.000000, 93.857, -160.7307
630.000000, 94.098, -159.3201
640.000000, 94.234, -159.8560
650.000000, 94.249, -161.2931
660.000000, 94.241, -161.3760
670.000000, 94.178, -159.3532
680.000000, 94.008, -157.9942
690.000000, 93.949, -158.6841
700.000000, 94.022, -158.6549
710.000000, 94.052, -159.0817
720.000000, 94.047, -158.9708
730.000000, 94.054, -158.2088
740.000000, 94.092, -157.7286
750.000000, 94.091, -157.4396
762.000000, 94.090, -157.5811
775.000000, 94.126, -157.9476
788.000000, 94.219, -157.9044
800.000000, 94.294, -157.4935
812.000000, 94.330, -157.2063
825.000000, 94.400, -157.0193
838.000000, 94.438, -157.0378
850.000000, 94.451, -156.5681
862.000000, 94.409, -156.5177
875.000000, 94.448, -156.8905
885.000000, 94.508, -156.9827
900.000000, 94.421, -156.5245
912.000000, 94.192, -156.7256
925.000000, 94.096, -159.1503
938.000000, 94.297, -159.1065
950.000000, 94.397, -158.1329
962.000000, 94.421, -157.2648
975.000000, 94.362, -157.3324
988.000000, 94.242, -157.9687
1000.000000, 94.160, -157.9578
1015.000000, 94.113, -157.8849
1030.000000, 94.023, -158.0516
1044.000000, 93.847, -157.8986
1060.000000, 93.688, -157.1506
1075.000000, 93.596, -156.7718
1090.000000, 93.477, -156.6752
1106.000000, 93.392, -155.9031
1120.000000, 93.403, -154.8727
1138.000000, 93.385, -153.5973
1150.000000, 93.323, -152.7201
1172.000000, 93.403, -151.8580
1180.000000, 93.418, -151.7265
1206.000000, 93.250, -149.7618
1220.000000, 93.137, -148.9045
1241.000000, 93.058, -147.3765
1250.000000, 93.046, -146.7050
1265.000000, 93.058, -145.7009
1280.000000, 93.089, -144.7964
1315.000000, 93.358, -142.6004
1320.000000, 93.395, -142.4181
1340.000000, 93.480, -141.3911
1360.000000, 93.564, -139.9960
1380.000000, 93.695, -138.8566
1400.000000, 93.887, -137.9096
1430.000000, 94.152, -137.1903
1450.000000, 94.257, -137.2258
1475.000000, 94.307, -137.3906
1500.000000, 94.289, -137.3077
1525.000000, 94.301, -136.4581
1550.000000, 94.311, -135.5437
1575.000000, 94.341, -134.5920
1600.000000, 94.408, -133.8110
1625.000000, 94.454, -133.0151
1650.000000, 94.436, -132.1142
1675.000000, 94.552, -131.0870
1700.000000, 94.704, -129.9167
1725.000000, 94.787, -128.6565
1750.000000, 94.869, -128.1855
1775.000000, 94.936, -127.3541
1800.000000, 95.058, -126.6674
1825.000000, 95.202, -126.3686
1850.000000, 95.288, -126.2173
1875.000000, 95.321, -125.8085
1900.000000, 95.325, -125.0176
1925.000000, 95.352, -123.9871
1950.000000, 95.448, -123.1204
1975.000000, 95.574, -122.7699
2000.000000, 95.672, -122.7265
2030.000000, 95.785, -122.4819
2060.000000, 95.874, -122.0376
2090.000000, 95.931, -121.3646
2120.000000, 96.021, -120.6029
2140.000000, 96.096, -120.1653
2180.000000, 96.236, -119.1068
2200.000000, 96.310, -118.7484
2240.000000, 96.427, -118.3029
2270.000000, 96.513, -117.4971
2300.000000, 96.647, -116.5368
2330.000000, 96.877, -115.8634
2360.000000, 97.116, -115.7474
2400.000000, 97.310, -116.2122
2430.000000, 97.384, -116.7241
2470.000000, 97.455, -117.2059
2500.000000, 97.528, -117.3900
2540.000000, 97.580, -117.7274
2580.000000, 97.581, -118.0913
2620.000000, 97.575, -118.4600
2650.000000, 97.579, -118.5089
2690.000000, 97.628, -118.2127
2720.000000, 97.672, -118.0582
2760.000000, 97.694, -118.2292
2800.000000, 97.681, -118.6069
2850.000000, 97.700, -118.9492
2900.000000, 97.707, -119.4977
2950.000000, 97.602, -119.8377
3000.000000, 97.368, -120.5425
3040.000000, 97.186, -120.7890
3070.000000, 97.039, -120.7454
3110.000000, 96.815, -120.6053
3150.000000, 96.542, -120.2227
3200.000000, 96.137, -118.7958
3250.000000, 95.750, -116.3405
3300.000000, 95.501, -112.7907
3350.000000, 95.395, -108.8575
3400.000000, 95.485, -105.0987
3450.000000, 95.737, -102.1679
3500.000000, 96.081, -100.6294
3550.000000, 96.406, -99.9610
3600.000000, 96.634, -100.0867
3650.000000, 96.739, -100.6906
3700.000000, 96.684, -101.5447
3750.000000, 96.464, -102.0859
3820.000000, 95.950, -101.0889
3870.000000, 95.566, -98.8269
3950.000000, 95.206, -93.2469
4000.000000, 95.131, -89.5621
4060.000000, 95.094, -85.0749
4120.000000, 95.162, -80.0506
4180.000000, 95.422, -74.6582
4250.000000, 95.929, -69.0787
4310.000000, 96.488, -65.0065
4370.000000, 97.108, -61.7659
4440.000000, 97.889, -58.7410
4500.000000, 98.597, -57.1151
4550.000000, 99.166, -56.3149
4620.000000, 99.947, -55.8619
4680.000000, 100.598, -56.1646
4750.000000, 101.271, -57.1920
4820.000000, 101.857, -58.5491
4870.000000, 102.262, -59.6062
4940.000000, 102.816, -61.3330
5000.000000, 103.266, -63.1224
5080.000000, 103.823, -66.2075
5150.000000, 104.232, -69.5016
5220.000000, 104.544, -72.9882
5300.000000, 104.806, -77.1703
5380.000000, 105.006, -81.3751
5450.000000, 105.146, -85.4196
5520.000000, 105.223, -89.9845
5600.000000, 105.172, -95.9471
5700.000000, 104.735, -103.8298
5800.000000, 103.852, -110.7803
5900.000000, 102.622, -115.4125
6000.000000, 101.239, -117.0661
6080.000000, 100.186, -116.2768
6150.000000, 99.377, -114.4909
6220.000000, 98.684, -112.1390
6300.000000, 98.014, -109.0119
6400.000000, 97.313, -104.7371
6500.000000, 96.756, -99.8663
6600.000000, 96.360, -94.5463
6700.000000, 96.155, -89.0041
6800.000000, 96.154, -83.2314
6900.000000, 96.449, -77.4426
7000.000000, 97.117, -72.2292
7100.000000, 98.196, -68.7790
7200.000000, 99.633, -68.8905
7300.000000, 101.121, -74.1786
7400.000000, 102.162, -85.1052
7500.000000, 102.274, -99.4897
7620.000000, 101.064, -115.8566
7750.000000, 98.777, -128.2782
7880.000000, 96.039, -137.1811
8000.000000, 92.810, -142.7790
8120.000000, 88.638, -141.6522
8250.000000, 83.468, -127.2232
8380.000000, 81.947, -34.1205
8500.000000, 86.742, 3.0499
8620.000000, 90.790, -1.3929
8750.000000, 93.164, -14.3293
8850.000000, 93.816, -24.5949
9000.000000, 93.706, -37.0825
9120.000000, 92.926, -44.5537
9250.000000, 91.410, -47.6939
9380.000000, 89.994, -43.5641
9500.000000, 89.499, -39.3879
9620.000000, 89.136, -40.1155
9750.000000, 87.915, -43.3840
9880.000000, 85.616, -43.1662
10000.000000, 82.783, -33.2348
10150.000000, 81.015, 17.8478
10300.000000, 84.345, 57.9571
10440.000000, 88.110, 65.4609
10600.000000, 91.444, 61.3479
10750.000000, 93.401, 51.3041
10900.000000, 94.197, 39.0611
11060.000000, 93.933, 26.8012
11200.000000, 92.925, 18.1409
11380.000000, 90.584, 12.4479
11500.000000, 88.541, 14.4344
11720.000000, 84.853, 37.5628
11800.000000, 84.311, 55.3929
12060.000000, 88.383, 107.5588
12200.000000, 91.730, 114.7353
12410.000000, 95.990, 110.8739
12500.000000, 97.495, 106.0236
12650.000000, 99.507, 94.5835
