* Measurement data measured by REW V5.31.1
* Source: Headset (DS by VECLAN.COM), MICROPHONE (Master Volume), L, volume: 0.710. Timing signal peak level -8.5 dBFS, measurement signal peak level -8.7 dBFS
* Format: 2M Log Swept Sine, 1 sweep at -12.0 dBFS using an acoustic timing reference
* Dated: May 25, 2024 4:10:44 PM
* REW Settings:
*  C-weighting compensation: Off
*  Target level: 85.0 dB
* Note: ; Delay -0.0702 ms (-24 mm, -0.95 in) using estimated IR delay relative to Acoustic reference played from HEADPHONE L with no timing offset
* Measurement: Sennheiser HD700 L5
* Smoothing: 1/24 octave
* Frequency Step: 1/48 octave
* Start Frequency: 1.000 Hz
*
* Freq(Hz), SPL(dB), Phase(degrees)
1.000000, 63.113, 12.3087
1.015000, 63.113, 12.3358
1.030000, 63.112, 12.3642
1.044000, 63.111, 12.3925
1.060000, 63.109, 12.4275
1.075000, 63.106, 12.4635
1.090000, 63.103, 12.5031
1.106000, 63.099, 12.5489
1.120000, 63.098, 12.5911
1.138000, 63.099, 12.6466
1.150000, 63.101, 12.6839
1.172000, 63.107, 12.7457
1.180000, 63.109, 12.7612
1.206000, 63.119, 12.8099
1.220000, 63.124, 12.8341
1.241000, 63.131, 12.8669
1.250000, 63.133, 12.8795
1.265000, 63.136, 12.8981
1.280000, 63.136, 12.9135
1.315000, 63.127, 12.9354
1.320000, 63.125, 12.9368
1.340000, 63.110, 12.9375
1.360000, 63.088, 12.9315
1.380000, 63.058, 12.8791
1.400000, 63.018, 12.8036
1.430000, 62.938, 12.6737
1.450000, 62.870, 12.5764
1.475000, 62.764, 12.4495
1.500000, 62.632, 12.3334
1.525000, 62.473, 12.2317
1.550000, 62.292, 12.1386
1.575000, 62.093, 12.0258
1.600000, 61.880, 11.8691
1.625000, 61.657, 11.7010
1.650000, 61.430, 11.5151
1.675000, 61.201, 11.3053
1.700000, 60.977, 11.0657
1.725000, 60.760, 10.7910
1.750000, 60.556, 10.4763
1.775000, 60.368, 10.1001
1.800000, 60.201, 9.6432
1.825000, 60.058, 9.1423
1.850000, 59.936, 8.6210
1.875000, 59.827, 8.1111
1.900000, 59.728, 7.6175
1.925000, 59.639, 7.1321
1.950000, 59.560, 6.6454
1.975000, 59.490, 6.1309
2.000000, 59.430, 5.5630
2.030000, 59.371, 4.8427
2.060000, 59.324, 4.0645
2.090000, 59.291, 3.2148
2.120000, 59.272, 2.2815
2.140000, 59.266, 1.6079
2.180000, 59.272, 0.1112
2.200000, 59.284, -0.7106
2.240000, 59.330, -2.3749
2.270000, 59.384, -3.6002
2.300000, 59.453, -4.8062
2.330000, 59.536, -6.0023
2.360000, 59.632, -7.1998
2.400000, 59.778, -8.8656
2.430000, 59.898, -10.1513
2.470000, 60.071, -11.9244
2.500000, 60.208, -13.3103
2.540000, 60.399, -15.2436
2.580000, 60.600, -17.2691
2.620000, 60.819, -19.3182
2.650000, 60.995, -20.8141
2.690000, 61.245, -22.7518
2.720000, 61.441, -24.1676
2.760000, 61.711, -26.0151
2.800000, 61.987, -27.8742
2.850000, 62.335, -30.1926
2.900000, 62.679, -32.5301
2.950000, 63.019, -34.8946
3.000000, 63.362, -37.2595
3.040000, 63.640, -39.1061
3.070000, 63.851, -40.4522
3.110000, 64.132, -42.1951
3.150000, 64.412, -43.8833
3.200000, 64.756, -45.9603
3.250000, 65.092, -48.0013
3.300000, 65.416, -50.0166
3.350000, 65.731, -52.0186
3.400000, 66.040, -54.0232
3.450000, 66.342, -55.9839
3.500000, 66.636, -57.8693
3.550000, 66.921, -59.6721
3.600000, 67.194, -61.4211
3.650000, 67.455, -63.1152
3.700000, 67.705, -64.7771
3.750000, 67.943, -66.4308
3.820000, 68.258, -68.7332
3.870000, 68.470, -70.3159
3.950000, 68.788, -72.6771
4.000000, 68.972, -74.0569
4.060000, 69.180, -75.6366
4.120000, 69.371, -77.1834
4.180000, 69.546, -78.7004
4.250000, 69.732, -80.4039
4.310000, 69.877, -81.7339
4.370000, 70.010, -82.9235
4.440000, 70.148, -84.1933
4.500000, 70.250, -85.2116
4.550000, 70.325, -86.0106
4.620000, 70.418, -87.0497
4.680000, 70.489, -87.8145
4.750000, 70.566, -88.5196
4.820000, 70.634, -89.0627
4.870000, 70.674, -89.3687
4.940000, 70.725, -89.6827
5.000000, 70.765, -89.8544
5.080000, 70.824, -89.9168
5.150000, 70.883, -89.7885
5.220000, 70.946, -89.5156
5.300000, 71.022, -89.0406
5.380000, 71.109, -88.4296
5.450000, 71.201, -87.8310
5.520000, 71.312, -87.1590
5.600000, 71.460, -86.2970
5.700000, 71.672, -85.1357
5.800000, 71.911, -83.9909
5.900000, 72.176, -82.9499
6.000000, 72.471, -81.9675
6.080000, 72.722, -81.2521
6.150000, 72.946, -80.6935
6.220000, 73.170, -80.2319
6.300000, 73.428, -79.7993
6.400000, 73.754, -79.3723
6.500000, 74.076, -79.0697
6.600000, 74.386, -78.8798
6.700000, 74.682, -78.8074
6.800000, 74.967, -78.8162
6.900000, 75.238, -78.8814
7.000000, 75.493, -78.9765
7.100000, 75.734, -79.1117
7.200000, 75.961, -79.2646
7.300000, 76.178, -79.4189
7.400000, 76.384, -79.5586
7.500000, 76.579, -79.6990
7.620000, 76.804, -79.8540
7.750000, 77.041, -79.9978
7.880000, 77.271, -80.1260
8.000000, 77.478, -80.2428
8.120000, 77.683, -80.3774
8.250000, 77.903, -80.5405
8.380000, 78.118, -80.7398
8.500000, 78.313, -80.9772
8.620000, 78.502, -81.2566
8.750000, 78.699, -81.6092
8.850000, 78.843, -81.9206
9.000000, 79.047, -82.4418
9.120000, 79.198, -82.8938
9.250000, 79.347, -83.4127
9.380000, 79.482, -83.9517
9.500000, 79.594, -84.4491
9.620000, 79.695, -84.9302
9.750000, 79.790, -85.4341
9.880000, 79.869, -85.9062
10.000000, 79.925, -86.2963
10.150000, 79.976, -86.7648
10.300000, 80.015, -87.1578
10.440000, 80.045, -87.4567
10.600000, 80.077, -87.7340
10.750000, 80.113, -87.9412
10.900000, 80.154, -88.1098
11.060000, 80.205, -88.2973
11.200000, 80.257, -88.4908
11.380000, 80.327, -88.7430
11.500000, 80.375, -88.9189
11.720000, 80.466, -89.2551
11.800000, 80.499, -89.3818
12.060000, 80.611, -89.8204
12.200000, 80.672, -90.0905
12.410000, 80.766, -90.4722
12.500000, 80.805, -90.6226
12.650000, 80.870, -90.8541
12.800000, 80.936, -91.0619
13.150000, 81.102, -91.5168
13.200000, 81.128, -91.5857
13.400000, 81.236, -91.8522
13.600000, 81.351, -92.1174
13.800000, 81.470, -92.3916
14.000000, 81.590, -92.6835
14.300000, 81.767, -93.2173
14.500000, 81.880, -93.5699
14.750000, 82.012, -93.9781
15.000000, 82.141, -94.3350
15.250000, 82.273, -94.6866
15.500000, 82.407, -94.9911
15.750000, 82.543, -95.2677
16.000000, 82.678, -95.5437
16.250000, 82.810, -95.8771
16.500000, 82.934, -96.2169
16.750000, 83.046, -96.5384
17.000000, 83.148, -96.8111
17.250000, 83.245, -97.0380
17.500000, 83.344, -97.1856
17.750000, 83.449, -97.2769
18.000000, 83.567, -97.3651
18.250000, 83.696, -97.5299
18.500000, 83.829, -97.7985
18.750000, 83.957, -98.1812
19.000000, 84.070, -98.6575
19.250000, 84.163, -99.1949
19.500000, 84.235, -99.6996
19.750000, 84.290, -100.1116
20.000000, 84.341, -100.3972
20.299999, 84.412, -100.6181
20.600000, 84.506, -100.7495
20.900000, 84.626, -100.9003
21.200001, 84.761, -101.1731
21.400000, 84.853, -101.4302
21.799999, 85.025, -102.0585
22.000000, 85.102, -102.3933
22.400000, 85.248, -103.0580
22.700001, 85.357, -103.5117
23.000000, 85.469, -103.9564
23.299999, 85.583, -104.4430
23.600000, 85.691, -104.9573
24.000000, 85.813, -105.6190
24.299999, 85.889, -106.0390
24.700001, 85.986, -106.3965
25.000000, 86.069, -106.5270
25.400000, 86.205, -106.6566
25.799999, 86.363, -106.8600
26.200001, 86.520, -107.2178
26.500000, 86.624, -107.5583
26.900000, 86.741, -108.0111
27.200001, 86.816, -108.3087
27.600000, 86.908, -108.6212
28.000000, 86.999, -108.8474
28.500000, 87.118, -109.0643
29.000000, 87.250, -109.2400
29.500000, 87.403, -109.4901
30.000000, 87.567, -109.9338
30.400000, 87.688, -110.4650
30.700001, 87.765, -110.9211
31.100000, 87.848, -111.5331
31.500000, 87.918, -112.0925
32.000000, 88.004, -112.6828
32.500000, 88.099, -113.2425
33.000000, 88.194, -113.8147
33.500000, 88.282, -114.3768
34.000000, 88.369, -114.8610
34.500000, 88.465, -115.2869
35.000000, 88.571, -115.7130
35.500000, 88.676, -116.1829
36.000000, 88.773, -116.6635
36.500000, 88.861, -117.1095
37.000000, 88.946, -117.5023
37.500000, 89.035, -117.8804
38.200001, 89.157, -118.4418
38.700001, 89.238, -118.8683
39.500000, 89.356, -119.5331
40.000000, 89.430, -119.9435
40.599998, 89.517, -120.4761
41.200001, 89.597, -121.0240
41.799999, 89.672, -121.5391
42.500000, 89.766, -122.1157
43.099998, 89.849, -122.6333
43.700001, 89.925, -123.1308
44.400002, 90.013, -123.5977
45.000000, 90.103, -123.9631
45.500000, 90.183, -124.3261
46.200001, 90.278, -124.9056
46.799999, 90.341, -125.3573
47.500000, 90.409, -125.7827
48.200001, 90.478, -126.1784
48.700001, 90.523, -126.4602
49.400002, 90.585, -126.8393
50.000000, 90.639, -127.1858
50.799999, 90.704, -127.7322
51.500000, 90.744, -128.1885
52.200001, 90.786, -128.5390
53.000000, 90.856, -128.9039
53.799999, 90.938, -129.3648
54.500000, 91.002, -129.8309
55.200001, 91.051, -130.2088
56.000000, 91.122, -130.3760
57.000000, 91.288, -130.7236
58.000000, 91.407, -131.7182
59.000000, 91.428, -132.2747
60.000000, 91.518, -132.4768
60.799999, 91.600, -132.9557
61.500000, 91.640, -133.4088
62.200001, 91.676, -133.7521
63.000000, 91.728, -134.1067
64.000000, 91.798, -134.5946
65.000000, 91.866, -135.1330
66.000000, 91.925, -135.6362
67.000000, 91.985, -136.0821
68.000000, 92.041, -136.5174
69.000000, 92.094, -136.8964
70.000000, 92.151, -137.2669
71.000000, 92.204, -137.6738
72.000000, 92.251, -138.0777
73.000000, 92.302, -138.4595
74.000000, 92.354, -138.8612
75.000000, 92.407, -139.2480
76.199997, 92.476, -139.7060
77.500000, 92.558, -140.1972
78.800003, 92.637, -140.8446
80.000000, 92.669, -141.4567
81.199997, 92.695, -141.7973
82.500000, 92.763, -142.1150
83.800003, 92.840, -142.6070
85.000000, 92.903, -143.0337
86.199997, 92.969, -143.4779
87.500000, 93.016, -143.9975
88.500000, 93.041, -144.3269
90.000000, 93.089, -144.8476
91.199997, 93.132, -145.4187
92.500000, 93.174, -146.0782
93.800003, 93.218, -146.6550
95.000000, 93.255, -147.0695
96.199997, 93.286, -147.4446
97.500000, 93.287, -147.8878
98.800003, 93.267, -148.2548
100.000000, 93.275, -148.5778
101.500000, 93.347, -149.2263
103.000000, 93.414, -150.0498
104.400002, 93.468, -150.1082
106.000000, 93.539, -150.0678
107.500000, 93.478, -150.1252
109.000000, 93.329, -149.9715
110.599998, 93.212, -149.5207
112.000000, 93.338, -149.3858
113.800003, 93.550, -150.8861
115.000000, 93.631, -151.5272
117.199997, 93.733, -151.9682
118.000000, 93.734, -152.1783
120.599998, 93.630, -153.0091
122.000000, 93.621, -153.4915
124.099998, 93.716, -154.2954
125.000000, 93.767, -154.5657
126.500000, 93.834, -154.8161
128.000000, 93.869, -155.0017
131.500000, 93.874, -155.7967
132.000000, 93.882, -155.9498
134.000000, 93.937, -156.5634
136.000000, 93.988, -156.9931
138.000000, 94.032, -157.1085
140.000000, 94.070, -157.4030
143.000000, 94.091, -157.9885
145.000000, 94.097, -158.3589
147.500000, 94.116, -158.7097
150.000000, 94.149, -159.2213
152.500000, 94.179, -159.8187
155.000000, 94.206, -160.2560
157.500000, 94.246, -160.6697
160.000000, 94.238, -161.2252
162.500000, 94.217, -161.7190
165.000000, 94.221, -162.2716
167.500000, 94.261, -162.5741
170.000000, 94.286, -162.7991
172.500000, 94.259, -163.0842
175.000000, 94.239, -163.4964
177.500000, 94.256, -163.8776
180.000000, 94.283, -164.1243
182.500000, 94.297, -164.4132
185.000000, 94.299, -164.8205
187.500000, 94.299, -165.1637
190.000000, 94.284, -165.4263
192.500000, 94.253, -165.6669
195.000000, 94.234, -165.9144
197.500000, 94.241, -166.1095
200.000000, 94.253, -166.3283
203.000000, 94.232, -166.8279
206.000000, 94.187, -167.2991
209.000000, 94.177, -167.6432
212.000000, 94.206, -167.9479
214.000000, 94.218, -168.3375
218.000000, 94.172, -168.9731
220.000000, 94.142, -169.0789
224.000000, 94.129, -169.1255
227.000000, 94.141, -169.3487
230.000000, 94.137, -169.5768
233.000000, 94.126, -169.8053
236.000000, 94.104, -170.0501
240.000000, 94.051, -170.3875
243.000000, 94.003, -170.5322
247.000000, 93.973, -170.7889
250.000000, 93.970, -170.9304
254.000000, 93.941, -171.0586
258.000000, 93.950, -170.6409
262.000000, 94.023, -171.1853
265.000000, 93.968, -171.6992
269.000000, 93.874, -171.9534
272.000000, 93.854, -171.9425
276.000000, 93.855, -172.0143
280.000000, 93.845, -172.0448
285.000000, 93.811, -172.0710
290.000000, 93.777, -172.0014
295.000000, 93.760, -172.3450
300.000000, 93.735, -172.6644
304.000000, 93.705, -172.9165
307.000000, 93.680, -173.0503
311.000000, 93.651, -173.0749
315.000000, 93.637, -173.0185
320.000000, 93.621, -172.7316
325.000000, 93.623, -172.5271
330.000000, 93.648, -172.5959
335.000000, 93.653, -172.7038
340.000000, 93.652, -172.7968
345.000000, 93.647, -172.8801
350.000000, 93.616, -172.8516
355.000000, 93.576, -172.9662
360.000000, 93.525, -173.1723
365.000000, 93.482, -173.4182
370.000000, 93.461, -173.4966
375.000000, 93.450, -173.3713
382.000000, 93.433, -173.2202
387.000000, 93.393, -173.2110
395.000000, 93.353, -173.1534
400.000000, 93.350, -173.2979
406.000000, 93.321, -173.2996
412.000000, 93.260, -173.1199
418.000000, 93.206, -172.9558
425.000000, 93.198, -172.8781
431.000000, 93.188, -172.7231
437.000000, 93.156, -172.6763
444.000000, 93.093, -172.4780
450.000000, 93.053, -172.3060
455.000000, 93.063, -172.1258
462.000000, 93.032, -172.2458
468.000000, 92.983, -171.7922
475.000000, 92.968, -171.5818
482.000000, 92.944, -171.3196
487.000000, 92.965, -171.0775
494.000000, 93.011, -171.0006
500.000000, 93.045, -171.2536
508.000000, 93.100, -171.7306
515.000000, 93.147, -171.9181
522.000000, 93.171, -171.5319
530.000000, 93.129, -170.3573
538.000000, 92.940, -169.5601
545.000000, 92.793, -169.7111
552.000000, 92.779, -169.9024
560.000000, 92.771, -169.6974
570.000000, 92.752, -169.4309
580.000000, 92.760, -169.1422
590.000000, 92.747, -168.7370
600.000000, 92.728, -168.3611
608.000000, 92.716, -168.3362
615.000000, 92.708, -168.2005
622.000000, 92.719, -167.9514
630.000000, 92.724, -167.6906
640.000000, 92.701, -167.5264
650.000000, 92.669, -167.3706
660.000000, 92.641, -167.1152
670.000000, 92.619, -166.7379
680.000000, 92.609, -166.4566
690.000000, 92.598, -166.3028
700.000000, 92.561, -166.0498
710.000000, 92.532, -165.8004
720.000000, 92.514, -165.6054
730.000000, 92.475, -165.3592
740.000000, 92.448, -165.0612
750.000000, 92.428, -164.6324
762.000000, 92.413, -164.1284
775.000000, 92.391, -163.7880
788.000000, 92.358, -163.2992
800.000000, 92.332, -162.8503
812.000000, 92.309, -162.3693
825.000000, 92.309, -161.9021
838.000000, 92.297, -161.6494
850.000000, 92.262, -161.3972
862.000000, 92.220, -160.9408
875.000000, 92.181, -160.3672
885.000000, 92.166, -159.9504
900.000000, 92.157, -159.2713
912.000000, 92.162, -158.8098
925.000000, 92.153, -158.3838
938.000000, 92.148, -157.9299
950.000000, 92.140, -157.5302
962.000000, 92.124, -157.2570
975.000000, 92.087, -156.8800
988.000000, 92.056, -156.2994
1000.000000, 92.050, -155.8365
1015.000000, 92.051, -155.3611
1030.000000, 92.053, -154.9839
1044.000000, 92.024, -154.6874
1060.000000, 91.944, -154.3031
1075.000000, 91.892, -153.7628
1090.000000, 91.875, -153.2329
1106.000000, 91.873, -152.8302
1120.000000, 91.839, -152.5273
1138.000000, 91.772, -151.8526
1150.000000, 91.754, -151.2247
1172.000000, 91.735, -150.3956
1180.000000, 91.718, -150.1524
1206.000000, 91.604, -148.9188
1220.000000, 91.568, -147.9006
1241.000000, 91.573, -146.7019
1250.000000, 91.571, -146.2477
1265.000000, 91.561, -145.2525
1280.000000, 91.580, -144.0299
1315.000000, 91.701, -141.8519
1320.000000, 91.716, -141.5453
1340.000000, 91.801, -140.3412
1360.000000, 91.902, -139.5842
1380.000000, 91.945, -139.0723
1400.000000, 91.993, -138.3580
1430.000000, 92.044, -137.7163
1450.000000, 92.019, -136.8905
1475.000000, 92.085, -135.5375
1500.000000, 92.156, -134.7441
1525.000000, 92.184, -134.0745
1550.000000, 92.159, -133.2393
1575.000000, 92.144, -131.9941
1600.000000, 92.164, -130.5686
1625.000000, 92.246, -129.3206
1650.000000, 92.312, -128.3633
1675.000000, 92.375, -127.4157
1700.000000, 92.415, -126.6635
1725.000000, 92.402, -125.7839
1750.000000, 92.397, -124.3371
1775.000000, 92.474, -122.8583
1800.000000, 92.571, -121.7944
1825.000000, 92.634, -120.9095
1850.000000, 92.680, -119.8113
1875.000000, 92.760, -118.6991
1900.000000, 92.845, -117.6834
1925.000000, 92.931, -116.8230
1950.000000, 92.985, -115.9324
1975.000000, 93.038, -114.8009
2000.000000, 93.104, -113.5451
2030.000000, 93.266, -111.8610
2060.000000, 93.474, -111.0023
2090.000000, 93.588, -110.4787
2120.000000, 93.684, -109.3924
2140.000000, 93.791, -108.7179
2180.000000, 93.966, -107.8904
2200.000000, 94.034, -107.3921
2240.000000, 94.162, -106.3423
2270.000000, 94.277, -105.2685
2300.000000, 94.470, -104.2504
2330.000000, 94.707, -103.9985
2360.000000, 94.847, -104.5167
2400.000000, 94.870, -104.7389
2430.000000, 94.885, -104.5091
2470.000000, 94.859, -104.1165
2500.000000, 94.835, -103.4461
2540.000000, 94.822, -102.3226
2580.000000, 94.893, -100.8242
2620.000000, 94.980, -100.0794
2650.000000, 94.996, -99.2321
2690.000000, 95.112, -98.1664
2720.000000, 95.146, -97.9434
2760.000000, 95.097, -96.7796
2800.000000, 95.200, -95.1763
2850.000000, 95.286, -94.6111
2900.000000, 95.239, -93.2818
2950.000000, 95.198, -91.5721
3000.000000, 95.143, -88.9883
3040.000000, 95.185, -86.2616
3070.000000, 95.295, -84.0123
3110.000000, 95.563, -81.1389
3150.000000, 95.926, -78.5780
3200.000000, 96.560, -76.2448
3250.000000, 97.202, -75.7754
3300.000000, 97.787, -76.2627
3350.000000, 98.272, -77.8845
3400.000000, 98.569, -80.0134
3450.000000, 98.755, -81.9308
3500.000000, 98.846, -83.9652
3550.000000, 98.814, -85.3992
3600.000000, 98.826, -86.3014
3650.000000, 98.824, -87.8101
3700.000000, 98.646, -89.1795
3750.000000, 98.429, -89.5624
3820.000000, 98.159, -89.4937
3870.000000, 97.987, -89.1838
3950.000000, 97.648, -88.2802
4000.000000, 97.509, -87.2342
4060.000000, 97.298, -86.5885
4120.000000, 97.001, -85.1492
4180.000000, 96.701, -83.0682
4250.000000, 96.456, -79.0795
4310.000000, 96.462, -75.7816
4370.000000, 96.483, -73.1696
4440.000000, 96.505, -69.8249
4500.000000, 96.592, -66.9226
4550.000000, 96.704, -64.4957
4620.000000, 96.952, -61.5405
4680.000000, 97.144, -59.5344
4750.000000, 97.340, -57.2284
4820.000000, 97.509, -54.4240
4870.000000, 97.702, -52.0831
4940.000000, 98.078, -48.7235
5000.000000, 98.566, -45.8711
5080.000000, 99.426, -43.5608
5150.000000, 100.209, -43.4972
5220.000000, 100.886, -44.8706
5300.000000, 101.462, -47.6113
5380.000000, 101.721, -50.8407
5450.000000, 101.710, -52.6430
5520.000000, 101.689, -52.5076
5600.000000, 101.990, -50.9119
5700.000000, 102.932, -50.4891
5800.000000, 104.066, -54.9572
5900.000000, 104.744, -64.0281
6000.000000, 104.630, -74.7684
6080.000000, 103.973, -82.2610
6150.000000, 103.108, -86.9287
6220.000000, 102.116, -89.4373
6300.000000, 101.017, -89.7872
6400.000000, 99.891, -87.7226
6500.000000, 99.111, -84.2860
6600.000000, 98.653, -80.7832
6700.000000, 98.409, -78.0412
6800.000000, 98.255, -76.4162
6900.000000, 98.047, -75.6029
7000.000000, 97.740, -74.3018
7100.000000, 97.523, -71.4812
7200.000000, 97.722, -68.1756
7300.000000, 98.364, -67.5265
7400.000000, 98.956, -71.8030
7500.000000, 98.934, -79.3384
7620.000000, 97.990, -87.9043
7750.000000, 96.354, -93.7397
7880.000000, 94.257, -96.8901
8000.000000, 91.742, -95.8493
8120.000000, 88.824, -86.8004
8250.000000, 86.302, -61.4517
8380.000000, 86.859, -27.2056
8500.000000, 89.375, -12.1555
8620.000000, 91.490, -11.2876
8750.000000, 92.702, -15.8498
8850.000000, 93.076, -19.6973
9000.000000, 93.119, -24.9184
9120.000000, 92.788, -29.0254
9250.000000, 91.913, -32.9817
9380.000000, 90.414, -33.6616
9500.000000, 88.812, -28.0041
9620.000000, 87.783, -16.6421
9750.000000, 87.778, -4.0859
9880.000000, 88.500, 3.8351
10000.000000, 89.258, 6.3208
10150.000000, 89.670, 4.4409
10300.000000, 89.058, 2.1990
10440.000000, 87.919, 6.1372
10600.000000, 87.347, 18.1816
10750.000000, 87.874, 26.7969
10900.000000, 88.493, 31.0612
11060.000000, 89.323, 34.4115
11200.000000, 90.176, 33.2317
11380.000000, 90.394, 26.1896
11500.000000, 89.752, 22.2830
11720.000000, 87.866, 24.7984
11800.000000, 87.368, 28.9435
12060.000000, 87.592, 44.2858
12200.000000, 88.584, 48.5169
12410.000000, 90.330, 47.2926
12500.000000, 91.023, 44.2094
12650.000000, 91.943, 36.1665
12800.000000, 92.462, 25.3036
13150.000000, 92.287, -7.5494
13200.000000, 92.098, -13.2293
13400.000000, 90.677, -38.2734
13600.000000, 87.989, -64.9308
13800.000000, 84.064, -91.3415
14000.000000, 78.847, -114.7517
14300.000000, 69.385, -98.1478
