* Measurement data measured by REW V5.31
* Source: Headset (DS by VECLAN.COM), MICROPHONE (Master Volume), L, volume: 0.720. Timing signal peak level -20.0 dBFS, measurement signal peak level -17.6 dBFS
* Format: 2M Log Swept Sine, 1 sweep at -12.0 dBFS using an acoustic timing reference
* Dated: Apr 20, 2024 12:25:41 PM
* REW Settings:
*  C-weighting compensation: Off
*  Target level: 75.0 dB
* Note: ; Delay -0.0880 ms (-30 mm, -1.19 in) using estimated IR delay relative to Acoustic reference played from HEADPHONE L with no timing offset
* Measurement: Sony MDR-Z1R L2
* Smoothing: 1/24 octave
* Frequency Step: 1/48 octave
* Start Frequency: 1.000 Hz
*
* Freq(Hz), SPL(dB), Phase(degrees)
1.000000, 86.303, -96.7339
1.015000, 86.367, -96.7137
1.030000, 86.430, -96.6806
1.044000, 86.486, -96.6377
1.060000, 86.549, -96.5740
1.075000, 86.607, -96.4998
1.090000, 86.664, -96.4120
1.106000, 86.724, -96.3088
1.120000, 86.777, -96.2197
1.138000, 86.844, -96.1129
1.150000, 86.889, -96.0463
1.172000, 86.968, -95.9383
1.180000, 86.997, -95.9076
1.206000, 87.085, -95.8109
1.220000, 87.130, -95.7596
1.241000, 87.192, -95.6810
1.250000, 87.217, -95.6458
1.265000, 87.255, -95.5842
1.280000, 87.289, -95.5177
1.315000, 87.352, -95.3351
1.320000, 87.359, -95.3051
1.340000, 87.379, -95.1729
1.360000, 87.389, -95.0174
1.380000, 87.387, -94.8738
1.400000, 87.373, -94.7148
1.430000, 87.326, -94.4114
1.450000, 87.276, -94.1611
1.475000, 87.189, -93.7959
1.500000, 87.069, -93.3905
1.525000, 86.917, -92.9549
1.550000, 86.736, -92.4902
1.575000, 86.531, -92.0176
1.600000, 86.308, -91.5537
1.625000, 86.070, -91.0589
1.650000, 85.822, -90.5323
1.675000, 85.570, -89.9731
1.700000, 85.317, -89.3802
1.725000, 85.069, -88.7527
1.750000, 84.830, -88.0895
1.775000, 84.606, -87.4064
1.800000, 84.400, -86.7190
1.825000, 84.215, -85.9914
1.850000, 84.048, -85.2199
1.875000, 83.889, -84.3997
1.900000, 83.736, -83.5324
1.925000, 83.588, -82.6227
1.950000, 83.445, -81.6751
1.975000, 83.309, -80.7118
2.000000, 83.180, -79.7543
2.030000, 83.034, -78.5764
2.060000, 82.900, -77.3785
2.090000, 82.779, -76.1712
2.120000, 82.671, -74.9654
2.140000, 82.606, -74.1675
2.180000, 82.498, -72.6178
2.200000, 82.455, -71.8729
2.240000, 82.391, -70.3644
2.270000, 82.363, -69.2055
2.300000, 82.351, -68.0356
2.330000, 82.352, -66.8700
2.360000, 82.366, -65.7241
2.400000, 82.400, -64.2983
2.430000, 82.437, -63.2920
2.470000, 82.496, -62.0461
2.500000, 82.547, -61.1954
2.540000, 82.620, -60.1844
2.580000, 82.702, -59.3187
2.620000, 82.798, -58.5630
2.650000, 82.882, -58.0294
2.690000, 83.006, -57.3696
2.720000, 83.107, -56.9195
2.760000, 83.248, -56.3855
2.800000, 83.395, -55.9764
2.850000, 83.578, -55.6017
2.900000, 83.756, -55.3807
2.950000, 83.927, -55.3063
3.000000, 84.096, -55.3683
3.040000, 84.233, -55.4858
3.070000, 84.337, -55.6031
3.110000, 84.474, -55.7958
3.150000, 84.611, -56.0284
3.200000, 84.778, -56.4039
3.250000, 84.939, -56.8539
3.300000, 85.094, -57.3653
3.350000, 85.243, -57.9368
3.400000, 85.388, -58.5924
3.450000, 85.527, -59.2977
3.500000, 85.663, -60.0256
3.550000, 85.794, -60.7655
3.600000, 85.921, -61.5376
3.650000, 86.043, -62.3251
3.700000, 86.159, -63.1266
3.750000, 86.271, -63.9515
3.820000, 86.419, -65.1672
3.870000, 86.520, -66.0445
3.950000, 86.676, -67.4207
4.000000, 86.770, -68.2740
4.060000, 86.880, -69.2841
4.120000, 86.986, -70.2859
4.180000, 87.088, -71.2879
4.250000, 87.202, -72.4672
4.310000, 87.299, -73.4440
4.370000, 87.394, -74.3849
4.440000, 87.505, -75.4682
4.500000, 87.598, -76.3681
4.550000, 87.674, -77.0995
4.620000, 87.781, -78.1225
4.680000, 87.873, -78.9764
4.750000, 87.982, -79.9339
4.820000, 88.095, -80.8705
4.870000, 88.177, -81.5193
4.940000, 88.292, -82.3987
5.000000, 88.393, -83.1476
5.080000, 88.530, -84.1389
5.150000, 88.652, -84.9886
5.220000, 88.777, -85.8377
5.300000, 88.923, -86.7906
5.380000, 89.071, -87.7319
5.450000, 89.201, -88.5744
5.520000, 89.331, -89.4190
5.600000, 89.482, -90.3940
5.700000, 89.670, -91.6236
5.800000, 89.855, -92.8583
5.900000, 90.033, -94.1234
6.000000, 90.206, -95.4132
6.080000, 90.339, -96.4603
6.150000, 90.450, -97.3631
6.220000, 90.556, -98.2698
6.300000, 90.669, -99.3060
6.400000, 90.800, -100.6075
6.500000, 90.919, -101.8895
6.600000, 91.024, -103.1113
6.700000, 91.114, -104.3014
6.800000, 91.190, -105.4523
6.900000, 91.254, -106.5319
7.000000, 91.307, -107.5073
7.100000, 91.348, -108.4058
7.200000, 91.379, -109.2161
7.300000, 91.404, -109.9171
7.400000, 91.425, -110.4904
7.500000, 91.440, -110.9585
7.620000, 91.459, -111.3746
7.750000, 91.487, -111.6371
7.880000, 91.525, -111.7158
8.000000, 91.573, -111.6619
8.120000, 91.640, -111.5211
8.250000, 91.735, -111.2740
8.380000, 91.852, -110.9955
8.500000, 91.980, -110.7613
8.620000, 92.128, -110.5461
8.750000, 92.304, -110.3858
8.850000, 92.447, -110.3403
9.000000, 92.675, -110.3846
9.120000, 92.861, -110.5369
9.250000, 93.061, -110.8335
9.380000, 93.258, -111.2479
9.500000, 93.433, -111.7289
9.620000, 93.598, -112.2953
9.750000, 93.764, -112.9945
9.880000, 93.909, -113.7614
10.000000, 94.019, -114.5128
10.150000, 94.127, -115.5336
10.300000, 94.207, -116.5561
10.440000, 94.256, -117.5037
10.600000, 94.290, -118.5443
10.750000, 94.305, -119.4507
10.900000, 94.307, -120.2821
11.060000, 94.300, -121.0811
11.200000, 94.289, -121.7190
11.380000, 94.275, -122.4013
11.500000, 94.268, -122.7683
11.720000, 94.273, -123.3074
11.800000, 94.283, -123.4723
12.060000, 94.353, -123.9946
12.200000, 94.415, -124.3564
12.410000, 94.534, -125.0117
12.500000, 94.590, -125.3582
12.650000, 94.687, -126.0296
12.800000, 94.780, -126.8194
13.150000, 94.956, -129.1382
13.200000, 94.974, -129.5106
13.400000, 95.021, -131.0379
13.600000, 95.028, -132.5220
13.800000, 94.995, -133.8664
14.000000, 94.935, -134.9689
14.300000, 94.828, -136.1246
14.500000, 94.775, -136.5008
14.750000, 94.760, -136.6652
15.000000, 94.821, -136.7126
15.250000, 94.951, -136.9782
15.500000, 95.109, -137.5700
15.750000, 95.251, -138.4915
16.000000, 95.339, -139.6061
16.250000, 95.361, -140.7016
16.500000, 95.325, -141.4851
16.750000, 95.267, -141.7535
17.000000, 95.243, -141.4930
17.250000, 95.300, -140.9258
17.500000, 95.458, -140.3843
17.750000, 95.695, -140.2599
18.000000, 95.961, -140.7764
18.250000, 96.194, -141.9753
18.500000, 96.344, -143.6520
18.750000, 96.386, -145.5098
19.000000, 96.317, -147.2309
19.250000, 96.164, -148.5312
19.500000, 95.975, -149.2147
19.750000, 95.805, -149.2734
20.000000, 95.705, -148.9131
20.299999, 95.703, -148.4532
20.600000, 95.791, -148.4401
20.900000, 95.887, -149.0862
21.200001, 95.918, -150.2276
21.400000, 95.886, -151.0522
21.799999, 95.719, -152.2820
22.000000, 95.620, -152.5278
22.400000, 95.498, -152.3624
22.700001, 95.527, -152.0554
23.000000, 95.646, -152.0654
23.299999, 95.800, -152.6417
23.600000, 95.931, -153.7210
24.000000, 96.011, -155.5229
24.299999, 96.003, -156.8216
24.700001, 95.943, -158.1443
25.000000, 95.895, -158.7930
25.400000, 95.851, -159.3162
25.799999, 95.835, -159.5131
26.200001, 95.858, -159.4370
26.500000, 95.920, -159.2894
26.900000, 96.070, -159.2423
27.200001, 96.215, -159.5397
27.600000, 96.388, -160.4920
28.000000, 96.469, -161.8426
28.500000, 96.423, -163.3809
29.000000, 96.316, -164.2067
29.500000, 96.270, -164.6859
30.000000, 96.257, -165.5049
30.400000, 96.193, -166.4064
30.700001, 96.101, -166.9759
31.100000, 95.958, -167.3383
31.500000, 95.865, -167.2945
32.000000, 95.869, -167.2618
32.500000, 95.925, -167.7988
33.000000, 95.931, -168.5726
33.500000, 95.927, -168.9951
34.000000, 96.022, -169.2243
34.500000, 96.205, -170.0326
35.000000, 96.329, -171.6205
35.500000, 96.295, -173.2859
36.000000, 96.153, -174.1737
36.500000, 96.036, -174.1399
37.000000, 96.014, -173.7620
37.500000, 96.048, -173.6329
38.200001, 96.071, -174.0194
38.700001, 96.037, -174.5492
39.500000, 95.856, -175.5278
40.000000, 95.662, -175.8526
40.599998, 95.427, -175.6701
41.200001, 95.285, -175.2525
41.799999, 95.229, -175.3414
42.500000, 95.143, -176.4122
43.099998, 94.959, -177.6790
43.700001, 94.667, -178.4854
44.400002, 94.314, -178.0953
45.000000, 94.151, -176.9337
45.500000, 94.123, -175.9792
46.200001, 94.147, -174.9194
46.799999, 94.214, -174.0042
47.500000, 94.394, -173.2905
48.200001, 94.573, -173.6175
48.700001, 94.606, -174.2107
49.400002, 94.530, -174.6534
50.000000, 94.457, -174.3544
50.799999, 94.478, -173.6704
51.500000, 94.572, -173.6540
52.200001, 94.616, -174.1844
53.000000, 94.583, -174.4234
53.799999, 94.628, -174.0642
54.500000, 94.732, -174.0378
55.200001, 94.783, -174.0600
56.000000, 94.856, -173.4087
57.000000, 95.087, -172.8504
58.000000, 95.200, -172.9783
59.000000, 95.255, -172.4786
60.000000, 95.357, -172.0142
60.799999, 95.467, -171.9047
61.500000, 95.584, -172.3087
62.200001, 95.661, -173.1960
63.000000, 95.692, -174.3406
64.000000, 95.731, -175.9717
65.000000, 95.694, -178.0963
66.000000, 95.548, -179.8792
67.000000, 95.387, 178.8789
68.000000, 95.219, 177.9993
69.000000, 95.047, 177.4509
70.000000, 94.861, 177.2835
71.000000, 94.688, 177.6671
72.000000, 94.574, 178.4711
73.000000, 94.547, 179.4402
74.000000, 94.601, -179.9395
75.000000, 94.664, -179.7803
76.199997, 94.727, -179.8887
77.500000, 94.769, 179.9521
78.800003, 94.800, -179.9485
80.000000, 94.833, -179.4018
81.199997, 94.886, -178.4693
82.500000, 95.075, -177.3177
83.800003, 95.209, -178.3487
85.000000, 95.073, -179.2699
86.199997, 94.964, -179.8995
87.500000, 94.880, 179.1755
88.500000, 94.879, 178.3213
90.000000, 94.905, 176.5405
91.199997, 94.845, 175.1746
92.500000, 94.720, 174.6511
93.800003, 94.611, 174.9108
95.000000, 94.561, 175.4573
96.199997, 94.525, 175.7374
97.500000, 94.448, 176.0252
98.800003, 94.369, 176.5533
100.000000, 94.342, 177.1677
101.500000, 94.378, 177.4026
103.000000, 94.421, 177.2167
104.400002, 94.479, 176.8736
106.000000, 94.508, 176.8412
107.500000, 94.540, 177.6816
109.000000, 94.598, 178.9806
110.599998, 94.777, 179.8898
112.000000, 94.830, 178.2904
113.800003, 94.512, 176.6738
115.000000, 94.423, 176.8346
117.199997, 94.536, 175.8813
118.000000, 94.532, 175.4832
120.599998, 94.508, 176.0036
122.000000, 94.522, 176.1351
124.099998, 94.510, 175.8391
125.000000, 94.499, 175.5579
126.500000, 94.481, 175.1201
128.000000, 94.502, 174.5655
131.500000, 94.401, 173.0201
132.000000, 94.397, 172.9996
134.000000, 94.448, 172.4353
136.000000, 94.475, 170.9450
138.000000, 94.431, 169.4070
140.000000, 94.393, 168.3836
143.000000, 94.275, 167.3527
145.000000, 94.111, 166.8073
147.500000, 93.924, 165.8447
150.000000, 93.853, 164.7264
152.500000, 93.776, 163.7338
155.000000, 93.601, 163.7007
157.500000, 93.420, 163.9416
160.000000, 93.278, 163.6573
162.500000, 93.035, 163.4699
165.000000, 92.778, 163.8392
167.500000, 92.652, 164.5494
170.000000, 92.594, 165.1128
172.500000, 92.494, 165.5235
175.000000, 92.297, 165.9177
177.500000, 92.083, 166.0609
180.000000, 91.861, 166.1040
182.500000, 91.701, 166.6994
185.000000, 91.610, 167.6702
187.500000, 91.555, 168.9644
190.000000, 91.481, 169.9420
192.500000, 91.348, 170.9506
195.000000, 91.263, 171.8861
197.500000, 91.232, 172.2571
200.000000, 91.206, 172.5299
203.000000, 91.194, 173.1609
206.000000, 91.165, 173.4230
209.000000, 91.087, 173.3560
212.000000, 91.022, 173.7678
214.000000, 90.986, 174.2405
218.000000, 90.857, 174.9612
220.000000, 90.795, 175.3141
224.000000, 90.762, 176.1436
227.000000, 90.700, 176.9123
230.000000, 90.616, 177.6762
233.000000, 90.545, 178.2554
236.000000, 90.482, 178.8995
240.000000, 90.435, 179.7330
243.000000, 90.473, -179.6780
247.000000, 90.474, -179.2590
250.000000, 90.365, -178.8080
254.000000, 90.263, -177.6830
258.000000, 90.196, -176.5644
262.000000, 90.155, -175.6886
265.000000, 90.145, -175.0232
269.000000, 90.118, -173.8184
272.000000, 90.067, -172.9406
276.000000, 89.986, -172.0573
280.000000, 89.918, -171.1628
285.000000, 89.879, -169.5451
290.000000, 89.919, -168.0305
295.000000, 90.005, -166.6812
300.000000, 90.063, -165.2123
304.000000, 90.107, -164.4285
307.000000, 90.116, -164.0235
311.000000, 90.112, -163.5438
315.000000, 90.221, -162.5256
320.000000, 90.410, -161.2207
325.000000, 90.498, -160.5433
330.000000, 90.547, -160.1422
335.000000, 90.608, -159.5703
340.000000, 90.656, -159.0834
345.000000, 90.698, -158.3326
350.000000, 90.718, -157.6963
355.000000, 90.715, -157.0439
360.000000, 90.742, -156.3634
365.000000, 90.790, -155.8402
370.000000, 90.857, -155.2273
375.000000, 90.939, -154.5776
382.000000, 91.028, -153.7259
387.000000, 91.065, -153.4225
395.000000, 91.129, -152.9156
400.000000, 91.161, -152.3529
406.000000, 91.212, -151.6362
412.000000, 91.245, -150.9515
418.000000, 91.265, -150.4097
425.000000, 91.312, -149.8390
431.000000, 91.371, -149.3071
437.000000, 91.434, -148.7793
444.000000, 91.487, -148.1575
450.000000, 91.536, -147.6420
455.000000, 91.569, -147.2135
462.000000, 91.592, -146.6785
468.000000, 91.606, -146.3133
475.000000, 91.642, -145.8735
482.000000, 91.689, -145.4448
487.000000, 91.719, -145.1366
494.000000, 91.738, -144.5928
500.000000, 91.748, -144.1158
508.000000, 91.767, -143.5520
515.000000, 91.787, -142.9766
522.000000, 91.806, -142.3108
530.000000, 91.817, -141.4603
538.000000, 91.836, -140.4235
545.000000, 91.866, -139.4679
552.000000, 91.925, -138.5692
560.000000, 92.015, -137.4583
570.000000, 92.127, -136.0669
580.000000, 92.263, -134.9423
590.000000, 92.432, -133.8451
600.000000, 92.597, -132.9437
608.000000, 92.720, -132.5440
615.000000, 92.822, -132.3532
622.000000, 92.902, -132.1713
630.000000, 92.989, -131.9115
640.000000, 93.098, -131.4973
650.000000, 93.193, -130.9282
660.000000, 93.285, -130.4288
670.000000, 93.393, -130.1374
680.000000, 93.508, -129.8773
690.000000, 93.606, -129.6160
700.000000, 93.695, -129.4507
710.000000, 93.786, -129.2572
720.000000, 93.878, -129.1075
730.000000, 93.965, -128.9969
740.000000, 94.039, -128.9659
750.000000, 94.101, -128.8724
762.000000, 94.173, -128.7131
775.000000, 94.236, -128.5621
788.000000, 94.309, -128.4772
800.000000, 94.368, -128.5202
812.000000, 94.402, -128.5681
825.000000, 94.414, -128.6118
838.000000, 94.415, -128.6399
850.000000, 94.399, -128.6572
862.000000, 94.362, -128.6718
875.000000, 94.310, -128.5356
885.000000, 94.267, -128.2769
900.000000, 94.218, -127.7668
912.000000, 94.204, -127.3205
925.000000, 94.185, -127.0468
938.000000, 94.146, -126.8052
950.000000, 94.090, -126.4832
962.000000, 94.027, -126.1209
975.000000, 93.955, -125.6236
988.000000, 93.879, -124.9918
1000.000000, 93.809, -124.3294
1015.000000, 93.734, -123.4751
1030.000000, 93.665, -122.7053
1044.000000, 93.590, -121.9784
1060.000000, 93.496, -121.0388
1075.000000, 93.404, -120.0080
1090.000000, 93.324, -118.8627
1106.000000, 93.265, -117.5742
1120.000000, 93.228, -116.3898
1138.000000, 93.188, -114.8562
1150.000000, 93.162, -113.8714
1172.000000, 93.119, -111.9548
1180.000000, 93.105, -111.2356
1206.000000, 93.076, -108.8246
1220.000000, 93.072, -107.4290
1241.000000, 93.088, -105.3035
1250.000000, 93.100, -104.4045
1265.000000, 93.124, -102.9329
1280.000000, 93.153, -101.4611
1315.000000, 93.237, -97.9607
1320.000000, 93.251, -97.4571
1340.000000, 93.304, -95.4459
1360.000000, 93.336, -93.3622
1380.000000, 93.377, -91.1695
1400.000000, 93.458, -88.8997
1430.000000, 93.634, -85.5351
1450.000000, 93.777, -83.3491
1475.000000, 93.976, -80.6770
1500.000000, 94.193, -78.1138
1525.000000, 94.418, -75.7018
1550.000000, 94.647, -73.2698
1575.000000, 94.894, -70.8545
1600.000000, 95.164, -68.4620
1625.000000, 95.457, -66.1506
1650.000000, 95.772, -63.9504
1675.000000, 96.108, -61.9053
1700.000000, 96.458, -60.0309
1725.000000, 96.821, -58.3230
1750.000000, 97.197, -56.7351
1775.000000, 97.584, -55.3288
1800.000000, 97.977, -54.1130
1825.000000, 98.370, -53.1118
1850.000000, 98.760, -52.2781
1875.000000, 99.150, -51.5902
1900.000000, 99.543, -51.0647
1925.000000, 99.937, -50.7323
1950.000000, 100.328, -50.5999
1975.000000, 100.707, -50.7003
2000.000000, 101.068, -50.9840
2030.000000, 101.473, -51.5326
2060.000000, 101.854, -52.2015
2090.000000, 102.230, -53.0157
2120.000000, 102.582, -54.2343
2140.000000, 102.782, -55.2258
2180.000000, 103.096, -57.1769
2200.000000, 103.229, -58.1294
2240.000000, 103.456, -60.1367
2270.000000, 103.577, -61.6931
2300.000000, 103.659, -63.2346
2330.000000, 103.710, -64.7830
2360.000000, 103.729, -66.3532
2400.000000, 103.691, -68.4501
2430.000000, 103.616, -69.9140
2470.000000, 103.456, -71.6729
2500.000000, 103.292, -72.8983
2540.000000, 103.010, -74.3496
2580.000000, 102.651, -75.5034
2620.000000, 102.204, -76.2128
2650.000000, 101.803, -76.3207
2690.000000, 101.191, -75.6456
2720.000000, 100.690, -74.4230
2760.000000, 99.994, -71.4251
2800.000000, 99.343, -66.3921
2850.000000, 98.849, -56.9431
2900.000000, 99.056, -45.3348
2950.000000, 100.147, -34.4524
3000.000000, 101.973, -27.8636
3040.000000, 103.605, -27.2357
3070.000000, 104.730, -29.3570
3110.000000, 105.941, -34.8879
3150.000000, 106.723, -42.3118
3200.000000, 107.093, -52.3153
3250.000000, 106.919, -61.5340
3300.000000, 106.368, -69.1690
3350.000000, 105.575, -74.9620
3400.000000, 104.683, -78.7449
3450.000000, 103.858, -81.3328
3500.000000, 103.053, -84.0109
3550.000000, 102.034, -86.6655
3600.000000, 100.684, -87.5283
3650.000000, 99.217, -84.8180
3700.000000, 98.022, -78.8046
3750.000000, 97.321, -71.8028
3820.000000, 96.897, -63.9376
3870.000000, 96.698, -59.9354
3950.000000, 96.288, -54.6330
4000.000000, 95.994, -51.2454
4060.000000, 95.656, -47.1216
4120.000000, 95.332, -42.9250
4180.000000, 95.015, -38.6225
4250.000000, 94.662, -33.4105
4310.000000, 94.383, -28.6757
4370.000000, 94.134, -23.7243
4440.000000, 93.895, -17.6696
4500.000000, 93.752, -12.3420
4550.000000, 93.688, -7.8014
4620.000000, 93.691, -1.5237
4680.000000, 93.771, 3.7281
4750.000000, 93.954, 9.5487
4820.000000, 94.227, 14.8553
4870.000000, 94.463, 18.2509
4940.000000, 94.830, 22.4143
5000.000000, 95.158, 25.3349
5080.000000, 95.575, 28.3270
5150.000000, 95.895, 30.1462
5220.000000, 96.140, 31.3598
5300.000000, 96.294, 32.1788
5380.000000, 96.304, 32.7884
5450.000000, 96.198, 33.2786
5520.000000, 95.981, 33.8368
5600.000000, 95.584, 34.8211
5700.000000, 94.862, 37.2456
5800.000000, 93.984, 42.0200
5900.000000, 93.163, 49.8027
6000.000000, 92.669, 59.9725
6080.000000, 92.615, 68.7341
6150.000000, 92.798, 75.9954
6220.000000, 93.138, 82.4818
6300.000000, 93.652, 88.9592
6400.000000, 94.440, 95.4714
6500.000000, 95.314, 99.7747
6600.000000, 96.098, 101.5713
6700.000000, 96.622, 101.5155
6800.000000, 96.834, 100.6871
6900.000000, 96.751, 99.8248
7000.000000, 96.374, 99.6474
7100.000000, 95.734, 101.1980
7200.000000, 94.996, 105.4396
7300.000000, 94.418, 112.1940
7400.000000, 94.123, 119.9653
7500.000000, 94.055, 127.7693
7620.000000, 94.209, 136.9508
7750.000000, 94.650, 146.1853
7880.000000, 95.111, 153.7844
8000.000000, 95.363, 160.2930
8120.000000, 95.568, 168.8143
8250.000000, 96.398, -179.0894
8380.000000, 98.162, -169.2702
8500.000000, 100.143, -165.7128
8620.000000, 102.055, -167.2622
8750.000000, 103.751, -174.2961
8850.000000, 104.529, 177.0503
9000.000000, 104.374, 162.1852
9120.000000, 103.127, 153.2961
9250.000000, 101.257, 150.2072
9380.000000, 99.687, 152.7740
9500.000000, 98.824, 155.7393
9620.000000, 98.138, 156.6486
9750.000000, 97.009, 156.7354
9880.000000, 95.288, 160.2697
10000.000000, 93.696, 171.0076
10150.000000, 93.152, -170.6484
10300.000000, 93.928, -158.7790
10440.000000, 94.842, -153.3933
10600.000000, 95.904, -151.5967
10750.000000, 96.751, -154.8537
10900.000000, 97.077, -163.0854
11060.000000, 96.302, -175.4680
11200.000000, 94.293, 174.6889
11380.000000, 89.792, 175.5862
11500.000000, 86.697, -163.4338
11720.000000, 87.289, -115.5575
11800.000000, 88.705, -111.5014
12060.000000, 91.725, -124.2649
12200.000000, 91.707, -138.8215
12410.000000, 89.185, -159.0007
12500.000000, 87.678, -166.1817
12650.000000, 85.218, 177.5674
12800.000000, 82.910, 147.5835
13150.000000, 83.175, 18.3837
13200.000000, 83.785, 9.0070
13400.000000, 85.376, -21.2060
13600.000000, 85.059, -43.8840
