* Measurement data measured by REW V5.31
* Source: Headset (DS by VECLAN.COM), MICROPHONE (Master Volume), L, volume: 0.720. Timing signal peak level -18.7 dBFS, measurement signal peak level -18.5 dBFS
* Format: 2M Log Swept Sine, 1 sweep at -12.0 dBFS using an acoustic timing reference
* Dated: Apr 18, 2024 6:24:34 PM
* REW Settings:
*  C-weighting compensation: Off
*  Target level: 75.0 dB
* Note: ; Delay -0.1244 ms (-43 mm, -1.68 in) using estimated IR delay relative to Acoustic reference played from HEADPHONE R with no timing offset
* Measurement: Sony MDR-Z1R R4
* Smoothing: 1/24 octave
* Frequency Step: 1/48 octave
* Start Frequency: 1.000 Hz
*
* Freq(Hz), SPL(dB), Phase(degrees)
1.000000, 83.244, 29.4394
1.015000, 83.225, 28.0939
1.030000, 83.209, 26.7408
1.044000, 83.199, 25.4690
1.060000, 83.192, 24.0015
1.075000, 83.193, 22.6072
1.090000, 83.200, 21.1863
1.106000, 83.214, 19.6112
1.120000, 83.229, 18.1387
1.138000, 83.251, 16.0875
1.150000, 83.267, 14.6212
1.172000, 83.298, 11.7303
1.180000, 83.309, 10.6128
1.206000, 83.350, 6.7827
1.220000, 83.373, 4.6081
1.241000, 83.410, 1.2260
1.250000, 83.426, -0.2597
1.265000, 83.454, -2.7724
1.280000, 83.483, -5.3176
1.315000, 83.554, -11.2979
1.320000, 83.565, -12.1490
1.340000, 83.608, -15.5255
1.360000, 83.652, -18.8357
1.380000, 83.698, -22.0965
1.400000, 83.745, -25.2681
1.430000, 83.817, -29.8112
1.450000, 83.866, -32.6977
1.475000, 83.930, -36.1966
1.500000, 83.997, -39.6872
1.525000, 84.067, -43.1912
1.550000, 84.141, -46.6678
1.575000, 84.218, -50.0942
1.600000, 84.297, -53.4487
1.625000, 84.378, -56.6607
1.650000, 84.460, -59.7071
1.675000, 84.543, -62.5727
1.700000, 84.626, -65.2500
1.725000, 84.710, -67.7375
1.750000, 84.792, -70.0388
1.775000, 84.873, -72.1782
1.800000, 84.953, -74.1834
1.825000, 85.031, -76.0428
1.850000, 85.109, -77.8140
1.875000, 85.189, -79.5573
1.900000, 85.272, -81.2809
1.925000, 85.356, -82.9722
1.950000, 85.442, -84.6163
1.975000, 85.527, -86.2171
2.000000, 85.610, -87.7799
2.030000, 85.708, -89.5475
2.060000, 85.800, -91.1876
2.090000, 85.886, -92.6906
2.120000, 85.963, -94.0498
2.140000, 86.009, -94.8740
2.180000, 86.086, -96.3491
2.200000, 86.116, -97.0239
2.240000, 86.161, -98.3054
2.270000, 86.184, -99.2487
2.300000, 86.197, -100.1728
2.330000, 86.203, -101.0653
2.360000, 86.201, -101.9132
2.400000, 86.189, -102.9985
2.430000, 86.174, -103.7317
2.470000, 86.146, -104.5675
2.500000, 86.122, -105.0713
2.540000, 86.085, -105.5597
2.580000, 86.041, -105.8680
2.620000, 85.983, -106.0865
2.650000, 85.930, -106.1901
2.690000, 85.850, -106.2492
2.720000, 85.784, -106.2293
2.760000, 85.695, -106.1065
2.800000, 85.608, -105.9033
2.850000, 85.508, -105.4649
2.900000, 85.428, -104.7896
2.950000, 85.369, -103.8551
3.000000, 85.319, -102.6951
3.040000, 85.284, -101.6185
3.070000, 85.261, -100.7341
3.110000, 85.239, -99.4736
3.150000, 85.230, -98.1451
3.200000, 85.242, -96.4622
3.250000, 85.286, -94.7832
3.300000, 85.369, -93.1188
3.350000, 85.494, -91.4169
3.400000, 85.656, -89.6919
3.450000, 85.850, -87.9837
3.500000, 86.067, -86.3468
3.550000, 86.300, -84.8393
3.600000, 86.541, -83.5342
3.650000, 86.786, -82.4388
3.700000, 87.038, -81.5059
3.750000, 87.305, -80.6735
3.820000, 87.701, -79.6980
3.870000, 87.990, -79.1350
3.950000, 88.447, -78.4803
4.000000, 88.720, -78.2554
4.060000, 89.031, -78.1518
4.120000, 89.331, -78.1768
4.180000, 89.623, -78.3043
4.250000, 89.951, -78.5820
4.310000, 90.219, -78.8864
4.370000, 90.473, -79.2499
4.440000, 90.751, -79.7797
4.500000, 90.974, -80.2954
4.550000, 91.149, -80.7562
4.620000, 91.382, -81.4570
4.680000, 91.571, -82.0746
4.750000, 91.781, -82.7945
4.820000, 91.980, -83.5425
4.870000, 92.114, -84.0911
4.940000, 92.291, -84.8685
5.000000, 92.435, -85.5531
5.080000, 92.619, -86.4737
5.150000, 92.775, -87.2689
5.220000, 92.924, -88.0797
5.300000, 93.087, -89.0141
5.380000, 93.242, -89.9582
5.450000, 93.374, -90.8144
5.520000, 93.503, -91.6806
5.600000, 93.647, -92.6927
5.700000, 93.821, -93.9957
5.800000, 93.985, -95.3411
5.900000, 94.138, -96.7611
6.000000, 94.283, -98.2511
6.080000, 94.391, -99.4896
6.150000, 94.477, -100.5829
6.220000, 94.554, -101.7048
6.300000, 94.632, -103.0242
6.400000, 94.714, -104.7339
6.500000, 94.777, -106.4636
6.600000, 94.816, -108.1603
6.700000, 94.832, -109.8719
6.800000, 94.824, -111.5873
6.900000, 94.794, -113.2324
7.000000, 94.740, -114.7519
7.100000, 94.661, -116.1940
7.200000, 94.561, -117.5299
7.300000, 94.446, -118.6873
7.400000, 94.315, -119.6214
7.500000, 94.169, -120.3624
7.620000, 93.991, -120.9664
7.750000, 93.813, -121.1950
7.880000, 93.652, -120.9689
8.000000, 93.541, -120.4433
8.120000, 93.490, -119.6797
8.250000, 93.500, -118.5994
8.380000, 93.581, -117.4709
8.500000, 93.724, -116.5440
8.620000, 93.929, -115.7375
8.750000, 94.194, -115.1322
8.850000, 94.418, -114.9227
9.000000, 94.782, -114.9734
9.120000, 95.076, -115.3154
9.250000, 95.381, -115.9882
9.380000, 95.671, -116.9155
9.500000, 95.917, -117.9284
9.620000, 96.140, -119.0590
9.750000, 96.353, -120.3929
9.880000, 96.533, -121.7698
10.000000, 96.668, -123.0437
10.150000, 96.799, -124.6717
10.300000, 96.902, -126.2381
10.440000, 96.976, -127.6374
10.600000, 97.045, -129.1749
10.750000, 97.102, -130.5568
10.900000, 97.153, -131.9014
11.060000, 97.202, -133.3522
11.200000, 97.239, -134.6625
11.380000, 97.269, -136.3589
11.500000, 97.275, -137.5058
11.720000, 97.248, -139.5922
11.800000, 97.225, -140.3344
12.060000, 97.098, -142.6300
12.200000, 96.994, -143.7385
12.410000, 96.798, -145.0850
12.500000, 96.701, -145.5012
12.650000, 96.527, -145.9548
12.800000, 96.352, -146.0836
13.150000, 96.020, -145.1170
13.200000, 95.991, -144.8638
13.400000, 95.935, -143.6322
13.600000, 95.988, -142.2991
13.800000, 96.149, -141.1307
14.000000, 96.387, -140.3846
14.300000, 96.820, -140.3518
14.500000, 97.103, -141.0097
14.750000, 97.405, -142.4167
15.000000, 97.626, -144.2502
15.250000, 97.759, -146.2854
15.500000, 97.809, -148.2245
15.750000, 97.790, -149.8827
16.000000, 97.732, -151.1355
16.250000, 97.665, -152.0061
16.500000, 97.616, -152.5053
16.750000, 97.602, -152.7585
17.000000, 97.628, -152.9256
17.250000, 97.684, -153.1576
17.500000, 97.752, -153.4998
17.750000, 97.813, -153.9470
18.000000, 97.854, -154.4460
18.250000, 97.871, -154.9341
18.500000, 97.867, -155.3018
18.750000, 97.851, -155.4868
19.000000, 97.838, -155.4676
19.250000, 97.843, -155.2990
19.500000, 97.876, -155.0286
19.750000, 97.939, -154.7486
20.000000, 98.030, -154.5548
20.299999, 98.163, -154.5665
20.600000, 98.304, -154.8693
20.900000, 98.435, -155.4657
21.200001, 98.540, -156.3331
21.400000, 98.592, -157.0248
21.799999, 98.643, -158.5636
22.000000, 98.643, -159.3643
22.400000, 98.596, -160.9443
22.700001, 98.530, -162.0067
23.000000, 98.450, -162.9246
23.299999, 98.370, -163.7200
23.600000, 98.299, -164.4091
24.000000, 98.225, -165.2393
24.299999, 98.180, -165.8402
24.700001, 98.129, -166.5467
25.000000, 98.105, -166.9570
25.400000, 98.119, -167.3988
25.799999, 98.209, -167.9594
26.200001, 98.351, -169.0678
26.500000, 98.436, -170.3959
26.900000, 98.433, -172.6184
27.200001, 98.298, -174.2348
27.600000, 97.942, -175.4736
28.000000, 97.509, -174.7863
28.500000, 97.236, -171.2365
29.000000, 97.529, -167.4832
29.500000, 98.084, -166.4411
30.000000, 98.460, -167.7203
30.400000, 98.543, -169.1092
30.700001, 98.525, -169.8380
31.100000, 98.490, -170.3085
31.500000, 98.510, -170.6163
32.000000, 98.569, -171.5227
32.500000, 98.526, -173.0517
33.000000, 98.331, -174.3787
33.500000, 98.093, -174.8907
34.000000, 97.946, -174.8765
34.500000, 97.898, -175.0953
35.000000, 97.859, -175.7880
35.500000, 97.784, -176.6444
36.000000, 97.704, -177.4073
36.500000, 97.651, -178.1989
37.000000, 97.601, -179.2041
37.500000, 97.510, 179.6414
38.200001, 97.291, 178.3018
38.700001, 97.101, 177.8151
39.500000, 96.828, 177.9034
40.000000, 96.715, 178.2809
40.599998, 96.639, 178.6301
41.200001, 96.565, 178.6888
41.799999, 96.440, 178.7978
42.500000, 96.305, 179.5053
43.099998, 96.294, -179.7785
43.700001, 96.345, -179.6517
44.400002, 96.337, 179.8536
45.000000, 96.262, 179.5832
45.500000, 96.210, 179.6024
46.200001, 96.185, 179.5424
46.799999, 96.139, 179.2782
47.500000, 96.019, 179.3680
48.200001, 95.946, -179.8127
48.700001, 95.958, -179.1763
49.400002, 95.992, -178.5607
50.000000, 95.990, -177.9649
50.799999, 96.026, -176.6651
51.500000, 96.151, -175.6146
52.200001, 96.292, -175.1544
53.000000, 96.377, -174.9891
53.799999, 96.404, -174.5538
54.500000, 96.454, -173.8225
55.200001, 96.574, -173.0883
56.000000, 96.779, -172.6284
57.000000, 97.091, -172.8691
58.000000, 97.364, -174.2803
59.000000, 97.453, -175.8584
60.000000, 97.546, -176.5326
60.799999, 97.709, -177.4016
61.500000, 97.803, -178.7632
62.200001, 97.803, 179.8270
63.000000, 97.740, 178.5927
64.000000, 97.640, 177.5424
65.000000, 97.562, 177.0729
66.000000, 97.614, 176.5886
67.000000, 97.666, 174.8944
68.000000, 97.514, 173.0739
69.000000, 97.321, 172.3077
70.000000, 97.197, 171.8025
71.000000, 97.086, 171.3945
72.000000, 97.004, 171.2367
73.000000, 96.978, 171.3892
74.000000, 97.022, 171.1449
75.000000, 96.941, 170.5624
76.199997, 96.782, 171.0447
77.500000, 96.616, 171.3046
78.800003, 96.402, 172.2821
80.000000, 96.354, 172.7678
81.199997, 96.469, 172.4634
82.500000, 96.616, 169.7681
83.800003, 96.453, 167.7176
85.000000, 96.373, 167.8872
86.199997, 96.418, 168.8515
87.500000, 96.582, 169.3236
88.500000, 96.598, 168.4273
90.000000, 96.323, 166.5102
91.199997, 95.975, 165.5358
92.500000, 95.777, 165.0557
93.800003, 95.712, 164.2019
95.000000, 95.696, 163.9674
96.199997, 95.699, 164.4995
97.500000, 95.713, 165.5096
98.800003, 95.646, 166.5430
100.000000, 95.532, 167.4486
101.500000, 95.315, 168.3433
103.000000, 95.143, 169.6904
104.400002, 95.200, 171.0252
106.000000, 95.365, 171.1690
107.500000, 95.449, 171.0995
109.000000, 95.557, 170.9841
110.599998, 95.652, 169.9232
112.000000, 95.679, 168.5693
113.800003, 95.638, 166.9853
115.000000, 95.627, 166.2838
117.199997, 95.606, 164.5658
118.000000, 95.524, 163.9487
120.599998, 95.297, 164.9152
122.000000, 95.370, 165.3643
124.099998, 95.376, 165.0964
125.000000, 95.332, 164.9297
126.500000, 95.210, 164.7148
128.000000, 95.094, 164.3920
131.500000, 94.815, 162.9706
132.000000, 94.782, 162.9178
134.000000, 94.711, 163.1049
136.000000, 94.688, 163.0224
138.000000, 94.580, 162.5836
140.000000, 94.431, 162.2387
143.000000, 94.246, 162.1828
145.000000, 94.176, 161.9889
147.500000, 93.981, 161.6315
150.000000, 93.798, 161.9247
152.500000, 93.651, 162.3257
155.000000, 93.495, 162.5584
157.500000, 93.314, 162.7838
160.000000, 93.165, 162.9384
162.500000, 93.043, 163.3011
165.000000, 92.955, 163.7980
167.500000, 92.835, 164.2292
170.000000, 92.694, 164.9514
172.500000, 92.517, 165.6839
175.000000, 92.303, 166.3662
177.500000, 92.130, 166.8562
180.000000, 92.087, 167.0008
182.500000, 92.088, 167.0150
185.000000, 92.067, 167.9596
187.500000, 92.028, 169.3743
190.000000, 91.974, 170.4099
192.500000, 91.890, 170.8434
195.000000, 91.791, 171.3955
197.500000, 91.706, 172.0838
200.000000, 91.616, 172.5295
203.000000, 91.534, 173.1088
206.000000, 91.527, 174.1551
209.000000, 91.521, 175.3604
212.000000, 91.405, 176.3387
214.000000, 91.310, 176.8244
218.000000, 91.221, 177.0010
220.000000, 91.246, 177.2563
224.000000, 91.268, 178.5890
227.000000, 91.224, -179.9406
230.000000, 91.176, -178.7998
233.000000, 91.135, -178.0795
236.000000, 91.094, -177.6082
240.000000, 91.061, -176.6774
243.000000, 91.084, -175.7569
247.000000, 91.104, -174.8119
250.000000, 91.093, -174.1202
254.000000, 91.097, -173.0171
258.000000, 91.134, -171.6960
262.000000, 91.122, -170.6814
265.000000, 91.112, -170.1057
269.000000, 91.163, -169.4692
272.000000, 91.198, -168.7802
276.000000, 91.232, -167.9571
280.000000, 91.242, -167.2322
285.000000, 91.216, -166.3996
290.000000, 91.236, -165.1771
295.000000, 91.299, -163.8341
300.000000, 91.405, -163.1702
304.000000, 91.433, -162.3724
307.000000, 91.427, -161.8297
311.000000, 91.422, -161.2162
315.000000, 91.413, -160.2692
320.000000, 91.458, -158.6567
325.000000, 91.616, -157.1996
330.000000, 91.828, -155.9642
335.000000, 92.046, -155.3292
340.000000, 92.212, -155.3202
345.000000, 92.270, -155.3887
350.000000, 92.354, -155.1585
355.000000, 92.442, -154.6368
360.000000, 92.452, -154.1646
365.000000, 92.453, -153.6727
370.000000, 92.537, -153.0146
375.000000, 92.667, -152.3939
382.000000, 92.826, -151.9798
387.000000, 92.926, -151.8080
395.000000, 93.039, -151.4701
400.000000, 93.082, -151.2681
406.000000, 93.143, -151.0734
412.000000, 93.202, -150.8844
418.000000, 93.244, -150.5573
425.000000, 93.301, -150.3036
431.000000, 93.357, -150.0334
437.000000, 93.405, -149.7730
444.000000, 93.459, -149.5738
450.000000, 93.514, -149.3794
455.000000, 93.553, -149.1445
462.000000, 93.600, -148.8212
468.000000, 93.629, -148.6067
475.000000, 93.653, -148.3914
482.000000, 93.675, -148.1765
487.000000, 93.701, -148.0713
494.000000, 93.740, -147.9673
500.000000, 93.769, -147.8615
508.000000, 93.786, -147.5192
515.000000, 93.765, -147.2379
522.000000, 93.733, -146.9294
530.000000, 93.690, -146.2940
538.000000, 93.656, -145.3762
545.000000, 93.658, -144.3872
552.000000, 93.698, -143.3544
560.000000, 93.777, -142.2986
570.000000, 93.923, -141.2343
580.000000, 94.100, -140.4271
590.000000, 94.230, -139.7600
600.000000, 94.322, -139.2038
608.000000, 94.422, -138.9010
615.000000, 94.517, -138.6534
622.000000, 94.613, -138.4411
630.000000, 94.728, -138.3748
640.000000, 94.846, -138.4450
650.000000, 94.919, -138.3794
660.000000, 94.978, -138.0778
670.000000, 95.039, -137.9434
680.000000, 95.089, -137.8584
690.000000, 95.137, -137.7372
700.000000, 95.187, -137.7354
710.000000, 95.221, -137.7756
720.000000, 95.255, -137.7151
730.000000, 95.292, -137.5244
740.000000, 95.336, -137.3033
750.000000, 95.358, -137.2469
762.000000, 95.337, -137.3836
775.000000, 95.211, -137.4074
788.000000, 95.196, -136.7394
800.000000, 95.256, -136.3986
812.000000, 95.281, -136.3432
825.000000, 95.356, -135.9083
838.000000, 95.373, -135.6262
850.000000, 95.358, -135.2158
862.000000, 95.327, -134.6323
875.000000, 95.288, -134.2415
885.000000, 95.269, -133.9302
900.000000, 95.260, -133.4570
912.000000, 95.266, -132.9831
925.000000, 95.269, -132.5970
938.000000, 95.239, -132.2840
950.000000, 95.188, -131.8768
962.000000, 95.133, -131.3550
975.000000, 95.079, -130.6554
988.000000, 95.040, -129.8781
1000.000000, 95.019, -129.1674
1015.000000, 94.993, -128.3579
1030.000000, 94.957, -127.5370
1044.000000, 94.916, -126.7170
1060.000000, 94.879, -125.7304
1075.000000, 94.854, -124.7371
1090.000000, 94.834, -123.6914
1106.000000, 94.831, -122.5779
1120.000000, 94.840, -121.5915
1138.000000, 94.865, -120.2881
1150.000000, 94.881, -119.4107
1172.000000, 94.915, -117.7294
1180.000000, 94.930, -117.1219
1206.000000, 94.989, -115.2334
1220.000000, 95.036, -114.1779
1241.000000, 95.122, -112.5792
1250.000000, 95.165, -111.9111
1265.000000, 95.243, -110.8237
1280.000000, 95.326, -109.7910
1315.000000, 95.499, -107.5362
1320.000000, 95.520, -107.2101
1340.000000, 95.594, -105.8794
1360.000000, 95.660, -104.4770
1380.000000, 95.745, -103.0931
1400.000000, 95.859, -101.6684
1430.000000, 96.045, -99.4890
1450.000000, 96.186, -98.0854
1475.000000, 96.377, -96.4210
1500.000000, 96.573, -94.8142
1525.000000, 96.778, -93.3861
1550.000000, 96.984, -91.9884
1575.000000, 97.183, -90.5725
1600.000000, 97.396, -89.0987
1625.000000, 97.638, -87.6244
1650.000000, 97.914, -86.2398
1675.000000, 98.214, -85.0962
1700.000000, 98.520, -84.1879
1725.000000, 98.828, -83.5083
1750.000000, 99.141, -83.0336
1775.000000, 99.447, -82.6625
1800.000000, 99.747, -82.3476
1825.000000, 100.048, -82.0758
1850.000000, 100.365, -82.0415
1875.000000, 100.698, -82.3195
1900.000000, 101.033, -82.8858
1925.000000, 101.348, -83.7860
1950.000000, 101.633, -84.8858
1975.000000, 101.885, -86.2213
2000.000000, 102.098, -87.7640
2030.000000, 102.291, -89.7527
2060.000000, 102.434, -91.8270
2090.000000, 102.549, -93.9832
2120.000000, 102.624, -96.3595
2140.000000, 102.638, -98.0783
2180.000000, 102.551, -101.5711
2200.000000, 102.449, -103.2686
2240.000000, 102.163, -106.3065
2270.000000, 101.890, -108.2758
2300.000000, 101.568, -110.0084
2330.000000, 101.211, -111.4983
2360.000000, 100.838, -112.7393
2400.000000, 100.315, -114.1432
2430.000000, 99.877, -115.0528
2470.000000, 99.239, -115.9525
2500.000000, 98.724, -116.3200
2540.000000, 97.981, -116.4247
2580.000000, 97.164, -116.0407
2620.000000, 96.264, -114.9047
2650.000000, 95.531, -113.3737
2690.000000, 94.493, -110.1683
2720.000000, 93.692, -106.6720
2760.000000, 92.661, -100.0165
2800.000000, 91.815, -90.8464
2850.000000, 91.297, -76.5517
2900.000000, 91.639, -61.1733
2950.000000, 92.930, -48.0698
3000.000000, 94.781, -40.9122
3040.000000, 96.254, -39.9539
3070.000000, 97.189, -41.5224
3110.000000, 98.095, -45.5892
3150.000000, 98.578, -50.6036
3200.000000, 98.677, -56.5086
3250.000000, 98.414, -60.9619
3300.000000, 97.994, -63.9476
3350.000000, 97.515, -65.9174
3400.000000, 97.010, -67.4042
3450.000000, 96.428, -68.8710
3500.000000, 95.642, -70.3154
3550.000000, 94.534, -70.8647
3600.000000, 93.101, -68.6010
3650.000000, 91.658, -61.0443
3700.000000, 90.847, -49.2450
3750.000000, 90.843, -38.3255
3820.000000, 91.328, -28.4409
3870.000000, 91.618, -23.8129
3950.000000, 91.901, -17.3952
4000.000000, 92.052, -13.5022
4060.000000, 92.225, -9.0269
4120.000000, 92.389, -4.7512
4180.000000, 92.556, -0.6608
4250.000000, 92.759, 3.9515
4310.000000, 92.938, 7.8637
4370.000000, 93.118, 11.7490
4440.000000, 93.339, 16.1405
4500.000000, 93.549, 19.6968
4550.000000, 93.745, 22.5575
4620.000000, 94.055, 26.1950
4680.000000, 94.329, 28.9712
4750.000000, 94.632, 31.7849
4820.000000, 94.904, 34.2194
4870.000000, 95.081, 35.7536
4940.000000, 95.299, 37.6556
5000.000000, 95.438, 39.1042
5080.000000, 95.550, 40.9194
5150.000000, 95.590, 42.5606
5220.000000, 95.600, 44.3601
5300.000000, 95.596, 46.4481
5380.000000, 95.566, 48.4730
5450.000000, 95.492, 50.1573
5520.000000, 95.356, 51.9027
5600.000000, 95.119, 54.1305
5700.000000, 94.700, 57.7272
5800.000000, 94.207, 62.8903
5900.000000, 93.782, 70.0500
6000.000000, 93.601, 78.6159
6080.000000, 93.682, 85.8032
6150.000000, 93.901, 91.9452
6220.000000, 94.244, 97.7284
6300.000000, 94.788, 103.8075
6400.000000, 95.670, 110.2652
6500.000000, 96.717, 114.7561
6600.000000, 97.796, 116.4701
6700.000000, 98.700, 115.4036
6800.000000, 99.254, 112.2978
6900.000000, 99.369, 108.5688
7000.000000, 99.065, 105.6646
7100.000000, 98.468, 104.6199
7200.000000, 97.749, 105.8380
7300.000000, 97.069, 109.1085
7400.000000, 96.505, 113.6736
7500.000000, 96.058, 119.0060
7620.000000, 95.649, 126.0789
7750.000000, 95.335, 134.9469
7880.000000, 95.183, 145.8700
8000.000000, 95.480, 157.6100
8120.000000, 96.404, 168.9581
8250.000000, 97.991, 178.1218
8380.000000, 99.929, -177.0781
8500.000000, 101.887, -177.0423
8620.000000, 103.779, 177.8907
8750.000000, 105.245, 166.2583
8850.000000, 105.611, 154.4649
9000.000000, 104.739, 137.2628
9120.000000, 103.160, 127.3526
9250.000000, 101.128, 121.2240
9380.000000, 99.191, 118.2949
9500.000000, 97.708, 115.3973
9620.000000, 96.392, 108.8051
9750.000000, 94.645, 93.8783
9880.000000, 92.373, 62.1670
10000.000000, 91.290, -39.3762
10150.000000, 92.396, -108.1780
10300.000000, 93.205, -130.4908
10440.000000, 93.365, -140.3361
10600.000000, 93.771, -147.3872
10750.000000, 94.020, -157.2610
10900.000000, 93.360, -170.8972
11060.000000, 91.440, 173.1191
11200.000000, 89.046, 155.6799
11380.000000, 85.919, 105.3176
11500.000000, 85.533, 31.1480
11720.000000, 87.572, -28.2538
11800.000000, 88.108, -37.5566
12060.000000, 88.739, -54.0839
12200.000000, 88.732, -58.2679
12410.000000, 88.568, -62.5797
12500.000000, 88.440, -64.5258
12650.000000, 88.000, -68.2104
12800.000000, 87.252, -71.5746
13150.000000, 84.825, -77.7754
13200.000000, 84.411, -78.1014
13400.000000, 83.218, -72.1750
13600.000000, 84.247, -71.4646
13800.000000, 84.807, -89.2504
