* Measurement data measured by REW V5.31.1
* Source: Headset (DS by VECLAN.COM), MICROPHONE (Master Volume), L, volume: 0.710. Timing signal peak level -4.8 dBFS, measurement signal peak level -4.6 dBFS
* Format: 2M Log Swept Sine, 1 sweep at -12.0 dBFS using an acoustic timing reference
* Dated: May 25, 2024 6:12:30 PM
* REW Settings:
*  C-weighting compensation: Off
*  Target level: 85.0 dB
* Note: ; Delay -0.0269 ms (-9.2 mm, -0.36 in) using estimated IR delay relative to Acoustic reference played from HEADPHONE R with no timing offset
* Measurement: Sony MDR-XB700 R4
* Smoothing: 1/24 octave
* Frequency Step: 1/48 octave
* Start Frequency: 1.000 Hz
*
* Freq(Hz), SPL(dB), Phase(degrees)
1.000000, 81.184, 4.0005
1.015000, 81.247, 2.8525
1.030000, 81.317, 1.6468
1.044000, 81.391, 0.4688
1.060000, 81.484, -0.9399
1.075000, 81.582, -2.3206
1.090000, 81.691, -3.7562
1.106000, 81.819, -5.3314
1.120000, 81.944, -6.7181
1.138000, 82.123, -8.4876
1.150000, 82.252, -9.6543
1.172000, 82.508, -11.7665
1.180000, 82.606, -12.5295
1.206000, 82.944, -14.9619
1.220000, 83.136, -16.2410
1.241000, 83.434, -18.1186
1.250000, 83.565, -18.9084
1.265000, 83.786, -20.2053
1.280000, 84.009, -21.4783
1.315000, 84.537, -24.3618
1.320000, 84.612, -24.7644
1.340000, 84.912, -26.3528
1.360000, 85.207, -27.9072
1.380000, 85.494, -29.4694
1.400000, 85.771, -31.0181
1.430000, 86.162, -33.2932
1.450000, 86.402, -34.7782
1.475000, 86.679, -36.5762
1.500000, 86.938, -38.2495
1.525000, 87.184, -39.7778
1.550000, 87.418, -41.1731
1.575000, 87.642, -42.4735
1.600000, 87.858, -43.7123
1.625000, 88.066, -44.8658
1.650000, 88.269, -45.9484
1.675000, 88.468, -46.9727
1.700000, 88.664, -47.9502
1.725000, 88.858, -48.8909
1.750000, 89.053, -49.8035
1.775000, 89.249, -50.7125
1.800000, 89.447, -51.6398
1.825000, 89.649, -52.5517
1.850000, 89.855, -53.4308
1.875000, 90.061, -54.2519
1.900000, 90.267, -55.0116
1.925000, 90.473, -55.7165
1.950000, 90.679, -56.3739
1.975000, 90.883, -57.0082
2.000000, 91.086, -57.6423
2.030000, 91.328, -58.3676
2.060000, 91.567, -59.0652
2.090000, 91.802, -59.7442
2.120000, 92.034, -60.4124
2.140000, 92.185, -60.8555
2.180000, 92.483, -61.7624
2.200000, 92.628, -62.2335
2.240000, 92.912, -63.1447
2.270000, 93.121, -63.7884
2.300000, 93.326, -64.3997
2.330000, 93.527, -64.9826
2.360000, 93.725, -65.5423
2.400000, 93.983, -66.3077
2.430000, 94.172, -66.8724
2.470000, 94.420, -67.6117
2.500000, 94.602, -68.1609
2.540000, 94.841, -68.8923
2.580000, 95.074, -69.6403
2.620000, 95.302, -70.4091
2.650000, 95.468, -70.9684
2.690000, 95.685, -71.6919
2.720000, 95.844, -72.2188
2.760000, 96.052, -72.9012
2.800000, 96.254, -73.6054
2.850000, 96.500, -74.4726
2.900000, 96.739, -75.3256
2.950000, 96.971, -76.1702
3.000000, 97.194, -77.0346
3.040000, 97.367, -77.7243
3.070000, 97.493, -78.2323
3.110000, 97.658, -78.8962
3.150000, 97.818, -79.5446
3.200000, 98.013, -80.3648
3.250000, 98.202, -81.1782
3.300000, 98.386, -81.9745
3.350000, 98.564, -82.7589
3.400000, 98.736, -83.5663
3.450000, 98.902, -84.3726
3.500000, 99.062, -85.1593
3.550000, 99.218, -85.9230
3.600000, 99.368, -86.6892
3.650000, 99.515, -87.4438
3.700000, 99.656, -88.1823
3.750000, 99.793, -88.9113
3.820000, 99.976, -89.9480
3.870000, 100.101, -90.6769
3.950000, 100.294, -91.8002
4.000000, 100.411, -92.4947
4.060000, 100.548, -93.3143
4.120000, 100.679, -94.1169
4.180000, 100.806, -94.9107
4.250000, 100.948, -95.8443
4.310000, 101.065, -96.6162
4.370000, 101.179, -97.3644
4.440000, 101.308, -98.2413
4.500000, 101.414, -98.9767
4.550000, 101.500, -99.5774
4.620000, 101.616, -100.4251
4.680000, 101.712, -101.1359
4.750000, 101.822, -101.9368
4.820000, 101.930, -102.7355
4.870000, 102.004, -103.2990
4.940000, 102.106, -104.0709
5.000000, 102.190, -104.7312
5.080000, 102.300, -105.5987
5.150000, 102.393, -106.3338
5.220000, 102.483, -107.0740
5.300000, 102.582, -107.9097
5.380000, 102.678, -108.7265
5.450000, 102.760, -109.4412
5.520000, 102.840, -110.1366
5.600000, 102.928, -110.9255
5.700000, 103.034, -111.9062
5.800000, 103.136, -112.8639
5.900000, 103.234, -113.8096
6.000000, 103.327, -114.7396
6.080000, 103.399, -115.4828
6.150000, 103.460, -116.1147
6.220000, 103.519, -116.7457
6.300000, 103.584, -117.4530
6.400000, 103.662, -118.3237
6.500000, 103.737, -119.1845
6.600000, 103.810, -120.0199
6.700000, 103.879, -120.8433
6.800000, 103.945, -121.6478
6.900000, 104.010, -122.4397
7.000000, 104.073, -123.2077
7.100000, 104.134, -123.9630
7.200000, 104.193, -124.7006
7.300000, 104.252, -125.4278
7.400000, 104.308, -126.1383
7.500000, 104.364, -126.8435
7.620000, 104.429, -127.6713
7.750000, 104.498, -128.5480
7.880000, 104.565, -129.4138
8.000000, 104.625, -130.1946
8.120000, 104.683, -130.9664
8.250000, 104.745, -131.7921
8.380000, 104.804, -132.6021
8.500000, 104.856, -133.3413
8.620000, 104.907, -134.0686
8.750000, 104.959, -134.8414
8.850000, 104.997, -135.4249
9.000000, 105.052, -136.2786
9.120000, 105.094, -136.9466
9.250000, 105.138, -137.6549
9.380000, 105.180, -138.3441
9.500000, 105.218, -138.9676
9.620000, 105.254, -139.5719
9.750000, 105.292, -140.2094
9.880000, 105.322, -140.8348
10.000000, 105.340, -141.3931
10.150000, 105.351, -142.1065
10.300000, 105.355, -142.7922
10.440000, 105.353, -143.4087
10.600000, 105.347, -144.0879
10.750000, 105.343, -144.7020
10.900000, 105.340, -145.2957
11.060000, 105.338, -145.9346
11.200000, 105.338, -146.5156
11.380000, 105.335, -147.2394
11.500000, 105.332, -147.7078
11.720000, 105.325, -148.5370
11.800000, 105.323, -148.8289
12.060000, 105.317, -149.7677
12.200000, 105.316, -150.2941
12.410000, 105.316, -151.0558
12.500000, 105.315, -151.3719
12.650000, 105.312, -151.8854
12.800000, 105.308, -152.3823
13.150000, 105.297, -153.5312
13.200000, 105.295, -153.6982
13.400000, 105.290, -154.3484
13.600000, 105.284, -154.9697
13.800000, 105.279, -155.5627
14.000000, 105.275, -156.1341
14.300000, 105.269, -157.0267
14.500000, 105.266, -157.5986
14.750000, 105.261, -158.2899
15.000000, 105.259, -158.9636
15.250000, 105.263, -159.6792
15.500000, 105.267, -160.3837
15.750000, 105.269, -161.0722
16.000000, 105.266, -161.7408
16.250000, 105.261, -162.4274
16.500000, 105.254, -163.0808
16.750000, 105.246, -163.6959
17.000000, 105.240, -164.2776
17.250000, 105.237, -164.8588
17.500000, 105.235, -165.4206
17.750000, 105.235, -165.9684
18.000000, 105.235, -166.5109
18.250000, 105.234, -167.0717
18.500000, 105.232, -167.6276
18.750000, 105.227, -168.1706
19.000000, 105.220, -168.6954
19.250000, 105.212, -169.2220
19.500000, 105.203, -169.7232
19.750000, 105.192, -170.1994
20.000000, 105.181, -170.6534
20.299999, 105.166, -171.2036
20.600000, 105.149, -171.7283
20.900000, 105.130, -172.2260
21.200001, 105.108, -172.7132
21.400000, 105.093, -173.0268
21.799999, 105.060, -173.6127
22.000000, 105.043, -173.8887
22.400000, 105.007, -174.4381
22.700001, 104.978, -174.8120
23.000000, 104.947, -175.1401
23.299999, 104.917, -175.4265
23.600000, 104.892, -175.6460
24.000000, 104.877, -175.8568
24.299999, 104.885, -176.0188
24.700001, 104.919, -176.3101
25.000000, 104.956, -176.6364
25.400000, 105.004, -177.2651
25.799999, 105.036, -178.0492
26.200001, 105.043, -178.9089
26.500000, 105.034, -179.5510
26.900000, 105.007, 179.6489
27.200001, 104.980, 179.0913
27.600000, 104.939, 178.4029
28.000000, 104.893, 177.7772
28.500000, 104.828, 177.0766
29.000000, 104.761, 176.4943
29.500000, 104.699, 175.9953
30.000000, 104.642, 175.5534
30.400000, 104.598, 175.2209
30.700001, 104.565, 174.9985
31.100000, 104.525, 174.7405
31.500000, 104.493, 174.5065
32.000000, 104.468, 174.2178
32.500000, 104.455, 173.8567
33.000000, 104.444, 173.4183
33.500000, 104.431, 172.9169
34.000000, 104.418, 172.3832
34.500000, 104.406, 171.7927
35.000000, 104.387, 171.1358
35.500000, 104.355, 170.4327
36.000000, 104.305, 169.7515
36.500000, 104.246, 169.1327
37.000000, 104.184, 168.5768
37.500000, 104.122, 168.0448
38.200001, 104.029, 167.3240
38.700001, 103.956, 166.8366
39.500000, 103.834, 166.1149
40.000000, 103.755, 165.6824
40.599998, 103.652, 165.1711
41.200001, 103.538, 164.7146
41.799999, 103.417, 164.3493
42.500000, 103.274, 164.0455
43.099998, 103.158, 163.8649
43.700001, 103.047, 163.7225
44.400002, 102.917, 163.5835
45.000000, 102.801, 163.5018
45.500000, 102.701, 163.4805
46.200001, 102.560, 163.5501
46.799999, 102.442, 163.6988
47.500000, 102.312, 163.9552
48.200001, 102.188, 164.2893
48.700001, 102.102, 164.5915
49.400002, 101.990, 165.1501
50.000000, 101.913, 165.7505
50.799999, 101.848, 166.5880
51.500000, 101.816, 167.2608
52.200001, 101.795, 167.8953
53.000000, 101.788, 168.5665
53.799999, 101.786, 169.1210
54.500000, 101.776, 169.5763
55.200001, 101.766, 170.0453
56.000000, 101.750, 170.5844
57.000000, 101.727, 171.4498
58.000000, 101.762, 172.4856
59.000000, 101.846, 173.2092
60.000000, 101.930, 173.7453
60.799999, 102.012, 174.1052
61.500000, 102.088, 174.3055
62.200001, 102.159, 174.4397
63.000000, 102.235, 174.5691
64.000000, 102.321, 174.7527
65.000000, 102.408, 175.0410
66.000000, 102.513, 175.4120
67.000000, 102.641, 175.8070
68.000000, 102.800, 176.1098
69.000000, 102.976, 176.2047
70.000000, 103.157, 176.1169
71.000000, 103.342, 175.8369
72.000000, 103.524, 175.3440
73.000000, 103.696, 174.6696
74.000000, 103.853, 173.8434
75.000000, 103.996, 172.9025
76.199997, 104.144, 171.6340
77.500000, 104.273, 170.1606
78.800003, 104.372, 168.6378
80.000000, 104.437, 167.1943
81.199997, 104.479, 165.7451
82.500000, 104.497, 164.1779
83.800003, 104.491, 162.6354
85.000000, 104.464, 161.2499
86.199997, 104.419, 159.9075
87.500000, 104.345, 158.5213
88.500000, 104.272, 157.5250
90.000000, 104.129, 156.1596
91.199997, 103.990, 155.2420
92.500000, 103.821, 154.4781
93.800003, 103.642, 154.0115
95.000000, 103.480, 153.9006
96.199997, 103.336, 154.1208
97.500000, 103.226, 154.7040
98.800003, 103.183, 155.4980
100.000000, 103.215, 156.2680
101.500000, 103.355, 156.9021
103.000000, 103.558, 156.8285
104.400002, 103.743, 156.0983
106.000000, 103.903, 154.7323
107.500000, 103.985, 153.1533
109.000000, 103.999, 151.5023
110.599998, 103.962, 149.8736
112.000000, 103.909, 148.6470
113.800003, 103.832, 147.3127
115.000000, 103.773, 146.5283
117.199997, 103.647, 145.2650
118.000000, 103.597, 144.7799
120.599998, 103.429, 143.3634
122.000000, 103.371, 142.4223
124.099998, 103.225, 141.1463
125.000000, 103.169, 140.9086
126.500000, 103.118, 140.5264
128.000000, 103.067, 139.8532
131.500000, 102.837, 138.2766
132.000000, 102.803, 138.0992
134.000000, 102.674, 137.5126
136.000000, 102.568, 137.0842
138.000000, 102.480, 136.5518
140.000000, 102.393, 135.9296
143.000000, 102.281, 134.9456
145.000000, 102.199, 134.2427
147.500000, 102.071, 133.2350
150.000000, 101.918, 132.0213
152.500000, 101.751, 130.7822
155.000000, 101.576, 129.6680
157.500000, 101.392, 128.5708
160.000000, 101.199, 127.3915
162.500000, 100.998, 126.2500
165.000000, 100.784, 125.2954
167.500000, 100.563, 124.5407
170.000000, 100.342, 123.8512
172.500000, 100.123, 123.2058
175.000000, 99.894, 122.6825
177.500000, 99.665, 122.3243
180.000000, 99.443, 122.0452
182.500000, 99.225, 121.8114
185.000000, 99.008, 121.6806
187.500000, 98.802, 121.5978
190.000000, 98.609, 121.5139
192.500000, 98.432, 121.4677
195.000000, 98.266, 121.3625
197.500000, 98.097, 121.1842
200.000000, 97.920, 121.0086
203.000000, 97.696, 120.9205
206.000000, 97.473, 120.8637
209.000000, 97.247, 120.7277
212.000000, 97.019, 120.7031
214.000000, 96.871, 120.7294
218.000000, 96.560, 120.7808
220.000000, 96.398, 120.8897
224.000000, 96.085, 121.3237
227.000000, 95.868, 121.6873
230.000000, 95.646, 122.0618
233.000000, 95.423, 122.5246
236.000000, 95.210, 123.0372
240.000000, 94.894, 123.4562
243.000000, 94.661, 123.6774
247.000000, 94.430, 124.0932
250.000000, 94.272, 124.7330
254.000000, 94.028, 125.6889
258.000000, 93.774, 126.7672
262.000000, 93.552, 128.0638
265.000000, 93.406, 128.9682
269.000000, 93.196, 130.0866
272.000000, 93.017, 130.7305
276.000000, 92.773, 131.4718
280.000000, 92.538, 132.5008
285.000000, 92.291, 134.4068
290.000000, 92.069, 136.5988
295.000000, 91.898, 138.7683
300.000000, 91.732, 140.6817
304.000000, 91.617, 142.6334
307.000000, 91.577, 144.1068
311.000000, 91.535, 145.6721
315.000000, 91.447, 147.0131
320.000000, 91.327, 149.5115
325.000000, 91.390, 152.5327
330.000000, 91.574, 154.7133
335.000000, 91.785, 156.2382
340.000000, 91.999, 156.6148
345.000000, 91.935, 156.2861
350.000000, 91.840, 158.9119
355.000000, 92.099, 161.0457
360.000000, 92.314, 161.0559
365.000000, 92.393, 161.2480
370.000000, 92.483, 161.8977
375.000000, 92.656, 162.5035
382.000000, 92.862, 161.9666
387.000000, 92.901, 161.7764
395.000000, 93.025, 162.1204
400.000000, 93.131, 161.6465
406.000000, 93.156, 160.6959
412.000000, 93.120, 160.1491
418.000000, 93.111, 159.6560
425.000000, 93.090, 158.9141
431.000000, 93.032, 158.2346
437.000000, 92.921, 157.6331
444.000000, 92.716, 157.0700
450.000000, 92.526, 156.5372
455.000000, 92.376, 156.3449
462.000000, 92.158, 156.4335
468.000000, 91.982, 156.7192
475.000000, 91.804, 157.0942
482.000000, 91.645, 157.3373
487.000000, 91.518, 157.4485
494.000000, 91.322, 157.6154
500.000000, 91.131, 157.8234
508.000000, 90.848, 158.3436
515.000000, 90.586, 159.0898
522.000000, 90.328, 160.0667
530.000000, 90.032, 161.5070
538.000000, 89.762, 163.4892
545.000000, 89.602, 165.4952
552.000000, 89.527, 167.3282
560.000000, 89.475, 168.9292
570.000000, 89.363, 170.8125
580.000000, 89.270, 172.8188
590.000000, 89.207, 174.5367
600.000000, 89.108, 176.1530
608.000000, 89.018, 177.6306
615.000000, 88.961, 179.0471
622.000000, 88.936, -179.6364
630.000000, 88.907, -178.5233
640.000000, 88.785, -177.3137
650.000000, 88.606, -175.5898
660.000000, 88.451, -173.4223
670.000000, 88.340, -171.0517
680.000000, 88.261, -168.6739
690.000000, 88.192, -166.1953
700.000000, 88.146, -163.5496
710.000000, 88.125, -160.7892
720.000000, 88.144, -157.8483
730.000000, 88.216, -154.8723
740.000000, 88.335, -152.0143
750.000000, 88.492, -149.3160
762.000000, 88.735, -146.2384
775.000000, 89.020, -143.3552
788.000000, 89.325, -140.6578
800.000000, 89.640, -138.4026
812.000000, 89.989, -136.4171
825.000000, 90.394, -134.8284
838.000000, 90.784, -133.9696
850.000000, 91.072, -133.8030
862.000000, 91.241, -133.8144
875.000000, 91.305, -133.4278
885.000000, 91.306, -132.6464
900.000000, 91.315, -130.6396
912.000000, 91.383, -128.3490
925.000000, 91.573, -125.5140
938.000000, 91.878, -122.9229
950.000000, 92.222, -120.9921
962.000000, 92.577, -119.5167
975.000000, 92.952, -118.2079
988.000000, 93.321, -117.0972
1000.000000, 93.668, -116.2290
1015.000000, 94.106, -115.4168
1030.000000, 94.528, -114.9750
1044.000000, 94.897, -114.7839
1060.000000, 95.290, -114.7648
1075.000000, 95.618, -114.8624
1090.000000, 95.923, -114.9231
1106.000000, 96.244, -114.8955
1120.000000, 96.531, -114.8199
1138.000000, 96.917, -114.8097
1150.000000, 97.171, -114.9546
1172.000000, 97.603, -115.4613
1180.000000, 97.747, -115.6875
1206.000000, 98.184, -116.2639
1220.000000, 98.418, -116.4601
1241.000000, 98.779, -116.7416
1250.000000, 98.938, -116.8598
1265.000000, 99.213, -117.1095
1280.000000, 99.493, -117.4563
1315.000000, 100.126, -118.7028
1320.000000, 100.211, -118.9273
1340.000000, 100.531, -119.9396
1360.000000, 100.793, -121.0846
1380.000000, 101.005, -122.2215
1400.000000, 101.180, -123.1511
1430.000000, 101.443, -123.3439
1450.000000, 101.785, -123.0066
1475.000000, 102.324, -123.8226
1500.000000, 102.788, -125.6396
1525.000000, 103.171, -127.6859
1550.000000, 103.515, -129.8510
1575.000000, 103.810, -132.3023
1600.000000, 104.036, -134.8764
1625.000000, 104.203, -137.4066
1650.000000, 104.318, -139.8344
1675.000000, 104.388, -142.0938
1700.000000, 104.425, -144.1130
1725.000000, 104.448, -145.8868
1750.000000, 104.475, -147.4594
1775.000000, 104.503, -148.9926
1800.000000, 104.526, -150.4323
1825.000000, 104.555, -151.7828
1850.000000, 104.592, -153.1906
1875.000000, 104.615, -154.7123
1900.000000, 104.605, -156.2577
1925.000000, 104.556, -157.6823
1950.000000, 104.482, -158.8424
1975.000000, 104.407, -159.6739
2000.000000, 104.364, -160.2121
2030.000000, 104.371, -160.8247
2060.000000, 104.409, -161.5746
2090.000000, 104.473, -162.3992
2120.000000, 104.561, -163.5371
2140.000000, 104.608, -164.5309
2180.000000, 104.634, -166.6852
2200.000000, 104.614, -167.7373
2240.000000, 104.536, -169.5842
2270.000000, 104.472, -170.7548
2300.000000, 104.414, -171.8625
2330.000000, 104.357, -172.9669
2360.000000, 104.292, -174.0425
2400.000000, 104.198, -175.4240
2430.000000, 104.129, -176.4224
2470.000000, 104.032, -177.7427
2500.000000, 103.952, -178.7421
2540.000000, 103.837, 179.9435
2580.000000, 103.711, 178.6494
2620.000000, 103.574, 177.4466
2650.000000, 103.482, 176.6365
2690.000000, 103.401, 175.3777
2720.000000, 103.333, 173.9957
2760.000000, 103.168, 171.7472
2800.000000, 102.892, 169.3380
2850.000000, 102.378, 166.5337
2900.000000, 101.684, 164.4471
2950.000000, 100.834, 163.5608
3000.000000, 99.883, 164.4808
3040.000000, 99.140, 166.9100
3070.000000, 98.666, 169.6895
3110.000000, 98.230, 174.1836
3150.000000, 98.032, 178.5484
3200.000000, 97.935, -177.3131
3250.000000, 97.783, -173.9236
3300.000000, 97.540, -169.8864
3350.000000, 97.341, -164.1197
3400.000000, 97.454, -156.6465
3450.000000, 98.017, -149.4515
3500.000000, 98.864, -144.1683
3550.000000, 99.810, -140.5795
3600.000000, 100.843, -138.1873
3650.000000, 102.004, -137.2426
3700.000000, 103.212, -138.7024
3750.000000, 104.231, -142.9468
3820.000000, 104.963, -151.3276
3870.000000, 105.008, -156.6646
3950.000000, 104.730, -161.8269
4000.000000, 104.558, -163.2926
4060.000000, 104.446, -164.1179
4120.000000, 104.437, -164.5055
4180.000000, 104.494, -164.8428
4250.000000, 104.589, -165.2046
4310.000000, 104.699, -165.1991
4370.000000, 104.884, -165.0349
4440.000000, 105.191, -165.1041
4500.000000, 105.493, -165.5470
4550.000000, 105.764, -166.0517
4620.000000, 106.187, -166.9544
4680.000000, 106.612, -167.9476
4750.000000, 107.198, -169.6908
4820.000000, 107.867, -172.4233
4870.000000, 108.360, -175.2827
4940.000000, 108.905, 179.1287
5000.000000, 108.910, 172.9037
5080.000000, 107.849, 163.5685
5150.000000, 106.963, 153.4257
5220.000000, 106.885, 144.7126
5300.000000, 107.246, 136.9531
5380.000000, 107.228, 131.3096
5450.000000, 106.641, 128.2303
5520.000000, 105.882, 126.0250
5600.000000, 105.079, 124.0101
5700.000000, 104.164, 121.4110
5800.000000, 103.164, 118.9374
5900.000000, 102.046, 117.9238
6000.000000, 100.990, 118.8819
6080.000000, 100.319, 120.6796
6150.000000, 99.887, 122.3521
6220.000000, 99.567, 123.6714
6300.000000, 99.274, 124.6196
6400.000000, 98.916, 125.0042
6500.000000, 98.521, 125.1348
6600.000000, 98.134, 124.8878
6700.000000, 97.582, 123.9077
6800.000000, 96.761, 124.7489
6900.000000, 96.180, 129.1563
7000.000000, 96.261, 133.1638
7100.000000, 96.512, 133.3570
7200.000000, 96.459, 131.8363
7300.000000, 96.192, 131.2800
7400.000000, 95.981, 131.8234
7500.000000, 95.956, 132.7571
7620.000000, 96.330, 132.7133
7750.000000, 96.924, 127.7935
7880.000000, 96.936, 118.5648
8000.000000, 96.387, 108.6640
8120.000000, 95.347, 97.7191
8250.000000, 93.607, 84.5384
8380.000000, 91.107, 68.4757
8500.000000, 88.126, 45.3496
8620.000000, 86.244, -17.4895
8750.000000, 88.820, -105.7940
8850.000000, 91.495, -133.8736
9000.000000, 93.781, -166.3716
9120.000000, 94.003, 170.9541
9250.000000, 92.972, 150.4982
9380.000000, 91.066, 134.4277
9500.000000, 88.793, 121.7295
9620.000000, 86.042, 107.6581
9750.000000, 82.605, 80.1627
9880.000000, 81.091, -24.0536
10000.000000, 83.327, -72.3881
10150.000000, 86.431, -90.7458
10300.000000, 88.707, -100.1949
10440.000000, 90.590, -105.8381
10600.000000, 92.740, -112.9244
10750.000000, 94.617, -123.0813
10900.000000, 95.978, -137.9958
11060.000000, 96.397, -158.0635
11200.000000, 95.585, -176.9642
11380.000000, 92.499, 162.9543
11500.000000, 89.174, 159.5984
11720.000000, 83.552, -155.6323
11800.000000, 83.559, -134.5747
12060.000000, 87.069, -113.1099
