* Measurement data measured by REW V5.31.1
* Source: Headset (DS by VECLAN.COM), MICROPHONE (Master Volume), L, volume: 0.710. Timing signal peak level -7.2 dBFS, measurement signal peak level -6.1 dBFS
* Format: 2M Log Swept Sine, 1 sweep at -12.0 dBFS using an acoustic timing reference
* Dated: May 25, 2024 6:17:04 PM
* REW Settings:
*  C-weighting compensation: Off
*  Target level: 85.0 dB
* Note: ; Delay -0.0676 ms (-23 mm, -0.91 in) using estimated IR delay relative to Acoustic reference played from HEADPHONE L with no timing offset
* Measurement: Sony MDR-XB700 L4
* Smoothing: 1/24 octave
* Frequency Step: 1/48 octave
* Start Frequency: 1.000 Hz
*
* Freq(Hz), SPL(dB), Phase(degrees)
1.000000, 84.353, -5.5372
1.015000, 84.444, -6.7800
1.030000, 84.541, -8.0634
1.044000, 84.638, -9.2981
1.060000, 84.757, -10.7521
1.075000, 84.878, -12.1562
1.090000, 85.007, -13.5967
1.106000, 85.156, -15.1584
1.120000, 85.298, -16.5208
1.138000, 85.498, -18.2445
1.150000, 85.641, -19.3723
1.172000, 85.922, -21.3974
1.180000, 86.029, -22.1240
1.206000, 86.394, -24.4228
1.220000, 86.600, -25.6213
1.241000, 86.917, -27.3685
1.250000, 87.056, -28.0993
1.265000, 87.289, -29.2941
1.280000, 87.525, -30.4613
1.315000, 88.077, -33.0859
1.320000, 88.156, -33.4505
1.340000, 88.467, -34.8851
1.360000, 88.771, -36.2836
1.380000, 89.066, -37.6889
1.400000, 89.349, -39.0811
1.430000, 89.745, -41.1238
1.450000, 89.986, -42.4574
1.475000, 90.261, -44.0754
1.500000, 90.513, -45.5888
1.525000, 90.746, -46.9799
1.550000, 90.965, -48.2583
1.575000, 91.170, -49.4589
1.600000, 91.364, -50.6121
1.625000, 91.548, -51.6917
1.650000, 91.724, -52.7098
1.675000, 91.895, -53.6773
1.700000, 92.063, -54.6041
1.725000, 92.229, -55.4990
1.750000, 92.396, -56.3698
1.775000, 92.565, -57.2403
1.800000, 92.739, -58.1321
1.825000, 92.918, -59.0120
1.850000, 93.102, -59.8653
1.875000, 93.287, -60.6700
1.900000, 93.472, -61.4222
1.925000, 93.657, -62.1268
1.950000, 93.842, -62.7895
1.975000, 94.025, -63.4331
2.000000, 94.208, -64.0795
2.030000, 94.425, -64.8220
2.060000, 94.640, -65.5383
2.090000, 94.852, -66.2365
2.120000, 95.060, -66.9238
2.140000, 95.197, -67.3791
2.180000, 95.466, -68.3097
2.200000, 95.597, -68.7929
2.240000, 95.855, -69.7326
2.270000, 96.044, -70.4029
2.300000, 96.230, -71.0441
2.330000, 96.413, -71.6593
2.360000, 96.593, -72.2525
2.400000, 96.828, -73.0633
2.430000, 97.001, -73.6619
2.470000, 97.227, -74.4453
2.500000, 97.393, -75.0264
2.540000, 97.611, -75.7985
2.580000, 97.824, -76.5865
2.620000, 98.031, -77.3978
2.650000, 98.184, -77.9911
2.690000, 98.382, -78.7618
2.720000, 98.528, -79.3249
2.760000, 98.718, -80.0557
2.800000, 98.904, -80.8078
2.850000, 99.129, -81.7332
2.900000, 99.348, -82.6420
2.950000, 99.559, -83.5411
3.000000, 99.764, -84.4621
3.040000, 99.922, -85.1993
3.070000, 100.037, -85.7435
3.110000, 100.187, -86.4559
3.150000, 100.334, -87.1525
3.200000, 100.511, -88.0316
3.250000, 100.683, -88.9018
3.300000, 100.850, -89.7530
3.350000, 101.012, -90.5928
3.400000, 101.168, -91.4577
3.450000, 101.318, -92.3226
3.500000, 101.463, -93.1678
3.550000, 101.602, -93.9889
3.600000, 101.738, -94.8104
3.650000, 101.869, -95.6181
3.700000, 101.995, -96.4088
3.750000, 102.117, -97.1910
3.820000, 102.279, -98.3036
3.870000, 102.389, -99.0863
3.950000, 102.559, -100.2923
4.000000, 102.661, -101.0353
4.060000, 102.779, -101.9104
4.120000, 102.893, -102.7683
4.180000, 103.002, -103.6176
4.250000, 103.124, -104.6145
4.310000, 103.224, -105.4378
4.370000, 103.320, -106.2336
4.440000, 103.429, -107.1621
4.500000, 103.518, -107.9403
4.550000, 103.589, -108.5760
4.620000, 103.685, -109.4706
4.680000, 103.765, -110.2188
4.750000, 103.855, -111.0591
4.820000, 103.943, -111.8932
4.870000, 104.003, -112.4804
4.940000, 104.086, -113.2838
5.000000, 104.154, -113.9690
5.080000, 104.242, -114.8664
5.150000, 104.317, -115.6241
5.220000, 104.389, -116.3841
5.300000, 104.468, -117.2397
5.380000, 104.545, -118.0741
5.450000, 104.609, -118.8025
5.520000, 104.672, -119.5097
5.600000, 104.742, -120.3100
5.700000, 104.826, -121.3027
5.800000, 104.906, -122.2708
5.900000, 104.982, -123.2258
6.000000, 105.055, -124.1641
6.080000, 105.111, -124.9133
6.150000, 105.157, -125.5503
6.220000, 105.203, -126.1864
6.300000, 105.252, -126.8996
6.400000, 105.311, -127.7777
6.500000, 105.367, -128.6458
6.600000, 105.421, -129.4879
6.700000, 105.471, -130.3180
6.800000, 105.518, -131.1289
6.900000, 105.564, -131.9260
7.000000, 105.608, -132.6975
7.100000, 105.650, -133.4550
7.200000, 105.690, -134.1932
7.300000, 105.729, -134.9184
7.400000, 105.767, -135.6240
7.500000, 105.803, -136.3218
7.620000, 105.845, -137.1368
7.750000, 105.890, -137.9946
7.880000, 105.933, -138.8358
8.000000, 105.972, -139.5899
8.120000, 106.009, -140.3311
8.250000, 106.049, -141.1194
8.380000, 106.087, -141.8890
8.500000, 106.121, -142.5893
8.620000, 106.154, -143.2758
8.750000, 106.188, -144.0045
8.850000, 106.213, -144.5548
9.000000, 106.250, -145.3597
9.120000, 106.278, -145.9910
9.250000, 106.307, -146.6630
9.380000, 106.335, -147.3191
9.500000, 106.360, -147.9156
9.620000, 106.385, -148.4967
9.750000, 106.410, -149.1127
9.880000, 106.427, -149.7202
10.000000, 106.433, -150.2650
10.150000, 106.430, -150.9646
10.300000, 106.418, -151.6383
10.440000, 106.401, -152.2446
10.600000, 106.379, -152.9114
10.750000, 106.358, -153.5119
10.900000, 106.339, -154.0895
11.060000, 106.319, -154.7072
11.200000, 106.303, -155.2660
11.380000, 106.281, -155.9565
11.500000, 106.265, -156.3997
11.720000, 106.235, -157.1779
11.800000, 106.225, -157.4500
12.060000, 106.195, -158.3208
12.200000, 106.182, -158.8093
12.410000, 106.164, -159.5129
12.500000, 106.156, -159.8039
12.650000, 106.141, -160.2751
12.800000, 106.125, -160.7292
13.150000, 106.089, -161.7771
13.200000, 106.084, -161.9297
13.400000, 106.066, -162.5223
13.600000, 106.049, -163.0880
13.800000, 106.033, -163.6289
14.000000, 106.018, -164.1535
14.300000, 105.998, -164.9879
14.500000, 105.984, -165.5288
14.750000, 105.966, -166.1865
15.000000, 105.949, -166.8271
15.250000, 105.936, -167.5031
15.500000, 105.923, -168.1565
15.750000, 105.908, -168.7818
16.000000, 105.892, -169.3784
16.250000, 105.877, -169.9929
16.500000, 105.862, -170.5835
16.750000, 105.848, -171.1542
17.000000, 105.836, -171.7139
17.250000, 105.826, -172.2938
17.500000, 105.815, -172.8677
17.750000, 105.802, -173.4301
18.000000, 105.787, -173.9790
18.250000, 105.769, -174.5292
18.500000, 105.749, -175.0535
18.750000, 105.727, -175.5446
19.000000, 105.706, -176.0008
19.250000, 105.687, -176.4485
19.500000, 105.669, -176.8671
19.750000, 105.655, -177.2632
20.000000, 105.642, -177.6458
20.299999, 105.628, -178.1289
20.600000, 105.615, -178.6130
20.900000, 105.599, -179.0975
21.200001, 105.577, -179.5898
21.400000, 105.559, -179.9074
21.799999, 105.516, 179.5307
22.000000, 105.492, 179.2963
22.400000, 105.451, 178.8972
22.700001, 105.431, 178.6674
23.000000, 105.424, 178.4568
23.299999, 105.430, 178.2017
23.600000, 105.445, 177.8827
24.000000, 105.470, 177.3284
24.299999, 105.483, 176.8067
24.700001, 105.483, 176.0456
25.000000, 105.471, 175.4713
25.400000, 105.440, 174.7300
25.799999, 105.401, 174.0659
26.200001, 105.359, 173.4616
26.500000, 105.329, 173.0340
26.900000, 105.288, 172.4974
27.200001, 105.256, 172.1133
27.600000, 105.214, 171.6353
28.000000, 105.174, 171.2029
28.500000, 105.130, 170.6940
29.000000, 105.093, 170.2033
29.500000, 105.061, 169.6946
30.000000, 105.029, 169.1824
30.400000, 105.005, 168.7610
30.700001, 104.988, 168.4414
31.100000, 104.967, 167.9944
31.500000, 104.946, 167.5013
32.000000, 104.916, 166.8400
32.500000, 104.875, 166.1434
33.000000, 104.824, 165.4669
33.500000, 104.768, 164.8148
34.000000, 104.713, 164.1860
34.500000, 104.656, 163.5565
35.000000, 104.594, 162.9394
35.500000, 104.527, 162.3493
36.000000, 104.457, 161.8027
36.500000, 104.388, 161.2824
37.000000, 104.319, 160.7734
37.500000, 104.246, 160.2654
38.200001, 104.137, 159.5920
38.700001, 104.056, 159.1459
39.500000, 103.923, 158.4745
40.000000, 103.838, 158.0722
40.599998, 103.730, 157.6079
41.200001, 103.618, 157.1929
41.799999, 103.503, 156.8331
42.500000, 103.369, 156.4794
43.099998, 103.257, 156.2302
43.700001, 103.148, 156.0190
44.400002, 103.024, 155.8036
45.000000, 102.916, 155.6459
45.500000, 102.825, 155.5459
46.200001, 102.699, 155.4732
46.799999, 102.597, 155.4544
47.500000, 102.484, 155.4486
48.200001, 102.373, 155.4637
48.700001, 102.296, 155.4980
49.400002, 102.196, 155.5649
50.000000, 102.115, 155.6049
50.799999, 102.005, 155.6119
51.500000, 101.903, 155.6193
52.200001, 101.795, 155.6605
53.000000, 101.667, 155.7640
53.799999, 101.533, 155.9507
54.500000, 101.413, 156.1953
55.200001, 101.291, 156.5243
56.000000, 101.152, 157.0638
57.000000, 101.003, 157.9057
58.000000, 100.861, 158.7535
59.000000, 100.707, 159.8828
60.000000, 100.594, 161.3145
60.799999, 100.531, 162.5045
61.500000, 100.489, 163.6050
62.200001, 100.468, 164.7848
63.000000, 100.476, 166.1805
64.000000, 100.532, 167.9152
65.000000, 100.640, 169.5780
66.000000, 100.798, 171.1382
67.000000, 101.007, 172.5264
68.000000, 101.261, 173.6343
69.000000, 101.546, 174.3930
70.000000, 101.846, 174.7845
71.000000, 102.148, 174.8192
72.000000, 102.442, 174.5363
73.000000, 102.726, 173.9794
74.000000, 102.992, 173.1470
75.000000, 103.234, 172.0772
76.199997, 103.487, 170.5490
77.500000, 103.715, 168.6640
78.800003, 103.892, 166.5861
80.000000, 104.007, 164.5384
81.199997, 104.070, 162.4447
82.500000, 104.081, 160.2217
83.800003, 104.042, 158.1094
85.000000, 103.965, 156.3156
86.199997, 103.862, 154.6927
87.500000, 103.727, 153.1076
88.500000, 103.608, 152.0147
90.000000, 103.409, 150.5809
91.199997, 103.231, 149.6396
92.500000, 103.021, 148.8690
93.800003, 102.798, 148.4038
95.000000, 102.587, 148.2875
96.199997, 102.383, 148.4887
97.500000, 102.188, 149.1085
98.800003, 102.057, 150.1301
100.000000, 102.024, 151.2076
101.500000, 102.100, 152.3644
103.000000, 102.270, 152.9434
104.400002, 102.451, 152.8226
106.000000, 102.617, 152.0240
107.500000, 102.702, 150.9753
109.000000, 102.740, 149.9257
110.599998, 102.759, 148.8528
112.000000, 102.771, 147.9322
113.800003, 102.776, 146.7415
115.000000, 102.770, 145.9428
117.199997, 102.734, 144.4620
118.000000, 102.713, 143.9371
120.599998, 102.631, 142.2726
122.000000, 102.580, 141.4671
124.099998, 102.495, 140.2986
125.000000, 102.452, 139.8240
126.500000, 102.373, 139.0385
128.000000, 102.285, 138.2562
131.500000, 102.103, 136.7832
132.000000, 102.083, 136.6100
134.000000, 102.015, 136.0063
136.000000, 101.960, 135.4617
138.000000, 101.911, 134.7784
140.000000, 101.856, 133.9153
143.000000, 101.767, 132.4571
145.000000, 101.693, 131.3936
147.500000, 101.560, 129.9452
150.000000, 101.380, 128.4287
152.500000, 101.155, 126.9597
155.000000, 100.894, 125.6729
157.500000, 100.615, 124.5443
160.000000, 100.334, 123.5300
162.500000, 100.057, 122.7078
165.000000, 99.774, 122.0803
167.500000, 99.481, 121.6450
170.000000, 99.197, 121.4184
172.500000, 98.951, 121.3635
175.000000, 98.744, 121.3230
177.500000, 98.558, 121.2458
180.000000, 98.383, 121.0968
182.500000, 98.208, 120.8501
185.000000, 98.026, 120.5963
187.500000, 97.840, 120.3264
190.000000, 97.652, 120.0393
192.500000, 97.462, 119.7610
195.000000, 97.273, 119.5352
197.500000, 97.082, 119.3382
200.000000, 96.880, 119.1594
203.000000, 96.623, 118.9897
206.000000, 96.361, 118.8526
209.000000, 96.109, 118.8166
212.000000, 95.863, 118.9174
214.000000, 95.698, 119.0679
218.000000, 95.366, 119.3869
220.000000, 95.198, 119.5490
224.000000, 94.851, 119.9246
227.000000, 94.584, 120.3506
230.000000, 94.325, 120.9243
233.000000, 94.087, 121.6662
236.000000, 93.869, 122.5187
240.000000, 93.604, 123.6126
243.000000, 93.421, 124.3195
247.000000, 93.177, 125.2576
250.000000, 92.990, 125.9877
254.000000, 92.737, 127.0469
258.000000, 92.489, 128.2421
262.000000, 92.260, 129.6341
265.000000, 92.112, 130.7955
269.000000, 91.934, 132.2946
272.000000, 91.814, 133.4101
276.000000, 91.676, 134.8405
280.000000, 91.546, 136.2246
285.000000, 91.392, 137.8631
290.000000, 91.258, 139.5598
295.000000, 91.153, 141.3865
300.000000, 91.056, 143.0709
304.000000, 91.008, 144.4398
307.000000, 90.987, 145.4572
311.000000, 90.965, 146.6957
315.000000, 90.953, 147.8510
320.000000, 90.950, 149.1600
325.000000, 90.972, 150.3784
330.000000, 90.996, 151.5194
335.000000, 90.999, 152.4145
340.000000, 90.996, 153.0834
345.000000, 90.983, 153.6533
350.000000, 90.971, 154.2956
355.000000, 90.963, 154.9810
360.000000, 90.943, 155.6210
365.000000, 90.924, 156.1970
370.000000, 90.911, 156.8319
375.000000, 90.894, 157.3586
382.000000, 90.857, 158.1841
387.000000, 90.831, 158.7717
395.000000, 90.834, 159.5352
400.000000, 90.860, 159.8741
406.000000, 90.853, 160.0294
412.000000, 90.795, 160.0768
418.000000, 90.735, 160.2927
425.000000, 90.676, 160.3132
431.000000, 90.601, 160.1902
437.000000, 90.499, 160.1359
444.000000, 90.364, 160.2023
450.000000, 90.224, 160.2527
455.000000, 90.098, 160.2784
462.000000, 89.898, 160.3985
468.000000, 89.710, 160.6617
475.000000, 89.493, 161.0882
482.000000, 89.269, 161.5107
487.000000, 89.090, 161.8085
494.000000, 88.804, 162.3978
500.000000, 88.533, 163.2192
508.000000, 88.170, 165.0504
515.000000, 87.905, 167.2846
522.000000, 87.739, 169.7639
530.000000, 87.676, 172.3439
538.000000, 87.676, 174.1992
545.000000, 87.681, 175.3287
552.000000, 87.626, 175.9652
560.000000, 87.442, 176.7685
570.000000, 87.131, 178.5654
580.000000, 86.905, -178.1989
590.000000, 86.883, -176.3757
600.000000, 86.721, -174.9673
608.000000, 86.561, -173.6721
615.000000, 86.413, -172.2447
622.000000, 86.255, -170.6183
630.000000, 86.066, -168.5537
640.000000, 85.859, -165.4765
650.000000, 85.719, -162.1336
660.000000, 85.624, -158.6975
670.000000, 85.574, -155.4629
680.000000, 85.532, -152.4293
690.000000, 85.487, -148.9796
700.000000, 85.527, -145.1492
710.000000, 85.595, -141.5956
720.000000, 85.638, -138.2974
730.000000, 85.750, -134.7754
740.000000, 85.924, -131.3660
750.000000, 86.128, -128.1555
762.000000, 86.393, -124.3063
775.000000, 86.744, -120.1359
788.000000, 87.162, -116.1604
800.000000, 87.595, -112.8817
812.000000, 88.061, -109.8718
825.000000, 88.647, -106.7895
838.000000, 89.334, -104.4346
850.000000, 89.994, -103.4217
862.000000, 90.584, -103.6486
875.000000, 91.013, -104.8861
885.000000, 91.169, -105.7451
900.000000, 91.243, -105.7630
912.000000, 91.289, -104.7380
925.000000, 91.399, -102.9862
938.000000, 91.594, -100.8359
950.000000, 91.877, -98.6211
962.000000, 92.259, -96.7816
975.000000, 92.710, -95.5669
988.000000, 93.124, -94.9804
1000.000000, 93.456, -94.6124
1015.000000, 93.828, -94.1443
1030.000000, 94.185, -93.6384
1044.000000, 94.519, -93.1214
1060.000000, 94.913, -92.6088
1075.000000, 95.278, -92.3718
1090.000000, 95.630, -92.2629
1106.000000, 96.005, -92.2021
1120.000000, 96.324, -92.2211
1138.000000, 96.717, -92.2723
1150.000000, 96.973, -92.3076
1172.000000, 97.441, -92.4107
1180.000000, 97.610, -92.4748
1206.000000, 98.174, -92.8084
1220.000000, 98.481, -93.1506
1241.000000, 98.928, -93.9090
1250.000000, 99.110, -94.3030
1265.000000, 99.393, -95.0451
1280.000000, 99.651, -95.8397
1315.000000, 100.165, -97.4611
1320.000000, 100.234, -97.6448
1340.000000, 100.507, -98.2967
1360.000000, 100.783, -98.8641
1380.000000, 101.090, -99.5018
1400.000000, 101.433, -100.4291
1430.000000, 101.908, -102.5071
1450.000000, 102.175, -104.0470
1475.000000, 102.476, -106.1132
1500.000000, 102.713, -108.4289
1525.000000, 102.858, -110.7280
1550.000000, 102.929, -112.6804
1575.000000, 102.973, -114.2395
1600.000000, 103.027, -115.5127
1625.000000, 103.099, -116.7275
1650.000000, 103.168, -118.0616
1675.000000, 103.202, -119.5443
1700.000000, 103.173, -120.9396
1725.000000, 103.086, -122.0108
1750.000000, 102.970, -122.5657
1775.000000, 102.858, -122.5416
1800.000000, 102.798, -121.8627
1825.000000, 102.850, -120.7651
1850.000000, 103.044, -119.7695
1875.000000, 103.344, -119.4331
1900.000000, 103.663, -120.0191
1925.000000, 103.926, -121.3145
1950.000000, 104.114, -122.9167
1975.000000, 104.234, -124.6261
2000.000000, 104.295, -126.3101
2030.000000, 104.311, -128.1687
2060.000000, 104.284, -129.7947
2090.000000, 104.232, -131.1527
2120.000000, 104.169, -132.3165
2140.000000, 104.127, -133.0134
2180.000000, 104.045, -134.2370
2200.000000, 103.999, -134.8185
2240.000000, 103.896, -135.8580
2270.000000, 103.817, -136.5143
2300.000000, 103.740, -137.1129
2330.000000, 103.664, -137.6842
2360.000000, 103.586, -138.2272
2400.000000, 103.476, -138.9395
2430.000000, 103.385, -139.4173
2470.000000, 103.254, -139.9298
2500.000000, 103.156, -140.2299
2540.000000, 103.036, -140.5197
2580.000000, 102.933, -140.7859
2620.000000, 102.842, -141.1486
2650.000000, 102.774, -141.5040
2690.000000, 102.674, -142.0788
2720.000000, 102.582, -142.6555
2760.000000, 102.423, -143.4769
2800.000000, 102.225, -144.2555
2850.000000, 101.931, -145.2546
2900.000000, 101.551, -146.2478
2950.000000, 101.060, -146.8896
3000.000000, 100.475, -146.8432
3040.000000, 99.967, -146.1456
3070.000000, 99.579, -145.2143
3110.000000, 99.072, -143.4705
3150.000000, 98.580, -141.2493
3200.000000, 97.976, -137.7948
3250.000000, 97.389, -133.3582
3300.000000, 96.851, -127.6853
3350.000000, 96.410, -120.5071
3400.000000, 96.191, -111.0691
3450.000000, 96.567, -99.1922
3500.000000, 97.804, -88.6867
3550.000000, 99.434, -83.6274
3600.000000, 100.906, -83.3072
3650.000000, 102.052, -85.3888
3700.000000, 102.906, -88.5271
3750.000000, 103.508, -92.1627
3820.000000, 103.949, -97.1873
3870.000000, 104.048, -99.9978
3950.000000, 104.084, -102.8224
4000.000000, 104.094, -103.9665
4060.000000, 104.091, -104.9099
4120.000000, 104.099, -105.3696
4180.000000, 104.131, -105.5345
4250.000000, 104.191, -105.4712
4310.000000, 104.281, -105.0928
4370.000000, 104.442, -104.6257
4440.000000, 104.702, -104.5112
4500.000000, 104.923, -104.9157
4550.000000, 105.087, -105.3100
4620.000000, 105.332, -105.7378
4680.000000, 105.607, -106.1794
4750.000000, 105.991, -107.3217
4820.000000, 106.387, -109.1931
4870.000000, 106.673, -110.9581
4940.000000, 107.085, -114.1979
5000.000000, 107.403, -118.0850
5080.000000, 107.602, -124.7285
5150.000000, 107.489, -131.1027
5220.000000, 107.111, -137.2573
5300.000000, 106.382, -143.3319
5380.000000, 105.436, -147.4688
5450.000000, 104.595, -149.4027
5520.000000, 103.856, -150.4269
5600.000000, 103.115, -151.4051
5700.000000, 102.211, -152.8221
5800.000000, 101.176, -154.4108
5900.000000, 99.883, -154.7623
6000.000000, 98.515, -152.3461
6080.000000, 97.585, -148.8488
6150.000000, 96.920, -145.7006
6220.000000, 96.304, -142.9018
6300.000000, 95.538, -139.6279
6400.000000, 94.465, -133.8607
6500.000000, 93.535, -124.7163
6600.000000, 93.179, -113.4553
6700.000000, 93.433, -103.7483
6800.000000, 93.965, -97.0752
6900.000000, 94.439, -92.8956
7000.000000, 94.812, -89.0476
7100.000000, 95.218, -85.1568
7200.000000, 95.709, -81.4092
7300.000000, 96.365, -77.7698
7400.000000, 97.314, -75.2108
7500.000000, 98.424, -75.8241
7620.000000, 99.471, -81.0863
7750.000000, 99.917, -89.6917
7880.000000, 99.491, -98.1918
8000.000000, 98.514, -103.4364
8120.000000, 97.328, -105.1692
8250.000000, 96.175, -103.3637
8380.000000, 95.567, -99.2700
8500.000000, 95.662, -97.0092
8620.000000, 96.183, -99.5260
8750.000000, 96.650, -110.4923
8850.000000, 96.462, -125.1706
9000.000000, 94.662, -158.0094
9120.000000, 91.820, 157.4589
9250.000000, 89.017, 57.6833
9380.000000, 88.853, 14.1823
9500.000000, 90.062, 2.4551
9620.000000, 91.682, -2.8248
9750.000000, 93.296, -9.4099
9880.000000, 94.339, -18.5331
10000.000000, 94.610, -28.3080
10150.000000, 93.822, -39.6704
10300.000000, 91.920, -45.4970
10440.000000, 89.615, -42.0272
10600.000000, 87.774, -21.7446
10750.000000, 88.868, 0.6477
10900.000000, 91.297, 7.6193
11060.000000, 93.745, 2.6531
11200.000000, 94.785, -10.6168
11380.000000, 93.447, -29.3000
11500.000000, 91.276, -35.4884
11720.000000, 86.427, -27.1615
11800.000000, 84.985, -13.9027
12060.000000, 87.101, 41.8380
