* Measurement data measured by REW V5.31
* Source: Headset (DS by VECLAN.COM), MICROPHONE (Master Volume), L, volume: 0.720. Timing signal peak level -24.7 dBFS, measurement signal peak level -17.2 dBFS
* Format: 2M Log Swept Sine, 1 sweep at -12.0 dBFS using an acoustic timing reference
* Dated: Apr 20, 2024 12:21:04 PM
* REW Settings:
*  C-weighting compensation: Off
*  Target level: 75.0 dB
* Note: ; Delay -0.0704 ms (-24 mm, -0.95 in) using estimated IR delay relative to Acoustic reference played from HEADPHONE R with no timing offset
* Measurement: Sony MDR-Z1R R2
* Smoothing: 1/24 octave
* Frequency Step: 1/48 octave
* Start Frequency: 1.000 Hz
*
* Freq(Hz), SPL(dB), Phase(degrees)
1.000000, 82.490, 30.1194
1.015000, 82.619, 29.3857
1.030000, 82.749, 28.6404
1.044000, 82.869, 27.9320
1.060000, 83.007, 27.1041
1.075000, 83.136, 26.3071
1.090000, 83.267, 25.4863
1.106000, 83.407, 24.5804
1.120000, 83.532, 23.7598
1.138000, 83.695, 22.6702
1.150000, 83.805, 21.9258
1.172000, 84.008, 20.5254
1.180000, 84.082, 20.0022
1.206000, 84.323, 18.2841
1.220000, 84.453, 17.3515
1.241000, 84.644, 15.9488
1.250000, 84.726, 15.3475
1.265000, 84.859, 14.3467
1.280000, 84.991, 13.3488
1.315000, 85.285, 11.0378
1.320000, 85.325, 10.7100
1.340000, 85.482, 9.4051
1.360000, 85.631, 8.1114
1.380000, 85.769, 6.7890
1.400000, 85.898, 5.4598
1.430000, 86.068, 3.4757
1.450000, 86.164, 2.1544
1.475000, 86.264, 0.4928
1.500000, 86.337, -1.1942
1.525000, 86.386, -2.9013
1.550000, 86.412, -4.6144
1.575000, 86.421, -6.3430
1.600000, 86.414, -8.0948
1.625000, 86.396, -9.8236
1.650000, 86.370, -11.5249
1.675000, 86.339, -13.1961
1.700000, 86.307, -14.8367
1.725000, 86.277, -16.4477
1.750000, 86.253, -18.0313
1.775000, 86.238, -19.6081
1.800000, 86.235, -21.1994
1.825000, 86.248, -22.7788
1.850000, 86.273, -24.3612
1.875000, 86.306, -25.9552
1.900000, 86.345, -27.5541
1.925000, 86.388, -29.1471
1.950000, 86.436, -30.7239
1.975000, 86.487, -32.2935
2.000000, 86.541, -33.8659
2.030000, 86.608, -35.7059
2.060000, 86.679, -37.4923
2.090000, 86.750, -39.2233
2.120000, 86.823, -40.8994
2.140000, 86.871, -41.9877
2.180000, 86.965, -44.1231
2.200000, 87.012, -45.1878
2.240000, 87.107, -47.3078
2.270000, 87.180, -48.8960
2.300000, 87.255, -50.4715
2.330000, 87.332, -52.0233
2.360000, 87.409, -53.5421
2.400000, 87.513, -55.5507
2.430000, 87.591, -57.0083
2.470000, 87.693, -58.8707
2.500000, 87.768, -60.2045
2.540000, 87.864, -61.9008
2.580000, 87.958, -63.5437
2.620000, 88.049, -65.2000
2.650000, 88.117, -66.4325
2.690000, 88.206, -68.0518
2.720000, 88.271, -69.2385
2.760000, 88.357, -70.7693
2.800000, 88.440, -72.2701
2.850000, 88.540, -74.0368
2.900000, 88.636, -75.6614
2.950000, 88.726, -77.1593
3.000000, 88.810, -78.6255
3.040000, 88.873, -79.7782
3.070000, 88.919, -80.6191
3.110000, 88.978, -81.7002
3.150000, 89.035, -82.7262
3.200000, 89.104, -83.9460
3.250000, 89.173, -85.0601
3.300000, 89.241, -86.0467
3.350000, 89.307, -86.9302
3.400000, 89.370, -87.7737
3.450000, 89.430, -88.5632
3.500000, 89.491, -89.2820
3.550000, 89.554, -89.9244
3.600000, 89.621, -90.5105
3.650000, 89.693, -91.0180
3.700000, 89.770, -91.4305
3.750000, 89.849, -91.7543
3.820000, 89.965, -92.1254
3.870000, 90.054, -92.3366
3.950000, 90.209, -92.6050
4.000000, 90.317, -92.7638
4.060000, 90.458, -92.9237
4.120000, 90.613, -93.0097
4.180000, 90.779, -93.0468
4.250000, 90.984, -93.1056
4.310000, 91.168, -93.1819
4.370000, 91.358, -93.3129
4.440000, 91.590, -93.5482
4.500000, 91.799, -93.7535
4.550000, 91.978, -93.9291
4.620000, 92.235, -94.2383
4.680000, 92.455, -94.5682
4.750000, 92.709, -95.0433
4.820000, 92.961, -95.6272
4.870000, 93.142, -96.0812
4.940000, 93.393, -96.7514
5.000000, 93.605, -97.3751
5.080000, 93.877, -98.2770
5.150000, 94.102, -99.1299
5.220000, 94.317, -100.0659
5.300000, 94.551, -101.1934
5.380000, 94.772, -102.3443
5.450000, 94.952, -103.3717
5.520000, 95.118, -104.4034
5.600000, 95.292, -105.6255
5.700000, 95.488, -107.1921
5.800000, 95.658, -108.7161
5.900000, 95.805, -110.1792
6.000000, 95.926, -111.6204
6.080000, 96.006, -112.7562
6.150000, 96.067, -113.6921
6.220000, 96.119, -114.5743
6.300000, 96.169, -115.5122
6.400000, 96.216, -116.6109
6.500000, 96.251, -117.6196
6.600000, 96.280, -118.4942
6.700000, 96.304, -119.2425
6.800000, 96.323, -119.8793
6.900000, 96.344, -120.4290
7.000000, 96.372, -120.8810
7.100000, 96.407, -121.2398
7.200000, 96.449, -121.5295
7.300000, 96.500, -121.7985
7.400000, 96.562, -122.0491
7.500000, 96.634, -122.2867
7.620000, 96.732, -122.5855
7.750000, 96.847, -122.9815
7.880000, 96.972, -123.4533
8.000000, 97.089, -123.9543
8.120000, 97.202, -124.5458
8.250000, 97.321, -125.2796
8.380000, 97.430, -126.0779
8.500000, 97.519, -126.8698
8.620000, 97.595, -127.7067
8.750000, 97.665, -128.6272
8.850000, 97.708, -129.3295
9.000000, 97.755, -130.3714
9.120000, 97.782, -131.1727
9.250000, 97.801, -131.9872
9.380000, 97.811, -132.7448
9.500000, 97.816, -133.3877
9.620000, 97.818, -133.9605
9.750000, 97.819, -134.5105
9.880000, 97.814, -134.9972
10.000000, 97.805, -135.3811
10.150000, 97.790, -135.8228
10.300000, 97.779, -136.1967
10.440000, 97.775, -136.4915
10.600000, 97.783, -136.7927
10.750000, 97.807, -137.0617
10.900000, 97.846, -137.3339
11.060000, 97.905, -137.6886
11.200000, 97.969, -138.0786
11.380000, 98.063, -138.6672
11.500000, 98.130, -139.1236
11.720000, 98.255, -140.0999
11.800000, 98.301, -140.5038
12.060000, 98.438, -141.9944
12.200000, 98.500, -142.9202
12.410000, 98.569, -144.3689
12.500000, 98.588, -144.9911
12.650000, 98.601, -146.0175
12.800000, 98.595, -146.9910
13.150000, 98.514, -148.9434
13.200000, 98.498, -149.1747
13.400000, 98.424, -149.9322
13.600000, 98.351, -150.4173
13.800000, 98.291, -150.6408
14.000000, 98.256, -150.6758
14.300000, 98.260, -150.6082
14.500000, 98.297, -150.5609
14.750000, 98.365, -150.5960
15.000000, 98.442, -150.7730
15.250000, 98.516, -151.1119
15.500000, 98.576, -151.4785
15.750000, 98.622, -151.8048
16.000000, 98.667, -152.0627
16.250000, 98.723, -152.3425
16.500000, 98.795, -152.6837
16.750000, 98.876, -153.1846
17.000000, 98.950, -153.9053
17.250000, 98.996, -154.8530
17.500000, 98.995, -155.9102
17.750000, 98.940, -156.9166
18.000000, 98.837, -157.7141
18.250000, 98.710, -158.1914
18.500000, 98.590, -158.2851
18.750000, 98.513, -158.0767
19.000000, 98.499, -157.7500
19.250000, 98.549, -157.5755
19.500000, 98.640, -157.7055
19.750000, 98.736, -158.2053
20.000000, 98.806, -159.0150
20.299999, 98.828, -160.1988
20.600000, 98.781, -161.2721
20.900000, 98.698, -161.9739
21.200001, 98.629, -162.2479
21.400000, 98.616, -162.2642
21.799999, 98.690, -162.2920
22.000000, 98.765, -162.4892
22.400000, 98.924, -163.4900
22.700001, 98.995, -164.6301
23.000000, 98.994, -165.8364
23.299999, 98.929, -166.8477
23.600000, 98.830, -167.4457
24.000000, 98.722, -167.5577
24.299999, 98.700, -167.3545
24.700001, 98.752, -167.1407
25.000000, 98.821, -167.2297
25.400000, 98.893, -167.6973
25.799999, 98.912, -168.2641
26.200001, 98.898, -168.6489
26.500000, 98.895, -168.7876
26.900000, 98.930, -168.9427
27.200001, 98.982, -169.2191
27.600000, 99.047, -169.9430
28.000000, 99.062, -170.9771
28.500000, 98.978, -172.2440
29.000000, 98.833, -172.9222
29.500000, 98.741, -173.0082
30.000000, 98.753, -173.0924
30.400000, 98.797, -173.5417
30.700001, 98.814, -174.0954
31.100000, 98.792, -174.9227
31.500000, 98.725, -175.5892
32.000000, 98.638, -175.9828
32.500000, 98.607, -176.1611
33.000000, 98.610, -176.5243
33.500000, 98.579, -177.0612
34.000000, 98.506, -177.3390
34.500000, 98.465, -177.1802
35.000000, 98.524, -177.0380
35.500000, 98.637, -177.5528
36.000000, 98.690, -178.7623
36.500000, 98.624, 179.9249
37.000000, 98.494, 179.0962
37.500000, 98.406, 178.7189
38.200001, 98.398, 177.9153
38.700001, 98.370, 176.8248
39.500000, 98.181, 175.2924
40.000000, 98.060, 174.9420
40.599998, 97.998, 174.7137
41.200001, 97.967, 174.2379
41.799999, 97.897, 173.7675
42.500000, 97.827, 173.6498
43.099998, 97.833, 173.4904
43.700001, 97.828, 172.8315
44.400002, 97.682, 171.9001
45.000000, 97.460, 171.8393
45.500000, 97.305, 172.5303
46.200001, 97.275, 173.8016
46.799999, 97.377, 174.0292
47.500000, 97.418, 173.1054
48.200001, 97.280, 172.3522
48.700001, 97.180, 172.5201
49.400002, 97.196, 173.0324
50.000000, 97.287, 172.7859
50.799999, 97.292, 171.8666
51.500000, 97.221, 171.6143
52.200001, 97.204, 171.7332
53.000000, 97.193, 171.5934
53.799999, 97.096, 171.3879
54.500000, 96.938, 171.4815
55.200001, 96.715, 172.1858
56.000000, 96.501, 174.1695
57.000000, 96.525, 176.8799
58.000000, 96.665, 177.9415
59.000000, 96.754, 178.1987
60.000000, 96.803, 178.1183
60.799999, 96.822, 178.3513
61.500000, 96.912, 178.8741
62.200001, 97.098, 179.1414
63.000000, 97.346, 178.6511
64.000000, 97.551, 177.2472
65.000000, 97.637, 176.0477
66.000000, 97.735, 175.1891
67.000000, 97.851, 173.9463
68.000000, 97.902, 172.2595
69.000000, 97.856, 170.5554
70.000000, 97.747, 169.2728
71.000000, 97.634, 168.3209
72.000000, 97.488, 167.5463
73.000000, 97.308, 167.3190
74.000000, 97.168, 167.6407
75.000000, 97.100, 168.0473
76.199997, 97.067, 168.1917
77.500000, 97.075, 168.2055
78.800003, 97.141, 167.6949
80.000000, 97.191, 167.1072
81.199997, 97.274, 166.4278
82.500000, 97.326, 165.1466
83.800003, 97.218, 163.7393
85.000000, 97.062, 163.0528
86.199997, 96.927, 162.1736
87.500000, 96.723, 160.9180
88.500000, 96.527, 160.0990
90.000000, 96.217, 159.3390
91.199997, 95.943, 159.2425
92.500000, 95.637, 159.9192
93.800003, 95.336, 161.3102
95.000000, 95.100, 163.3295
96.199997, 94.976, 165.6896
97.500000, 94.962, 168.0067
98.800003, 95.034, 170.0784
100.000000, 95.175, 171.6855
101.500000, 95.393, 173.0993
103.000000, 95.631, 173.9027
104.400002, 95.891, 173.8769
106.000000, 96.138, 172.5140
107.500000, 96.332, 171.1937
109.000000, 96.601, 169.3262
110.599998, 96.711, 166.1505
112.000000, 96.537, 164.7310
113.800003, 96.510, 165.0373
115.000000, 96.621, 164.7527
117.199997, 96.748, 163.5150
118.000000, 96.748, 163.2449
120.599998, 96.672, 163.4106
122.000000, 96.667, 163.7209
124.099998, 96.682, 161.6397
125.000000, 96.567, 160.1428
126.500000, 96.259, 158.5502
128.000000, 96.016, 158.3582
131.500000, 95.655, 158.6015
132.000000, 95.616, 158.7130
134.000000, 95.501, 158.8338
136.000000, 95.445, 158.4029
138.000000, 95.406, 157.6128
140.000000, 95.307, 156.5671
143.000000, 95.031, 155.9877
145.000000, 94.899, 156.3536
147.500000, 94.883, 156.7062
150.000000, 94.808, 156.0123
152.500000, 94.570, 155.9095
155.000000, 94.389, 156.3690
157.500000, 94.165, 156.3195
160.000000, 93.973, 157.0012
162.500000, 93.868, 157.4265
165.000000, 93.711, 157.5080
167.500000, 93.572, 157.6269
170.000000, 93.438, 156.8663
172.500000, 93.209, 156.9254
175.000000, 92.999, 157.9112
177.500000, 92.875, 158.8026
180.000000, 92.787, 159.0600
182.500000, 92.668, 159.5200
185.000000, 92.548, 160.2754
187.500000, 92.437, 160.8063
190.000000, 92.352, 161.1717
192.500000, 92.305, 161.7282
195.000000, 92.253, 162.4809
197.500000, 92.152, 163.3393
200.000000, 92.043, 164.2941
203.000000, 91.963, 165.0721
206.000000, 91.840, 165.9269
209.000000, 91.726, 167.0131
212.000000, 91.630, 167.7608
214.000000, 91.610, 168.3524
218.000000, 91.523, 168.8467
220.000000, 91.431, 169.4286
224.000000, 91.383, 171.0556
227.000000, 91.407, 171.7824
230.000000, 91.390, 172.4612
233.000000, 91.397, 173.1365
236.000000, 91.423, 173.7426
240.000000, 91.415, 174.8739
243.000000, 91.372, 175.8159
247.000000, 91.300, 177.1154
250.000000, 91.271, 177.7627
254.000000, 91.264, 178.5085
258.000000, 91.267, 179.6815
262.000000, 91.280, -179.6118
265.000000, 91.308, -178.9839
269.000000, 91.348, -177.9699
272.000000, 91.364, -177.4296
276.000000, 91.371, -176.6384
280.000000, 91.382, -175.7118
285.000000, 91.384, -174.9586
290.000000, 91.405, -173.9251
295.000000, 91.421, -172.7872
300.000000, 91.465, -171.8123
304.000000, 91.528, -171.2408
307.000000, 91.563, -170.6616
311.000000, 91.578, -170.0149
315.000000, 91.592, -169.5085
320.000000, 91.656, -169.0620
325.000000, 91.716, -168.3382
330.000000, 91.793, -167.4163
335.000000, 91.926, -166.4979
340.000000, 92.035, -165.3741
345.000000, 92.140, -164.5677
350.000000, 92.250, -164.0191
355.000000, 92.356, -163.8987
360.000000, 92.440, -163.7485
365.000000, 92.503, -163.4386
370.000000, 92.566, -163.0979
375.000000, 92.627, -162.8785
382.000000, 92.698, -162.4934
387.000000, 92.756, -161.9031
395.000000, 92.880, -161.1563
400.000000, 92.975, -160.4935
406.000000, 93.021, -160.0995
412.000000, 93.096, -160.0255
418.000000, 93.182, -159.9225
425.000000, 93.196, -160.0270
431.000000, 93.207, -159.8813
437.000000, 93.249, -159.9762
444.000000, 93.326, -160.1947
450.000000, 93.411, -160.0456
455.000000, 93.436, -159.9346
462.000000, 93.488, -160.1581
468.000000, 93.614, -160.2491
475.000000, 93.671, -160.0747
482.000000, 93.673, -159.8620
487.000000, 93.685, -159.7414
494.000000, 93.684, -159.4770
500.000000, 93.679, -159.4618
508.000000, 93.660, -159.6486
515.000000, 93.620, -159.4941
522.000000, 93.563, -159.3550
530.000000, 93.518, -158.6694
538.000000, 93.522, -157.7002
545.000000, 93.540, -156.8380
552.000000, 93.564, -155.9516
560.000000, 93.632, -154.9516
570.000000, 93.760, -154.0812
580.000000, 93.892, -153.4938
590.000000, 94.011, -152.9709
600.000000, 94.142, -152.5854
608.000000, 94.232, -152.4426
615.000000, 94.305, -152.3031
622.000000, 94.379, -152.2676
630.000000, 94.446, -152.1768
640.000000, 94.506, -152.0240
650.000000, 94.569, -151.9041
660.000000, 94.643, -151.8488
670.000000, 94.713, -151.8418
680.000000, 94.790, -151.8898
690.000000, 94.854, -152.0101
700.000000, 94.897, -152.1877
710.000000, 94.919, -152.1724
720.000000, 94.940, -152.0469
730.000000, 94.971, -152.0797
740.000000, 94.992, -152.1260
750.000000, 95.002, -152.1145
762.000000, 95.007, -152.1336
775.000000, 95.015, -152.1266
788.000000, 95.018, -152.0506
800.000000, 95.016, -152.0670
812.000000, 95.009, -152.0498
825.000000, 94.989, -151.8898
838.000000, 94.955, -151.7561
850.000000, 94.925, -151.5661
862.000000, 94.910, -151.3163
875.000000, 94.892, -150.9810
885.000000, 94.866, -150.7253
900.000000, 94.816, -150.3262
912.000000, 94.771, -149.9835
925.000000, 94.725, -149.5528
938.000000, 94.688, -149.0680
950.000000, 94.659, -148.5720
962.000000, 94.630, -148.0630
975.000000, 94.605, -147.4932
988.000000, 94.584, -146.9463
1000.000000, 94.564, -146.4196
1015.000000, 94.536, -145.7217
1030.000000, 94.508, -144.9904
1044.000000, 94.483, -144.2306
1060.000000, 94.467, -143.3623
1075.000000, 94.462, -142.5507
1090.000000, 94.464, -141.7332
1106.000000, 94.477, -140.8337
1120.000000, 94.496, -140.0604
1138.000000, 94.529, -139.0713
1150.000000, 94.553, -138.4140
1172.000000, 94.594, -137.1950
1180.000000, 94.610, -136.7521
1206.000000, 94.674, -135.2522
1220.000000, 94.716, -134.4064
1241.000000, 94.789, -133.1191
1250.000000, 94.825, -132.5662
1265.000000, 94.895, -131.6696
1280.000000, 94.973, -130.7937
1315.000000, 95.169, -128.8373
1320.000000, 95.197, -128.5646
1340.000000, 95.302, -127.4699
1360.000000, 95.395, -126.3837
1380.000000, 95.495, -125.3288
1400.000000, 95.609, -124.2880
1430.000000, 95.797, -122.8261
1450.000000, 95.926, -121.8810
1475.000000, 96.088, -120.6937
1500.000000, 96.255, -119.5164
1525.000000, 96.429, -118.4178
1550.000000, 96.603, -117.3094
1575.000000, 96.781, -116.2245
1600.000000, 96.969, -115.1763
1625.000000, 97.168, -114.1586
1650.000000, 97.376, -113.1683
1675.000000, 97.596, -112.2159
1700.000000, 97.827, -111.3632
1725.000000, 98.061, -110.5545
1750.000000, 98.305, -109.8165
1775.000000, 98.548, -109.2681
1800.000000, 98.794, -108.7216
1825.000000, 99.057, -108.1540
1850.000000, 99.344, -107.6891
1875.000000, 99.646, -107.4223
1900.000000, 99.950, -107.4166
1925.000000, 100.245, -107.6758
1950.000000, 100.518, -108.1618
1975.000000, 100.763, -108.7980
2000.000000, 100.986, -109.4640
2030.000000, 101.238, -110.2834
2060.000000, 101.483, -111.0968
2090.000000, 101.723, -111.9680
2120.000000, 101.945, -113.1069
2140.000000, 102.076, -114.0210
2180.000000, 102.281, -115.9716
2200.000000, 102.348, -116.9605
2240.000000, 102.432, -118.8240
2270.000000, 102.469, -120.0874
2300.000000, 102.485, -121.2336
2330.000000, 102.489, -122.2274
2360.000000, 102.501, -123.1203
2400.000000, 102.527, -124.4501
2430.000000, 102.529, -125.5817
2470.000000, 102.493, -127.2474
2500.000000, 102.424, -128.5920
2540.000000, 102.255, -130.3687
2580.000000, 101.979, -131.9225
2620.000000, 101.592, -133.0139
2650.000000, 101.236, -133.3710
2690.000000, 100.696, -133.0092
2720.000000, 100.253, -131.9574
2760.000000, 99.652, -129.0296
2800.000000, 99.160, -123.9093
2850.000000, 99.007, -114.6497
2900.000000, 99.667, -104.4418
2950.000000, 101.153, -96.7523
3000.000000, 103.098, -94.4837
3040.000000, 104.626, -97.0330
3070.000000, 105.602, -101.0828
3110.000000, 106.570, -108.4591
3150.000000, 107.118, -116.9216
3200.000000, 107.273, -127.3775
3250.000000, 107.015, -136.5916
3300.000000, 106.521, -144.3087
3350.000000, 105.900, -150.8613
3400.000000, 105.205, -156.6846
3450.000000, 104.415, -162.2289
3500.000000, 103.448, -167.5436
3550.000000, 102.193, -172.1523
3600.000000, 100.567, -174.6721
3650.000000, 98.715, -172.6564
3700.000000, 97.165, -165.4287
3750.000000, 96.372, -156.5385
3820.000000, 96.133, -147.7805
3870.000000, 96.078, -144.2108
3950.000000, 95.820, -140.0112
4000.000000, 95.596, -137.3846
4060.000000, 95.321, -134.0837
4120.000000, 95.074, -130.5887
4180.000000, 94.865, -127.0243
4250.000000, 94.662, -122.8206
4310.000000, 94.525, -119.0563
4370.000000, 94.440, -115.1827
4440.000000, 94.423, -110.6626
4500.000000, 94.473, -106.9563
4550.000000, 94.560, -103.9307
4620.000000, 94.771, -100.0009
4680.000000, 95.028, -97.0905
4750.000000, 95.377, -94.4348
4820.000000, 95.745, -92.6186
4870.000000, 96.004, -91.8096
4940.000000, 96.345, -91.2508
5000.000000, 96.604, -91.3187
5080.000000, 96.871, -92.1817
5150.000000, 97.006, -93.6777
5220.000000, 97.013, -95.6937
5300.000000, 96.808, -98.3850
5380.000000, 96.332, -100.7923
5450.000000, 95.711, -102.0667
5520.000000, 94.956, -102.1135
5600.000000, 94.004, -100.3259
5700.000000, 92.838, -95.0063
5800.000000, 91.953, -86.6934
5900.000000, 91.530, -76.7488
6000.000000, 91.577, -66.9632
6080.000000, 91.878, -59.8995
6150.000000, 92.281, -54.4729
6220.000000, 92.786, -49.8344
6300.000000, 93.463, -45.4628
6400.000000, 94.422, -41.7304
6500.000000, 95.413, -40.2801
6600.000000, 96.285, -41.2189
6700.000000, 96.899, -43.9824
6800.000000, 97.185, -47.5878
6900.000000, 97.152, -51.0554
7000.000000, 96.853, -53.4924
7100.000000, 96.382, -54.2417
7200.000000, 95.882, -53.0634
7300.000000, 95.507, -50.2745
7400.000000, 95.345, -46.8327
7500.000000, 95.382, -43.5871
7620.000000, 95.591, -40.7210
7750.000000, 95.832, -39.1149
7880.000000, 95.807, -38.1161
8000.000000, 95.601, -36.0844
8120.000000, 95.476, -32.3440
8250.000000, 95.717, -27.2990
8380.000000, 96.507, -23.1421
8500.000000, 97.696, -22.4394
8620.000000, 99.046, -27.0264
8750.000000, 100.077, -39.0799
8850.000000, 100.175, -52.2248
9000.000000, 98.878, -75.0084
9120.000000, 96.535, -94.6965
9250.000000, 92.571, -119.6907
9380.000000, 88.808, 134.1484
9500.000000, 90.198, 62.3199
9620.000000, 93.299, 46.0548
9750.000000, 95.763, 30.5554
9880.000000, 96.943, 14.2455
10000.000000, 96.876, 0.2465
10150.000000, 95.567, -11.8651
10300.000000, 93.705, -15.0312
10440.000000, 92.479, -11.4036
10600.000000, 92.278, -8.3085
10750.000000, 92.390, -13.4834
10900.000000, 91.190, -24.3348
11060.000000, 87.872, -7.7317
11200.000000, 87.229, 32.1185
11380.000000, 89.267, 37.9859
11500.000000, 90.155, 35.1029
11720.000000, 90.530, 29.6616
11800.000000, 90.478, 28.6214
12060.000000, 90.146, 25.6174
12200.000000, 89.668, 23.7466
12410.000000, 88.337, 25.3473
12500.000000, 87.963, 30.1262
12650.000000, 88.727, 39.3658
12800.000000, 90.549, 37.8911
13150.000000, 89.653, 4.8511
13200.000000, 88.844, 2.4254
13400.000000, 85.887, 11.9896
13600.000000, 85.420, 14.1241
13800.000000, 83.493, 2.9987
