* Measurement data measured by REW V5.31
* Source: Headset (DS by VECLAN.COM), MICROPHONE (Master Volume), L, volume: 0.720. Timing signal peak level -20.2 dBFS, measurement signal peak level -17.6 dBFS
* Format: 2M Log Swept Sine, 1 sweep at -12.0 dBFS using an acoustic timing reference
* Dated: Apr 18, 2024 6:19:16 PM
* REW Settings:
*  C-weighting compensation: Off
*  Target level: 75.0 dB
* Note: ; test Delay -0.0887 ms (-30 mm, -1.2 in) using estimated IR delay relative to Acoustic reference played from HEADPHONE L with no timing offset
* Measurement: Sony MDR-Z1R L3
* Smoothing: 1/24 octave
* Frequency Step: 1/48 octave
* Start Frequency: 1.000 Hz
*
* Freq(Hz), SPL(dB), Phase(degrees)
1.000000, 79.453, -79.5125
1.015000, 79.698, -78.0250
1.030000, 79.941, -76.6304
1.044000, 80.164, -75.4114
1.060000, 80.415, -74.1146
1.075000, 80.643, -72.9896
1.090000, 80.865, -71.9485
1.106000, 81.098, -70.9157
1.120000, 81.305, -70.0552
1.138000, 81.580, -68.9928
1.150000, 81.768, -68.3107
1.172000, 82.121, -67.1217
1.180000, 82.252, -66.7135
1.206000, 82.684, -65.4514
1.220000, 82.919, -64.8124
1.241000, 83.272, -63.9067
1.250000, 83.424, -63.5378
1.265000, 83.675, -62.9479
1.280000, 83.924, -62.3892
1.315000, 84.490, -61.2031
1.320000, 84.569, -61.0468
1.340000, 84.877, -60.4539
1.360000, 85.173, -59.9102
1.380000, 85.453, -59.4537
1.400000, 85.716, -59.0596
1.430000, 86.072, -58.5557
1.450000, 86.281, -58.2756
1.475000, 86.507, -57.9765
1.500000, 86.695, -57.7069
1.525000, 86.849, -57.4548
1.550000, 86.974, -57.2201
1.575000, 87.072, -57.0260
1.600000, 87.148, -56.8911
1.625000, 87.206, -56.7776
1.650000, 87.250, -56.6870
1.675000, 87.284, -56.6204
1.700000, 87.312, -56.5789
1.725000, 87.338, -56.5634
1.750000, 87.366, -56.5751
1.775000, 87.400, -56.6317
1.800000, 87.443, -56.7503
1.825000, 87.499, -56.8964
1.850000, 87.564, -57.0644
1.875000, 87.631, -57.2444
1.900000, 87.698, -57.4321
1.925000, 87.764, -57.6264
1.950000, 87.829, -57.8262
1.975000, 87.894, -58.0481
2.000000, 87.958, -58.3080
2.030000, 88.034, -58.6259
2.060000, 88.109, -58.9524
2.090000, 88.183, -59.2883
2.120000, 88.257, -59.6347
2.140000, 88.306, -59.8719
2.180000, 88.403, -60.3838
2.200000, 88.451, -60.6678
2.240000, 88.547, -61.2483
2.270000, 88.617, -61.6905
2.300000, 88.687, -62.1356
2.330000, 88.757, -62.5817
2.360000, 88.826, -63.0279
2.400000, 88.916, -63.6690
2.430000, 88.984, -64.1543
2.470000, 89.073, -64.7979
2.500000, 89.140, -65.2780
2.540000, 89.229, -65.9157
2.580000, 89.317, -66.5714
2.620000, 89.405, -67.2676
2.650000, 89.470, -67.7895
2.690000, 89.556, -68.4824
2.720000, 89.621, -68.9976
2.760000, 89.706, -69.6743
2.800000, 89.791, -70.3787
2.850000, 89.895, -71.2455
2.900000, 89.999, -72.0882
2.950000, 90.102, -72.9106
3.000000, 90.203, -73.7544
3.040000, 90.283, -74.4336
3.070000, 90.342, -74.9366
3.110000, 90.421, -75.5959
3.150000, 90.500, -76.2400
3.200000, 90.597, -77.0508
3.250000, 90.695, -77.8452
3.300000, 90.792, -78.6081
3.350000, 90.890, -79.3449
3.400000, 90.987, -80.0952
3.450000, 91.083, -80.8385
3.500000, 91.180, -81.5583
3.550000, 91.276, -82.2517
3.600000, 91.373, -82.9435
3.650000, 91.471, -83.6176
3.700000, 91.568, -84.2636
3.750000, 91.666, -84.8849
3.820000, 91.803, -85.7529
3.870000, 91.901, -86.3563
3.950000, 92.061, -87.2822
4.000000, 92.161, -87.8589
4.060000, 92.284, -88.5370
4.120000, 92.408, -89.1850
4.180000, 92.534, -89.8138
4.250000, 92.682, -90.5562
4.310000, 92.810, -91.1773
4.370000, 92.938, -91.7944
4.440000, 93.088, -92.5371
4.500000, 93.217, -93.1595
4.550000, 93.326, -93.6676
4.620000, 93.477, -94.3968
4.680000, 93.606, -95.0247
4.750000, 93.754, -95.7589
4.820000, 93.901, -96.5205
4.870000, 94.005, -97.0690
4.940000, 94.150, -97.8325
5.000000, 94.271, -98.4976
5.080000, 94.427, -99.3917
5.150000, 94.558, -100.1742
5.220000, 94.683, -100.9869
5.300000, 94.820, -101.9266
5.380000, 94.950, -102.8547
5.450000, 95.056, -103.6641
5.520000, 95.154, -104.4536
5.600000, 95.257, -105.3623
5.700000, 95.374, -106.4976
5.800000, 95.476, -107.5750
5.900000, 95.563, -108.5848
6.000000, 95.634, -109.5465
6.080000, 95.682, -110.2856
6.150000, 95.719, -110.8765
6.220000, 95.751, -111.4205
6.300000, 95.783, -111.9738
6.400000, 95.814, -112.5846
6.500000, 95.841, -113.1116
6.600000, 95.870, -113.5283
6.700000, 95.902, -113.8375
6.800000, 95.935, -114.0504
6.900000, 95.977, -114.2082
7.000000, 96.032, -114.3122
7.100000, 96.099, -114.3616
7.200000, 96.177, -114.3840
7.300000, 96.266, -114.4388
7.400000, 96.368, -114.5325
7.500000, 96.482, -114.6651
7.620000, 96.627, -114.9018
7.750000, 96.788, -115.3092
7.880000, 96.952, -115.8680
8.000000, 97.099, -116.4952
8.120000, 97.233, -117.2455
8.250000, 97.364, -118.1878
8.380000, 97.476, -119.2060
8.500000, 97.559, -120.1959
8.620000, 97.621, -121.2298
8.750000, 97.669, -122.3467
8.850000, 97.692, -123.1780
9.000000, 97.705, -124.3835
9.120000, 97.701, -125.2935
9.250000, 97.689, -126.1989
9.380000, 97.668, -127.0275
9.500000, 97.647, -127.7391
9.620000, 97.629, -128.3925
9.750000, 97.609, -129.0493
9.880000, 97.585, -129.6888
10.000000, 97.557, -130.2695
10.150000, 97.514, -131.0249
10.300000, 97.461, -131.7836
10.440000, 97.400, -132.5004
10.600000, 97.317, -133.2857
10.750000, 97.224, -133.9611
10.900000, 97.118, -134.5401
11.060000, 96.995, -134.9898
11.200000, 96.883, -135.2325
11.380000, 96.751, -135.2366
11.500000, 96.678, -135.0259
11.720000, 96.607, -134.3095
11.800000, 96.610, -133.9746
12.060000, 96.739, -132.8875
12.200000, 96.884, -132.5260
12.410000, 97.175, -132.4069
12.500000, 97.313, -132.5720
12.650000, 97.552, -133.1374
12.800000, 97.782, -134.0420
13.150000, 98.204, -137.3228
13.200000, 98.246, -137.8817
13.400000, 98.359, -140.2265
13.600000, 98.384, -142.5407
13.800000, 98.327, -144.6466
14.000000, 98.210, -146.3607
14.300000, 97.977, -148.0551
14.500000, 97.838, -148.5119
14.750000, 97.736, -148.5349
15.000000, 97.746, -148.3002
15.250000, 97.862, -148.3122
15.500000, 98.028, -148.7780
15.750000, 98.187, -149.7350
16.000000, 98.294, -151.0408
16.250000, 98.331, -152.4818
16.500000, 98.306, -153.7832
16.750000, 98.245, -154.7665
17.000000, 98.184, -155.4029
17.250000, 98.153, -155.8139
17.500000, 98.164, -156.1515
17.750000, 98.204, -156.5977
18.000000, 98.249, -157.2442
18.250000, 98.270, -158.0946
18.500000, 98.247, -158.9995
18.750000, 98.174, -159.7814
19.000000, 98.066, -160.2729
19.250000, 97.948, -160.3871
19.500000, 97.854, -160.1039
19.750000, 97.811, -159.5310
20.000000, 97.831, -158.8617
20.299999, 97.931, -158.2395
20.600000, 98.080, -157.9903
20.900000, 98.236, -158.1661
21.200001, 98.369, -158.7032
21.400000, 98.439, -159.1919
21.799999, 98.533, -160.3263
22.000000, 98.561, -160.9404
22.400000, 98.586, -162.2868
22.700001, 98.574, -163.3908
23.000000, 98.522, -164.5615
23.299999, 98.419, -165.7334
23.600000, 98.258, -166.7276
24.000000, 97.973, -167.4030
24.299999, 97.755, -167.2120
24.700001, 97.576, -166.0276
25.000000, 97.595, -164.8533
25.400000, 97.836, -163.9176
25.799999, 98.194, -164.4655
26.200001, 98.482, -166.4670
26.500000, 98.577, -168.4432
26.900000, 98.535, -170.8530
27.200001, 98.431, -172.0312
27.600000, 98.336, -172.5963
28.000000, 98.415, -172.6581
28.500000, 98.715, -173.6625
29.000000, 98.941, -176.3073
29.500000, 98.855, -179.3580
30.000000, 98.503, 179.0399
30.400000, 98.211, 179.3577
30.700001, 98.082, -179.7513
31.100000, 98.048, -178.4616
31.500000, 98.091, -177.6435
32.000000, 98.100, -177.1143
32.500000, 98.055, -176.3836
33.000000, 98.084, -175.3650
33.500000, 98.223, -174.9575
34.000000, 98.339, -175.6643
34.500000, 98.305, -176.9253
35.000000, 98.153, -177.7805
35.500000, 98.034, -177.9734
36.000000, 98.047, -178.1680
36.500000, 98.137, -179.1022
37.000000, 98.188, 179.2507
37.500000, 98.163, 177.4190
38.200001, 98.082, 175.1372
38.700001, 98.024, 173.5526
39.500000, 97.822, 171.1116
40.000000, 97.605, 170.2341
40.599998, 97.357, 170.2280
41.200001, 97.223, 170.7860
41.799999, 97.158, 171.0488
42.500000, 97.011, 170.9130
43.099998, 96.790, 171.0481
43.700001, 96.549, 171.7511
44.400002, 96.337, 172.9765
45.000000, 96.230, 173.7973
45.500000, 96.160, 174.0652
46.200001, 96.012, 173.9698
46.799999, 95.828, 174.0029
47.500000, 95.652, 174.6521
48.200001, 95.634, 175.3739
48.700001, 95.682, 175.4487
49.400002, 95.721, 175.1382
50.000000, 95.727, 175.0824
50.799999, 95.803, 175.3200
51.500000, 95.882, 175.2399
52.200001, 95.856, 175.4625
53.000000, 95.859, 177.1709
53.799999, 96.114, 178.9475
54.500000, 96.362, 179.1657
55.200001, 96.462, 179.0614
56.000000, 96.573, 179.6775
57.000000, 96.914, 179.5955
58.000000, 97.095, 177.8984
59.000000, 97.217, 177.2630
60.000000, 97.578, 175.9574
60.799999, 97.750, 173.5115
61.500000, 97.698, 171.4576
62.200001, 97.524, 170.2502
63.000000, 97.290, 170.1432
64.000000, 97.145, 171.0249
65.000000, 97.100, 170.6863
66.000000, 96.831, 169.5972
67.000000, 96.503, 169.4112
68.000000, 96.300, 169.3423
69.000000, 96.237, 168.9267
70.000000, 96.206, 167.4037
71.000000, 95.949, 166.4728
72.000000, 95.761, 167.8735
73.000000, 95.783, 169.3803
74.000000, 95.780, 170.7054
75.000000, 95.855, 172.3323
76.199997, 96.056, 172.5737
77.500000, 96.004, 170.9790
78.800003, 95.820, 170.8689
80.000000, 95.848, 170.7780
81.199997, 95.789, 170.1181
82.500000, 95.655, 170.5888
83.800003, 95.675, 171.0793
85.000000, 95.660, 169.8545
86.199997, 95.467, 168.5736
87.500000, 95.360, 167.7811
88.500000, 95.296, 167.0444
90.000000, 95.258, 167.7555
91.199997, 95.366, 168.7793
92.500000, 95.477, 169.9908
93.800003, 95.552, 170.6567
95.000000, 95.504, 170.8473
96.199997, 95.426, 171.1229
97.500000, 95.404, 171.3516
98.800003, 95.472, 171.6121
100.000000, 95.629, 171.8591
101.500000, 95.814, 171.8466
103.000000, 95.921, 172.2787
104.400002, 96.031, 172.7576
106.000000, 96.200, 172.6999
107.500000, 96.352, 171.7960
109.000000, 96.512, 170.9931
110.599998, 96.726, 169.9608
112.000000, 96.809, 168.6445
113.800003, 96.747, 167.5047
115.000000, 96.714, 166.6846
117.199997, 96.650, 163.7043
118.000000, 96.587, 162.5084
120.599998, 96.416, 160.8895
122.000000, 96.359, 160.9674
124.099998, 96.223, 161.9932
125.000000, 96.163, 162.2827
126.500000, 96.072, 162.2259
128.000000, 96.025, 161.2759
131.500000, 95.933, 158.2888
132.000000, 95.925, 158.1691
134.000000, 95.894, 157.8010
136.000000, 95.728, 156.9538
138.000000, 95.425, 155.8527
140.000000, 95.156, 155.4251
143.000000, 95.115, 155.1439
145.000000, 95.039, 154.2119
147.500000, 94.717, 153.5426
150.000000, 94.415, 153.6486
152.500000, 94.208, 153.2879
155.000000, 93.984, 152.8352
157.500000, 93.786, 152.8412
160.000000, 93.633, 152.9223
162.500000, 93.450, 152.9760
165.000000, 93.224, 153.1208
167.500000, 92.996, 153.4685
170.000000, 92.779, 154.0343
172.500000, 92.583, 154.7422
175.000000, 92.431, 155.9380
177.500000, 92.334, 156.7877
180.000000, 92.121, 157.0556
182.500000, 91.918, 157.5722
185.000000, 91.851, 158.0983
187.500000, 91.804, 158.7393
190.000000, 91.683, 160.0664
192.500000, 91.572, 161.5437
195.000000, 91.487, 162.4264
197.500000, 91.397, 163.1314
200.000000, 91.332, 163.8056
203.000000, 91.287, 164.2883
206.000000, 91.207, 164.8266
209.000000, 91.072, 165.9300
212.000000, 90.962, 166.7582
214.000000, 90.902, 166.9090
218.000000, 90.838, 167.1677
220.000000, 90.852, 167.5042
224.000000, 90.890, 168.1643
227.000000, 90.809, 168.6355
230.000000, 90.677, 170.1138
233.000000, 90.564, 171.8338
236.000000, 90.458, 173.2440
240.000000, 90.448, 174.5231
243.000000, 90.502, 175.1798
247.000000, 90.418, 175.9831
250.000000, 90.288, 176.5539
254.000000, 90.198, 177.1631
258.000000, 90.208, 178.5445
262.000000, 90.217, 179.6150
265.000000, 90.181, -179.8006
269.000000, 90.124, -178.8406
272.000000, 90.091, -178.1276
276.000000, 90.017, -177.0148
280.000000, 89.919, -176.4744
285.000000, 89.950, -176.2722
290.000000, 89.995, -174.4753
295.000000, 89.991, -172.9388
300.000000, 89.992, -171.6105
304.000000, 90.029, -170.7363
307.000000, 90.036, -170.1746
311.000000, 89.995, -169.4161
315.000000, 90.007, -168.2567
320.000000, 90.039, -167.0325
325.000000, 90.041, -166.0483
330.000000, 90.061, -164.6165
335.000000, 90.094, -163.3121
340.000000, 90.124, -162.3855
345.000000, 90.151, -161.3416
350.000000, 90.200, -160.0440
355.000000, 90.282, -158.6049
360.000000, 90.422, -157.0996
365.000000, 90.658, -155.8368
370.000000, 90.890, -155.5613
375.000000, 91.017, -155.8038
382.000000, 91.098, -155.7311
387.000000, 91.118, -155.2827
395.000000, 91.111, -154.6509
400.000000, 91.131, -154.4276
406.000000, 91.168, -154.0329
412.000000, 91.192, -153.4976
418.000000, 91.222, -152.7895
425.000000, 91.280, -151.8269
431.000000, 91.334, -151.2098
437.000000, 91.378, -150.7087
444.000000, 91.428, -150.1175
450.000000, 91.468, -149.6866
455.000000, 91.501, -149.2486
462.000000, 91.558, -148.5613
468.000000, 91.620, -147.8773
475.000000, 91.676, -147.2328
482.000000, 91.716, -146.7234
487.000000, 91.734, -146.3701
494.000000, 91.764, -145.5215
500.000000, 91.796, -144.8967
508.000000, 91.837, -144.0709
515.000000, 91.874, -143.1696
522.000000, 91.927, -142.4154
530.000000, 92.020, -141.6931
538.000000, 92.118, -140.9489
545.000000, 92.193, -140.2541
552.000000, 92.281, -139.5967
560.000000, 92.386, -139.0057
570.000000, 92.497, -138.3545
580.000000, 92.592, -137.6983
590.000000, 92.695, -137.0262
600.000000, 92.799, -136.3259
608.000000, 92.884, -135.8026
615.000000, 92.961, -135.3496
622.000000, 93.043, -134.9752
630.000000, 93.133, -134.6245
640.000000, 93.231, -134.0407
650.000000, 93.319, -133.5250
660.000000, 93.447, -132.9728
670.000000, 93.591, -132.5577
680.000000, 93.692, -132.2246
690.000000, 93.758, -132.1401
700.000000, 93.843, -131.9615
710.000000, 93.919, -131.7408
720.000000, 93.993, -131.6245
730.000000, 94.073, -131.5569
740.000000, 94.146, -131.6118
750.000000, 94.210, -131.6233
762.000000, 94.281, -131.5792
775.000000, 94.343, -131.5158
788.000000, 94.394, -131.5789
800.000000, 94.428, -131.5979
812.000000, 94.440, -131.5280
825.000000, 94.427, -131.3871
838.000000, 94.417, -131.4985
850.000000, 94.395, -131.6127
862.000000, 94.352, -131.5230
875.000000, 94.291, -131.3298
885.000000, 94.240, -131.0701
900.000000, 94.170, -130.5435
912.000000, 94.128, -130.1274
925.000000, 94.096, -129.6882
938.000000, 94.066, -129.2202
950.000000, 94.027, -128.8466
962.000000, 93.973, -128.5625
975.000000, 93.897, -128.1777
988.000000, 93.802, -127.6511
1000.000000, 93.720, -126.9809
1015.000000, 93.637, -126.0275
1030.000000, 93.553, -125.1449
1044.000000, 93.473, -124.3836
1060.000000, 93.386, -123.4703
1075.000000, 93.296, -122.4280
1090.000000, 93.205, -121.2543
1106.000000, 93.121, -119.9187
1120.000000, 93.058, -118.6850
1138.000000, 92.995, -117.1590
1150.000000, 92.956, -116.1216
1172.000000, 92.892, -114.1177
1180.000000, 92.870, -113.3563
1206.000000, 92.818, -110.6322
1220.000000, 92.802, -109.0908
1241.000000, 92.804, -106.8313
1250.000000, 92.816, -105.8482
1265.000000, 92.844, -104.2127
1280.000000, 92.880, -102.5594
1315.000000, 92.997, -98.5588
1320.000000, 93.018, -98.0034
1340.000000, 93.106, -95.8503
1360.000000, 93.181, -93.7053
1380.000000, 93.258, -91.5773
1400.000000, 93.362, -89.4569
1430.000000, 93.540, -86.1596
1450.000000, 93.680, -83.9962
1475.000000, 93.892, -81.3300
1500.000000, 94.127, -78.7127
1525.000000, 94.380, -76.1837
1550.000000, 94.641, -73.7392
1575.000000, 94.907, -71.4004
1600.000000, 95.202, -69.1808
1625.000000, 95.530, -67.1369
1650.000000, 95.860, -65.3105
1675.000000, 96.183, -63.6009
1700.000000, 96.510, -61.9845
1725.000000, 96.848, -60.4303
1750.000000, 97.196, -58.9155
1775.000000, 97.559, -57.5612
1800.000000, 97.932, -56.4054
1825.000000, 98.309, -55.5077
1850.000000, 98.672, -54.7581
1875.000000, 99.026, -54.0698
1900.000000, 99.389, -53.4774
1925.000000, 99.770, -52.9810
1950.000000, 100.170, -52.7318
1975.000000, 100.564, -52.8502
2000.000000, 100.926, -53.3021
2030.000000, 101.317, -54.2529
2060.000000, 101.649, -55.2565
2090.000000, 101.933, -56.1306
2120.000000, 102.188, -57.0993
2140.000000, 102.343, -57.8073
2180.000000, 102.623, -59.2133
2200.000000, 102.751, -59.9632
2240.000000, 102.976, -61.6596
2270.000000, 103.093, -63.0278
2300.000000, 103.165, -64.4100
2330.000000, 103.210, -65.8035
2360.000000, 103.227, -67.2056
2400.000000, 103.189, -69.1195
2430.000000, 103.110, -70.4835
2470.000000, 102.938, -72.2144
2500.000000, 102.747, -73.4151
2540.000000, 102.413, -74.5965
2580.000000, 102.010, -75.2298
2620.000000, 101.541, -75.2903
2650.000000, 101.144, -74.8957
2690.000000, 100.553, -73.5901
2720.000000, 100.069, -71.8454
2760.000000, 99.420, -68.0593
2800.000000, 98.874, -62.1686
2850.000000, 98.596, -52.0314
2900.000000, 99.053, -40.4762
2950.000000, 100.390, -30.3547
3000.000000, 102.375, -25.2253
3040.000000, 104.026, -25.9670
3070.000000, 105.107, -29.0075
3110.000000, 106.209, -35.4680
3150.000000, 106.859, -43.3798
3200.000000, 107.081, -53.4023
3250.000000, 106.819, -62.3087
3300.000000, 106.234, -69.5642
3350.000000, 105.436, -75.0521
3400.000000, 104.569, -78.7532
3450.000000, 103.760, -81.5624
3500.000000, 102.916, -84.6277
3550.000000, 101.796, -87.3792
3600.000000, 100.343, -87.7476
3650.000000, 98.834, -84.2093
3700.000000, 97.656, -77.5265
3750.000000, 96.987, -70.2682
3820.000000, 96.584, -62.3162
3870.000000, 96.377, -58.1426
3950.000000, 95.977, -52.1432
4000.000000, 95.730, -48.3724
4060.000000, 95.452, -43.9161
4120.000000, 95.179, -39.4263
4180.000000, 94.923, -34.8350
4250.000000, 94.662, -29.3409
4310.000000, 94.480, -24.4670
4370.000000, 94.343, -19.4745
4440.000000, 94.255, -13.5447
4500.000000, 94.244, -8.5356
4550.000000, 94.276, -4.4155
4620.000000, 94.392, 1.0701
4680.000000, 94.559, 5.4276
4750.000000, 94.808, 9.9917
4820.000000, 95.087, 13.9443
4870.000000, 95.293, 16.3827
4940.000000, 95.573, 19.3374
5000.000000, 95.785, 21.4122
5080.000000, 96.017, 23.5482
5150.000000, 96.160, 24.8673
5220.000000, 96.228, 25.8021
5300.000000, 96.163, 26.6284
5380.000000, 95.938, 27.6154
5450.000000, 95.632, 28.7869
5520.000000, 95.238, 30.4389
5600.000000, 94.705, 33.1570
5700.000000, 93.968, 38.1393
5800.000000, 93.242, 45.2189
5900.000000, 92.679, 54.5181
6000.000000, 92.482, 65.3190
6080.000000, 92.654, 74.0186
6150.000000, 92.995, 80.9976
6220.000000, 93.460, 87.1445
6300.000000, 94.098, 93.2193
6400.000000, 95.029, 99.1985
6500.000000, 96.047, 102.9099
6600.000000, 96.984, 103.9662
6700.000000, 97.658, 102.8947
6800.000000, 97.993, 100.6960
6900.000000, 97.974, 98.2902
7000.000000, 97.608, 96.6297
7100.000000, 96.956, 96.7733
7200.000000, 96.201, 99.4155
7300.000000, 95.560, 104.2359
7400.000000, 95.134, 109.9716
7500.000000, 94.883, 115.7830
7620.000000, 94.711, 122.4129
7750.000000, 94.535, 129.0076
7880.000000, 94.058, 135.9504
8000.000000, 93.409, 145.8430
8120.000000, 93.243, 161.4836
8250.000000, 94.506, -179.8917
8380.000000, 96.879, -168.1559
8500.000000, 99.238, -164.8525
8620.000000, 101.388, -167.3510
8750.000000, 103.198, -175.7697
8850.000000, 103.978, 174.6730
9000.000000, 103.833, 158.9439
9120.000000, 102.682, 148.9000
9250.000000, 100.851, 142.8779
9380.000000, 98.900, 141.4818
9500.000000, 97.166, 142.7808
9620.000000, 95.432, 146.3544
9750.000000, 93.559, 154.1897
9880.000000, 92.094, 167.1587
10000.000000, 91.586, -179.2034
10150.000000, 91.852, -166.0012
10300.000000, 92.448, -157.4839
10440.000000, 93.065, -152.2761
10600.000000, 93.882, -149.7855
10750.000000, 94.460, -152.3676
10900.000000, 94.310, -158.5183
11060.000000, 93.234, -164.7349
11200.000000, 91.832, -169.1777
11380.000000, 89.085, -173.2281
11500.000000, 86.445, -169.4055
11720.000000, 82.163, -139.8519
11800.000000, 81.522, -129.2997
12060.000000, 79.928, -102.1390
12200.000000, 80.445, -76.9759
12410.000000, 83.422, -60.7470
12500.000000, 83.759, -63.6837
12650.000000, 82.723, -64.4859
12800.000000, 81.910, -48.0405
13150.000000, 86.088, -31.7681
13200.000000, 86.497, -34.3255
13400.000000, 87.585, -48.8019
13600.000000, 87.120, -68.2531
13800.000000, 84.872, -80.4845
14000.000000, 83.811, -70.6261
