* Measurement data measured by REW V5.31
* Source: Headset (DS by VECLAN.COM), MICROPHONE (Master Volume), L, volume: 0.720. Timing signal peak level -16.0 dBFS, measurement signal peak level -15.7 dBFS
* Format: 2M Log Swept Sine, 1 sweep at -12.0 dBFS using an acoustic timing reference
* Dated: Apr 20, 2024 1:48:09 PM
* REW Settings:
*  C-weighting compensation: Off
*  Target level: 75.0 dB
* Note: ; Delay -0.0733 ms (-25 mm, -0.99 in) using estimated IR delay relative to Acoustic reference played from HEADPHONE L with no timing offset
* Measurement: Sony MDR-7506 L3
* Smoothing: 1/24 octave
* Frequency Step: 1/48 octave
* Start Frequency: 1.000 Hz
*
* Freq(Hz), SPL(dB), Phase(degrees)
1.000000, 81.180, 98.0316
1.015000, 81.211, 98.4508
1.030000, 81.238, 98.8832
1.044000, 81.260, 99.2999
1.060000, 81.280, 99.7928
1.075000, 81.296, 100.2724
1.090000, 81.307, 100.7689
1.106000, 81.316, 101.3109
1.120000, 81.320, 101.7831
1.138000, 81.322, 102.3803
1.150000, 81.320, 102.7733
1.172000, 81.310, 103.4816
1.180000, 81.304, 103.7320
1.206000, 81.278, 104.5513
1.220000, 81.258, 104.9993
1.241000, 81.222, 105.6865
1.250000, 81.203, 105.9884
1.265000, 81.169, 106.5036
1.280000, 81.129, 107.0367
1.315000, 81.016, 108.3683
1.320000, 80.997, 108.5703
1.340000, 80.916, 109.4134
1.360000, 80.825, 110.3200
1.380000, 80.724, 111.2600
1.400000, 80.611, 112.2665
1.430000, 80.419, 113.9496
1.450000, 80.276, 115.2003
1.475000, 80.070, 116.9100
1.500000, 79.818, 118.7570
1.525000, 79.516, 120.7354
1.550000, 79.172, 122.8575
1.575000, 78.798, 125.1160
1.600000, 78.402, 127.5066
1.625000, 77.994, 130.0797
1.650000, 77.586, 132.8431
1.675000, 77.186, 135.8000
1.700000, 76.806, 138.9468
1.725000, 76.455, 142.2718
1.750000, 76.144, 145.7539
1.775000, 75.883, 149.3448
1.800000, 75.682, 152.9883
1.825000, 75.551, 156.6794
1.850000, 75.488, 160.4099
1.875000, 75.487, 164.1866
1.900000, 75.539, 167.9733
1.925000, 75.637, 171.7134
1.950000, 75.775, 175.3521
1.975000, 75.948, 178.8251
2.000000, 76.148, -177.9216
2.030000, 76.416, -174.3024
2.060000, 76.705, -171.0236
2.090000, 77.004, -168.0988
2.120000, 77.302, -165.5287
2.140000, 77.495, -164.0082
2.180000, 77.857, -161.4256
2.200000, 78.026, -160.3464
2.240000, 78.365, -158.4473
2.270000, 78.633, -157.1914
2.300000, 78.912, -156.0667
2.330000, 79.199, -155.0681
2.360000, 79.489, -154.1909
2.400000, 79.874, -153.2482
2.430000, 80.157, -152.6751
2.470000, 80.519, -152.0721
2.500000, 80.774, -151.7362
2.540000, 81.086, -151.4380
2.580000, 81.362, -151.3204
2.620000, 81.612, -151.3778
2.650000, 81.785, -151.4902
2.690000, 81.999, -151.7108
2.720000, 82.147, -151.9168
2.760000, 82.329, -152.2296
2.800000, 82.494, -152.6160
2.850000, 82.678, -153.1397
2.900000, 82.839, -153.6962
2.950000, 82.979, -154.3112
3.000000, 83.093, -155.0733
3.040000, 83.166, -155.7708
3.070000, 83.211, -156.3221
3.110000, 83.257, -157.0752
3.150000, 83.288, -157.8301
3.200000, 83.309, -158.7798
3.250000, 83.309, -159.6933
3.300000, 83.290, -160.5585
3.350000, 83.251, -161.4481
3.400000, 83.192, -162.4442
3.450000, 83.111, -163.5011
3.500000, 83.010, -164.5619
3.550000, 82.889, -165.5825
3.600000, 82.747, -166.5480
3.650000, 82.586, -167.4165
3.700000, 82.404, -168.2091
3.750000, 82.201, -168.9941
3.820000, 81.883, -170.1281
3.870000, 81.632, -170.9101
3.950000, 81.192, -171.9982
4.000000, 80.894, -172.5348
4.060000, 80.511, -172.9870
4.120000, 80.094, -173.2557
4.180000, 79.647, -173.3707
4.250000, 79.099, -173.3202
4.310000, 78.618, -173.0586
4.370000, 78.135, -172.5571
4.440000, 77.561, -171.6048
4.500000, 77.047, -170.3711
4.550000, 76.610, -169.0495
4.620000, 76.008, -166.8329
4.680000, 75.523, -164.6472
4.750000, 75.022, -161.8544
4.820000, 74.602, -158.7953
4.870000, 74.343, -156.3872
4.940000, 74.028, -152.7841
5.000000, 73.794, -149.6384
5.080000, 73.524, -145.5978
5.150000, 73.327, -142.3575
5.220000, 73.182, -139.4470
5.300000, 73.068, -136.4448
5.380000, 72.962, -133.6777
5.450000, 72.833, -131.3657
5.520000, 72.645, -129.1032
5.600000, 72.361, -126.6636
5.700000, 71.941, -123.6166
5.800000, 71.498, -119.9585
5.900000, 71.039, -115.1133
6.000000, 70.521, -108.9205
6.080000, 70.138, -102.9862
6.150000, 69.923, -97.1546
6.220000, 69.898, -90.9652
6.300000, 70.138, -83.7105
6.400000, 70.762, -75.0893
6.500000, 71.574, -68.1088
6.600000, 72.434, -63.3268
6.700000, 73.343, -60.3779
6.800000, 74.290, -58.7280
6.900000, 75.171, -58.1451
7.000000, 75.911, -58.4924
7.100000, 76.521, -59.6025
7.200000, 77.021, -61.1249
7.300000, 77.416, -62.8069
7.400000, 77.702, -64.6662
7.500000, 77.883, -66.7607
7.620000, 77.975, -69.1951
7.750000, 77.934, -71.3468
7.880000, 77.746, -73.1356
8.000000, 77.496, -74.2221
8.120000, 77.211, -74.3512
8.250000, 76.867, -73.3673
8.380000, 76.623, -71.4673
8.500000, 76.602, -69.0039
8.620000, 76.775, -66.1017
8.750000, 77.153, -63.5574
8.850000, 77.584, -62.4884
9.000000, 78.425, -62.2179
9.120000, 79.137, -63.4136
9.250000, 79.860, -66.2463
9.380000, 80.530, -70.2416
9.500000, 81.068, -74.7412
9.620000, 81.509, -80.1242
9.750000, 81.878, -86.7701
9.880000, 82.128, -93.9318
10.000000, 82.249, -101.1891
10.150000, 82.257, -111.1737
10.300000, 82.114, -121.7208
10.440000, 81.848, -132.6070
10.600000, 81.410, -146.0436
10.750000, 80.884, -159.8073
10.900000, 80.288, -175.3459
11.060000, 79.670, 166.4712
11.200000, 79.187, 148.3579
11.380000, 78.822, 123.2743
11.500000, 78.807, 105.8259
11.720000, 79.176, 74.8595
11.800000, 79.415, 64.5462
12.060000, 80.376, 34.4540
12.200000, 80.861, 20.6122
12.410000, 81.448, 1.9205
12.500000, 81.623, -5.2496
12.650000, 81.799, -16.5880
12.800000, 81.824, -27.0117
13.150000, 81.245, -47.9593
13.200000, 81.085, -50.5287
13.400000, 80.240, -59.6164
13.600000, 79.060, -66.2727
13.800000, 77.591, -69.2348
14.000000, 76.152, -67.1957
14.300000, 75.052, -54.1679
14.500000, 75.720, -44.8722
14.750000, 77.267, -39.6741
15.000000, 78.760, -40.8680
15.250000, 79.776, -45.5767
15.500000, 80.286, -51.5561
15.750000, 80.332, -57.5763
16.000000, 79.975, -62.5796
16.250000, 79.300, -65.7143
16.500000, 78.454, -66.0787
16.750000, 77.675, -63.0831
17.000000, 77.281, -57.3108
17.250000, 77.429, -50.6994
17.500000, 78.039, -45.4237
17.750000, 78.866, -42.4285
18.000000, 79.732, -41.5805
18.250000, 80.542, -42.4463
18.500000, 81.258, -44.6231
18.750000, 81.857, -47.8421
19.000000, 82.318, -51.9022
19.250000, 82.613, -56.6091
19.500000, 82.716, -61.6641
19.750000, 82.604, -66.7471
20.000000, 82.268, -71.4274
20.299999, 81.580, -75.8210
20.600000, 80.667, -77.8819
20.900000, 79.737, -76.7205
21.200001, 79.124, -72.4963
21.400000, 79.029, -68.9041
21.799999, 79.491, -63.1907
22.000000, 79.874, -61.8221
22.400000, 80.570, -61.5699
22.700001, 80.935, -62.4081
23.000000, 81.192, -63.3290
23.299999, 81.409, -64.0898
23.600000, 81.635, -64.7812
24.000000, 81.947, -66.0409
24.299999, 82.131, -67.4116
24.700001, 82.222, -69.5128
25.000000, 82.151, -70.8757
25.400000, 81.909, -71.7624
25.799999, 81.610, -71.0577
26.200001, 81.413, -68.7375
26.500000, 81.418, -66.3004
26.900000, 81.686, -63.0163
27.200001, 82.064, -61.2201
27.600000, 82.692, -60.4087
28.000000, 83.296, -61.4897
28.500000, 83.809, -64.5814
29.000000, 83.997, -67.7869
29.500000, 84.061, -69.5262
30.000000, 84.339, -69.9721
30.400000, 84.821, -70.8220
30.700001, 85.258, -72.4356
31.100000, 85.779, -76.0109
31.500000, 86.085, -80.6746
32.000000, 86.059, -86.4805
32.500000, 85.650, -90.3151
33.000000, 85.166, -90.7197
33.500000, 85.033, -88.4452
34.000000, 85.361, -86.3548
34.500000, 85.831, -86.3158
35.000000, 86.125, -87.7423
35.500000, 86.174, -89.1415
36.000000, 86.096, -89.4175
36.500000, 86.082, -88.4743
37.000000, 86.258, -87.2000
37.500000, 86.599, -86.8346
38.200001, 87.047, -88.7382
38.700001, 87.153, -90.9582
39.500000, 87.055, -93.0631
40.000000, 87.124, -93.1875
40.599998, 87.476, -93.9841
41.200001, 87.846, -96.6183
41.799999, 87.981, -99.9830
42.500000, 87.937, -102.5890
43.099998, 88.009, -103.4629
43.700001, 88.270, -104.4314
44.400002, 88.593, -106.8764
45.000000, 88.676, -109.4629
45.500000, 88.601, -110.9993
46.200001, 88.502, -111.4646
46.799999, 88.607, -111.3172
47.500000, 88.809, -112.2155
48.200001, 88.836, -113.6923
48.700001, 88.772, -114.2472
49.400002, 88.721, -114.2543
50.000000, 88.748, -114.1821
50.799999, 88.805, -114.4150
51.500000, 88.861, -114.7830
52.200001, 88.956, -115.4234
53.000000, 89.104, -117.2360
53.799999, 89.088, -120.5157
54.500000, 88.800, -123.0428
55.200001, 88.505, -123.8972
56.000000, 88.468, -124.7137
57.000000, 88.390, -127.1023
58.000000, 88.382, -127.5463
59.000000, 88.746, -129.5799
60.000000, 88.674, -132.0549
60.799999, 88.641, -131.2106
61.500000, 88.878, -130.2075
62.200001, 89.157, -130.0486
63.000000, 89.408, -130.1953
64.000000, 89.668, -130.5475
65.000000, 89.818, -131.2646
66.000000, 89.860, -132.3961
67.000000, 89.734, -133.9793
68.000000, 89.481, -135.4355
69.000000, 89.206, -136.7983
70.000000, 88.988, -138.0677
71.000000, 88.882, -139.5632
72.000000, 88.833, -141.0005
73.000000, 88.868, -141.8209
74.000000, 88.982, -142.1232
75.000000, 89.147, -142.1168
76.199997, 89.306, -142.6353
77.500000, 89.176, -143.8220
78.800003, 88.810, -144.1172
80.000000, 88.513, -143.9259
81.199997, 88.526, -143.3265
82.500000, 88.847, -145.5956
83.800003, 88.841, -148.1613
85.000000, 88.839, -147.9250
86.199997, 88.987, -147.1037
87.500000, 88.987, -146.9546
88.500000, 88.867, -146.1714
90.000000, 88.801, -145.6636
91.199997, 88.747, -146.4038
92.500000, 88.750, -147.8418
93.800003, 88.733, -149.6879
95.000000, 88.699, -150.5054
96.199997, 88.717, -150.8857
97.500000, 88.708, -151.1228
98.800003, 88.693, -151.3843
100.000000, 88.635, -151.9440
101.500000, 88.562, -152.1617
103.000000, 88.594, -152.3150
104.400002, 88.641, -152.4263
106.000000, 88.606, -152.3074
107.500000, 88.526, -150.6831
109.000000, 88.740, -148.5140
110.599998, 89.143, -149.1863
112.000000, 89.253, -151.9069
113.800003, 88.897, -155.3446
115.000000, 88.433, -155.8135
117.199997, 87.834, -153.1253
118.000000, 87.755, -151.9726
120.599998, 87.884, -149.7822
122.000000, 87.969, -150.6162
124.099998, 87.712, -152.4421
125.000000, 87.628, -152.0823
126.500000, 87.774, -152.6571
128.000000, 87.860, -154.8960
131.500000, 87.865, -153.8637
132.000000, 87.880, -153.4612
134.000000, 87.831, -152.8968
136.000000, 87.625, -153.8635
138.000000, 87.460, -154.4174
140.000000, 87.604, -154.1120
143.000000, 87.708, -153.2486
145.000000, 87.440, -153.5137
147.500000, 87.104, -153.3027
150.000000, 87.181, -152.4254
152.500000, 87.476, -150.6479
155.000000, 87.499, -150.6009
157.500000, 87.049, -150.4686
160.000000, 86.784, -151.3790
162.500000, 86.970, -153.6680
165.000000, 87.324, -152.8532
167.500000, 87.900, -149.6559
170.000000, 87.573, -151.1891
172.500000, 86.280, -153.0618
175.000000, 85.683, -152.9407
177.500000, 86.122, -151.6196
180.000000, 86.530, -149.6498
182.500000, 86.551, -148.2088
185.000000, 86.404, -146.3698
187.500000, 86.521, -142.8891
190.000000, 86.538, -141.9303
192.500000, 86.405, -139.9315
195.000000, 86.510, -139.7845
197.500000, 86.464, -140.5855
200.000000, 86.261, -139.9799
203.000000, 86.075, -140.0186
206.000000, 85.934, -140.2138
209.000000, 85.879, -138.3581
212.000000, 85.868, -135.4790
214.000000, 85.909, -134.3296
218.000000, 86.096, -132.5456
220.000000, 86.137, -131.2063
224.000000, 85.999, -127.8541
227.000000, 86.041, -125.5214
230.000000, 86.254, -123.6336
233.000000, 86.509, -122.0148
236.000000, 86.725, -121.2704
240.000000, 86.945, -118.8094
243.000000, 87.197, -117.1279
247.000000, 87.692, -117.2549
250.000000, 88.007, -117.3531
254.000000, 88.345, -116.7271
258.000000, 88.577, -116.2875
262.000000, 88.619, -115.5592
265.000000, 88.710, -115.5251
269.000000, 89.026, -115.0214
272.000000, 89.370, -114.5523
276.000000, 89.693, -115.6237
280.000000, 89.592, -114.8430
285.000000, 89.544, -112.3274
290.000000, 89.765, -111.7612
295.000000, 90.001, -110.8621
300.000000, 90.249, -109.9680
304.000000, 90.433, -109.6944
307.000000, 90.641, -109.5892
311.000000, 91.022, -108.5113
315.000000, 91.341, -107.0621
320.000000, 91.586, -106.2319
325.000000, 91.844, -105.5625
330.000000, 92.385, -105.7680
335.000000, 92.923, -106.7988
340.000000, 93.195, -107.9529
345.000000, 93.422, -108.5941
350.000000, 93.690, -108.9090
355.000000, 93.916, -110.2472
360.000000, 94.151, -112.0629
365.000000, 94.424, -112.6096
370.000000, 94.614, -113.2249
375.000000, 94.717, -114.2917
382.000000, 95.062, -115.9127
387.000000, 95.267, -117.0910
395.000000, 95.461, -118.9719
400.000000, 95.564, -119.8988
406.000000, 95.674, -121.1756
412.000000, 95.783, -122.2899
418.000000, 95.799, -123.5691
425.000000, 95.799, -125.2795
431.000000, 95.826, -126.7082
437.000000, 95.844, -127.5925
444.000000, 95.846, -128.1230
450.000000, 95.840, -128.7771
455.000000, 95.841, -129.2393
462.000000, 95.842, -129.9775
468.000000, 95.843, -130.6912
475.000000, 95.848, -131.2396
482.000000, 95.833, -131.8395
487.000000, 95.834, -132.1879
494.000000, 95.840, -132.5528
500.000000, 95.836, -132.8546
508.000000, 95.847, -133.2860
515.000000, 95.843, -133.5549
522.000000, 95.821, -133.8019
530.000000, 95.796, -134.0428
538.000000, 95.780, -134.2724
545.000000, 95.787, -134.4452
552.000000, 95.793, -134.4643
560.000000, 95.798, -134.6451
570.000000, 95.821, -134.9050
580.000000, 95.849, -134.9826
590.000000, 95.885, -135.0851
600.000000, 95.884, -135.2427
608.000000, 95.876, -135.2689
615.000000, 95.878, -135.2342
622.000000, 95.895, -135.2423
630.000000, 95.910, -135.3066
640.000000, 95.905, -135.3783
650.000000, 95.910, -135.4371
660.000000, 95.918, -135.4703
670.000000, 95.917, -135.5024
680.000000, 95.917, -135.5086
690.000000, 95.921, -135.5217
700.000000, 95.934, -135.5829
710.000000, 95.951, -135.5693
720.000000, 95.957, -135.4078
730.000000, 95.963, -135.2503
740.000000, 95.962, -135.1026
750.000000, 95.964, -134.9515
762.000000, 95.984, -134.8602
775.000000, 96.016, -134.6414
788.000000, 96.047, -134.4528
800.000000, 96.058, -134.4563
812.000000, 96.074, -134.4174
825.000000, 96.099, -134.4523
838.000000, 96.117, -134.5571
850.000000, 96.132, -134.6795
862.000000, 96.137, -134.9247
875.000000, 96.109, -135.3877
885.000000, 96.057, -135.7491
900.000000, 95.917, -136.1438
912.000000, 95.762, -136.1998
925.000000, 95.573, -135.8338
938.000000, 95.401, -135.0289
950.000000, 95.286, -133.9107
962.000000, 95.215, -132.6907
975.000000, 95.179, -131.4410
988.000000, 95.170, -130.3452
1000.000000, 95.175, -129.4238
1015.000000, 95.189, -128.3316
1030.000000, 95.204, -127.2635
1044.000000, 95.225, -126.3197
1060.000000, 95.258, -125.3319
1075.000000, 95.292, -124.4539
1090.000000, 95.331, -123.5762
1106.000000, 95.389, -122.6243
1120.000000, 95.444, -121.7977
1138.000000, 95.511, -120.6795
1150.000000, 95.556, -119.8888
1172.000000, 95.662, -118.4376
1180.000000, 95.712, -117.9198
1206.000000, 95.918, -116.1847
1220.000000, 96.061, -115.3978
1241.000000, 96.291, -114.8310
1250.000000, 96.372, -114.8316
1265.000000, 96.459, -114.9276
1280.000000, 96.498, -114.8111
1315.000000, 96.588, -113.5153
1320.000000, 96.608, -113.2896
1340.000000, 96.687, -112.4281
1360.000000, 96.750, -111.6074
1380.000000, 96.822, -110.8253
1400.000000, 96.915, -110.0355
1430.000000, 97.062, -108.6896
1450.000000, 97.165, -107.8114
1475.000000, 97.318, -106.6815
1500.000000, 97.492, -105.5973
1525.000000, 97.672, -104.7276
1550.000000, 97.844, -104.0477
1575.000000, 98.008, -103.5168
1600.000000, 98.158, -102.9829
1625.000000, 98.298, -102.4768
1650.000000, 98.432, -101.9683
1675.000000, 98.552, -101.4200
1700.000000, 98.668, -100.8483
1725.000000, 98.794, -100.3500
1750.000000, 98.912, -99.8660
1775.000000, 99.007, -99.2875
1800.000000, 99.118, -98.7613
1825.000000, 99.226, -98.2831
1850.000000, 99.319, -97.8151
1875.000000, 99.413, -97.3194
1900.000000, 99.508, -96.7684
1925.000000, 99.605, -96.1794
1950.000000, 99.702, -95.5307
1975.000000, 99.800, -94.8737
2000.000000, 99.909, -94.1935
2030.000000, 100.063, -93.3536
2060.000000, 100.248, -92.5800
2090.000000, 100.471, -91.9896
2120.000000, 100.699, -91.8060
2140.000000, 100.821, -91.9682
2180.000000, 100.928, -92.5078
2200.000000, 100.924, -92.5385
2240.000000, 100.943, -91.8930
2270.000000, 101.001, -91.3151
2300.000000, 101.054, -90.7793
2330.000000, 101.094, -90.0373
2360.000000, 101.149, -89.0312
2400.000000, 101.276, -87.5287
2430.000000, 101.411, -86.3890
2470.000000, 101.640, -85.1027
2500.000000, 101.835, -84.3148
2540.000000, 102.100, -83.4800
2580.000000, 102.365, -82.9118
2620.000000, 102.624, -82.5893
2650.000000, 102.811, -82.4738
2690.000000, 103.055, -82.4417
2720.000000, 103.231, -82.5564
2760.000000, 103.453, -82.8095
2800.000000, 103.655, -83.1999
2850.000000, 103.878, -83.8478
2900.000000, 104.065, -84.6636
2950.000000, 104.219, -85.5007
3000.000000, 104.353, -86.4001
3040.000000, 104.457, -87.2352
3070.000000, 104.534, -88.0080
3110.000000, 104.620, -89.5020
3150.000000, 104.558, -91.8053
3200.000000, 104.067, -92.8421
3250.000000, 103.942, -90.2993
3300.000000, 104.118, -90.6914
3350.000000, 104.083, -92.3892
3400.000000, 103.857, -93.8852
3450.000000, 103.496, -94.7946
3500.000000, 103.042, -94.8412
3550.000000, 102.539, -93.8056
3600.000000, 102.042, -91.5749
3650.000000, 101.627, -88.1151
3700.000000, 101.371, -83.8255
3750.000000, 101.306, -79.3985
3820.000000, 101.438, -73.8023
3870.000000, 101.609, -70.2233
3950.000000, 101.985, -64.5565
4000.000000, 102.327, -60.9154
4060.000000, 102.902, -56.9489
4120.000000, 103.630, -54.0702
4180.000000, 104.428, -52.6100
4250.000000, 105.349, -52.6836
4310.000000, 106.058, -54.1009
4370.000000, 106.634, -56.5334
4440.000000, 107.107, -60.1722
4500.000000, 107.333, -63.7183
4550.000000, 107.389, -66.7042
4620.000000, 107.270, -70.5874
4680.000000, 107.025, -73.2850
4750.000000, 106.638, -75.5607
4820.000000, 106.194, -76.8646
4870.000000, 105.866, -77.2386
4940.000000, 105.419, -77.0507
5000.000000, 105.058, -76.4088
5080.000000, 104.611, -74.9566
5150.000000, 104.264, -73.2492
5220.000000, 103.959, -71.1721
5300.000000, 103.665, -68.4669
5380.000000, 103.434, -65.3294
5450.000000, 103.300, -62.2531
5520.000000, 103.255, -58.9581
5600.000000, 103.325, -55.2397
5700.000000, 103.556, -51.2015
5800.000000, 103.860, -47.9425
5900.000000, 104.181, -45.2022
6000.000000, 104.520, -42.7606
6080.000000, 104.830, -40.8875
6150.000000, 105.145, -39.3974
6220.000000, 105.503, -38.1834
6300.000000, 105.966, -37.1979
6400.000000, 106.605, -36.9101
6500.000000, 107.260, -37.9105
6600.000000, 107.855, -40.3933
6700.000000, 108.291, -44.2302
6800.000000, 108.500, -48.9183
6900.000000, 108.470, -53.8448
7000.000000, 108.213, -58.4286
7100.000000, 107.758, -62.1590
7200.000000, 107.170, -64.7414
7300.000000, 106.523, -66.0570
7400.000000, 105.876, -66.2808
7500.000000, 105.276, -65.6251
7620.000000, 104.657, -64.1927
7750.000000, 104.087, -62.3086
7880.000000, 103.445, -60.2311
8000.000000, 102.719, -57.3627
8120.000000, 101.985, -52.2119
8250.000000, 101.561, -43.9194
8380.000000, 101.823, -35.2691
8500.000000, 102.581, -29.7186
8620.000000, 103.549, -27.5285
8750.000000, 104.572, -29.0961
8850.000000, 105.197, -32.8796
9000.000000, 105.590, -41.9174
9120.000000, 105.254, -50.3173
9250.000000, 104.236, -58.1836
9380.000000, 102.755, -63.0953
9500.000000, 101.204, -64.7662
9620.000000, 99.618, -63.8765
9750.000000, 97.970, -60.3859
9880.000000, 96.498, -54.8460
10000.000000, 95.311, -48.3827
10150.000000, 94.027, -38.3130
10300.000000, 93.176, -24.3099
10440.000000, 93.417, -8.5899
10600.000000, 95.044, 3.5175
10750.000000, 96.820, 4.8970
10900.000000, 98.057, -0.6898
11060.000000, 98.503, -10.5406
11200.000000, 98.125, -19.9430
11380.000000, 96.780, -30.5441
11500.000000, 95.519, -36.1901
11720.000000, 92.636, -44.3727
11800.000000, 91.390, -46.8065
12060.000000, 86.467, -54.8812
12200.000000, 83.253, -64.5117
12410.000000, 81.230, -155.4814
12500.000000, 83.003, 162.8441
12650.000000, 86.692, 139.2834
12800.000000, 89.569, 125.2682
13150.000000, 92.604, 96.5546
