* Measurement data measured by REW V5.31
* Source: Headset (DS by VECLAN.COM), MICROPHONE (Master Volume), L, volume: 0.720. Timing signal peak level -10.7 dBFS, measurement signal peak level -10.6 dBFS
* Format: 2M Log Swept Sine, 1 sweep at -12.0 dBFS using an acoustic timing reference
* Dated: Apr 27, 2024 1:54:09 PM
* REW Settings:
*  C-weighting compensation: Off
*  Target level: 85.0 dB
* Note: ; Delay -0.0673 ms (-23 mm, -0.91 in) using estimated IR delay relative to Acoustic reference played from HEADPHONE R with no timing offset
* Measurement: Thieaudio Ghost R5
* Smoothing: 1/24 octave
* Frequency Step: 1/48 octave
* Start Frequency: 1.000 Hz
*
* Freq(Hz), SPL(dB), Phase(degrees)
1.000000, 66.160, -17.5638
1.015000, 66.753, -18.2825
1.030000, 67.323, -18.9952
1.044000, 67.832, -19.6593
1.060000, 68.380, -20.4221
1.075000, 68.858, -21.1447
1.090000, 69.299, -21.8769
1.106000, 69.731, -22.6633
1.120000, 70.090, -23.3426
1.138000, 70.535, -24.1921
1.150000, 70.822, -24.7417
1.172000, 71.329, -25.7195
1.180000, 71.507, -26.0699
1.206000, 72.065, -27.1649
1.220000, 72.352, -27.7276
1.241000, 72.766, -28.5372
1.250000, 72.937, -28.8721
1.265000, 73.215, -29.4145
1.280000, 73.483, -29.9382
1.315000, 74.071, -31.0927
1.320000, 74.152, -31.2504
1.340000, 74.462, -31.8649
1.360000, 74.758, -32.4537
1.380000, 75.040, -33.0583
1.400000, 75.308, -33.6577
1.430000, 75.685, -34.5247
1.450000, 75.920, -35.0846
1.475000, 76.193, -35.7650
1.500000, 76.430, -36.4190
1.525000, 76.629, -37.0436
1.550000, 76.793, -37.6393
1.575000, 76.928, -38.2287
1.600000, 77.038, -38.8305
1.625000, 77.127, -39.4070
1.650000, 77.199, -39.9600
1.675000, 77.260, -40.4912
1.700000, 77.314, -41.0024
1.725000, 77.366, -41.4951
1.750000, 77.419, -41.9710
1.775000, 77.479, -42.4487
1.800000, 77.550, -42.9458
1.825000, 77.635, -43.4295
1.850000, 77.729, -43.8993
1.875000, 77.826, -44.3525
1.900000, 77.921, -44.7884
1.925000, 78.015, -45.2075
1.950000, 78.108, -45.6101
1.975000, 78.199, -46.0136
2.000000, 78.290, -46.4349
2.030000, 78.398, -46.9204
2.060000, 78.506, -47.3871
2.090000, 78.613, -47.8362
2.120000, 78.720, -48.2690
2.140000, 78.791, -48.5490
2.180000, 78.934, -49.1103
2.200000, 79.006, -49.4000
2.240000, 79.149, -49.9515
2.270000, 79.256, -50.3392
2.300000, 79.362, -50.7071
2.330000, 79.468, -51.0578
2.360000, 79.574, -51.3943
2.400000, 79.715, -51.8725
2.430000, 79.821, -52.2266
2.470000, 79.962, -52.6870
2.500000, 80.068, -53.0255
2.540000, 80.210, -53.4695
2.580000, 80.354, -53.9191
2.620000, 80.498, -54.3803
2.650000, 80.606, -54.7067
2.690000, 80.751, -55.1215
2.720000, 80.860, -55.4210
2.760000, 81.006, -55.8086
2.800000, 81.151, -56.2298
2.850000, 81.333, -56.7612
2.900000, 81.514, -57.2984
2.950000, 81.694, -57.8388
3.000000, 81.873, -58.3941
3.040000, 82.017, -58.8338
3.070000, 82.125, -59.1561
3.110000, 82.269, -59.5793
3.150000, 82.411, -59.9986
3.200000, 82.588, -60.5542
3.250000, 82.763, -61.1317
3.300000, 82.936, -61.7198
3.350000, 83.107, -62.3098
3.400000, 83.277, -62.9267
3.450000, 83.445, -63.5494
3.500000, 83.611, -64.1646
3.550000, 83.775, -64.7737
3.600000, 83.935, -65.4063
3.650000, 84.091, -66.0511
3.700000, 84.243, -66.6999
3.750000, 84.392, -67.3519
3.820000, 84.595, -68.2955
3.870000, 84.736, -68.9669
3.950000, 84.953, -70.0137
4.000000, 85.085, -70.6709
4.060000, 85.237, -71.4591
4.120000, 85.384, -72.2454
4.180000, 85.525, -73.0325
4.250000, 85.684, -73.9602
4.310000, 85.814, -74.7214
4.370000, 85.940, -75.4497
4.440000, 86.079, -76.2958
4.500000, 86.192, -77.0053
4.550000, 86.282, -77.5828
4.620000, 86.404, -78.3869
4.680000, 86.505, -79.0423
4.750000, 86.619, -79.7499
4.820000, 86.729, -80.4267
4.870000, 86.805, -80.8906
4.940000, 86.908, -81.5062
5.000000, 86.994, -82.0145
5.080000, 87.107, -82.6481
5.150000, 87.207, -83.1437
5.220000, 87.305, -83.6106
5.300000, 87.417, -84.1005
5.380000, 87.529, -84.5478
5.450000, 87.630, -84.9264
5.520000, 87.733, -85.2715
5.600000, 87.855, -85.6325
5.700000, 88.012, -86.0523
5.800000, 88.174, -86.4584
5.900000, 88.342, -86.8808
6.000000, 88.516, -87.2943
6.080000, 88.659, -87.6375
6.150000, 88.785, -87.9451
6.220000, 88.911, -88.2850
6.300000, 89.057, -88.6953
6.400000, 89.240, -89.2334
6.500000, 89.421, -89.8104
6.600000, 89.597, -90.4237
6.700000, 89.768, -91.0874
6.800000, 89.933, -91.7796
6.900000, 90.091, -92.4931
7.000000, 90.240, -93.2142
7.100000, 90.380, -93.9579
7.200000, 90.510, -94.7020
7.300000, 90.632, -95.4310
7.400000, 90.744, -96.1349
7.500000, 90.847, -96.8302
7.620000, 90.961, -97.6195
7.750000, 91.075, -98.3936
7.880000, 91.180, -99.0990
8.000000, 91.273, -99.6809
8.120000, 91.365, -100.1949
8.250000, 91.465, -100.6792
8.380000, 91.569, -101.1099
8.500000, 91.669, -101.4762
8.620000, 91.776, -101.8113
8.750000, 91.896, -102.1733
8.850000, 91.993, -102.4670
9.000000, 92.145, -102.9271
9.120000, 92.267, -103.3364
9.250000, 92.398, -103.8397
9.380000, 92.527, -104.3942
9.500000, 92.640, -104.9506
9.620000, 92.744, -105.5459
9.750000, 92.845, -106.2261
9.880000, 92.925, -106.9178
10.000000, 92.976, -107.5491
10.150000, 93.012, -108.3496
10.300000, 93.022, -109.0598
10.440000, 93.010, -109.6274
10.600000, 92.982, -110.1308
10.750000, 92.950, -110.4276
10.900000, 92.920, -110.5602
11.060000, 92.901, -110.5478
11.200000, 92.900, -110.4342
11.380000, 92.928, -110.1699
11.500000, 92.968, -109.9461
11.720000, 93.086, -109.5577
11.800000, 93.144, -109.4563
12.060000, 93.374, -109.3783
12.200000, 93.515, -109.5812
12.410000, 93.730, -110.1541
12.500000, 93.816, -110.4966
12.650000, 93.947, -111.1839
12.800000, 94.059, -111.9737
13.150000, 94.224, -114.0713
13.200000, 94.237, -114.3768
13.400000, 94.262, -115.5388
13.600000, 94.255, -116.5266
13.800000, 94.226, -117.2764
14.000000, 94.194, -117.7710
14.300000, 94.169, -118.1512
14.500000, 94.186, -118.2102
14.750000, 94.250, -118.2290
15.000000, 94.355, -118.3356
15.250000, 94.486, -118.6878
15.500000, 94.612, -119.2236
15.750000, 94.716, -119.8666
16.000000, 94.792, -120.5016
16.250000, 94.849, -121.0683
16.500000, 94.901, -121.4717
16.750000, 94.966, -121.7236
17.000000, 95.057, -121.9138
17.250000, 95.175, -122.1749
17.500000, 95.307, -122.5713
17.750000, 95.435, -123.1342
18.000000, 95.544, -123.8351
18.250000, 95.623, -124.6198
18.500000, 95.671, -125.3689
18.750000, 95.694, -126.0019
19.000000, 95.705, -126.4768
19.250000, 95.717, -126.8267
19.500000, 95.736, -127.0728
19.750000, 95.763, -127.2682
20.000000, 95.791, -127.4503
20.299999, 95.816, -127.6719
20.600000, 95.826, -127.7917
20.900000, 95.829, -127.7148
21.200001, 95.848, -127.4198
21.400000, 95.883, -127.1315
21.799999, 96.026, -126.5578
22.000000, 96.132, -126.4065
22.400000, 96.379, -126.6485
22.700001, 96.551, -127.3123
23.000000, 96.681, -128.2849
23.299999, 96.755, -129.4107
23.600000, 96.775, -130.4876
24.000000, 96.749, -131.6119
24.299999, 96.721, -132.1786
24.700001, 96.713, -132.6303
25.000000, 96.741, -132.8784
25.400000, 96.820, -133.3211
25.799999, 96.919, -133.9960
26.200001, 97.007, -134.8987
26.500000, 97.053, -135.6418
26.900000, 97.086, -136.5607
27.200001, 97.099, -137.1208
27.600000, 97.122, -137.6552
28.000000, 97.172, -138.0262
28.500000, 97.277, -138.5367
29.000000, 97.388, -139.2864
29.500000, 97.448, -140.1743
30.000000, 97.445, -140.8219
30.400000, 97.424, -140.9776
30.700001, 97.421, -140.8702
31.100000, 97.458, -140.5645
31.500000, 97.547, -140.3141
32.000000, 97.701, -140.3869
32.500000, 97.838, -140.9994
33.000000, 97.908, -141.9034
33.500000, 97.910, -142.7374
34.000000, 97.891, -143.2766
34.500000, 97.901, -143.6251
35.000000, 97.949, -144.0450
35.500000, 98.011, -144.6971
36.000000, 98.058, -145.5151
36.500000, 98.089, -146.3663
37.000000, 98.113, -147.1796
37.500000, 98.133, -147.9559
38.200001, 98.154, -148.9219
38.700001, 98.172, -149.5048
39.500000, 98.215, -150.4332
40.000000, 98.225, -151.1103
40.599998, 98.184, -151.8973
41.200001, 98.086, -152.3075
41.799999, 97.990, -152.1097
42.500000, 97.984, -151.4413
43.099998, 98.082, -151.2120
43.700001, 98.190, -151.6413
44.400002, 98.239, -152.5369
45.000000, 98.244, -153.1743
45.500000, 98.258, -153.6148
46.200001, 98.290, -154.2591
46.799999, 98.311, -154.7228
47.500000, 98.371, -155.0616
48.200001, 98.484, -155.6073
48.700001, 98.544, -156.2543
49.400002, 98.548, -157.1064
50.000000, 98.514, -157.3577
50.799999, 98.536, -157.1529
51.500000, 98.634, -157.1663
52.200001, 98.731, -157.6110
53.000000, 98.812, -158.3109
53.799999, 98.890, -159.2040
54.500000, 98.922, -160.0906
55.200001, 98.946, -160.6049
56.000000, 99.104, -161.2540
57.000000, 99.253, -164.0871
58.000000, 98.879, -166.6023
59.000000, 98.444, -165.6405
60.000000, 98.315, -164.1669
60.799999, 98.227, -163.7118
61.500000, 98.100, -163.3751
62.200001, 97.953, -162.7514
63.000000, 97.837, -161.7021
64.000000, 97.808, -160.5301
65.000000, 97.868, -159.5054
66.000000, 98.059, -158.7769
67.000000, 98.300, -158.7180
68.000000, 98.537, -159.0761
69.000000, 98.730, -159.8226
70.000000, 98.845, -160.6391
71.000000, 98.919, -161.3735
72.000000, 98.972, -162.1278
73.000000, 99.014, -162.9447
74.000000, 99.046, -163.8397
75.000000, 99.072, -164.7349
76.199997, 99.106, -165.8411
77.500000, 99.104, -167.1046
78.800003, 99.056, -168.0135
80.000000, 99.014, -168.8812
81.199997, 98.895, -169.8066
82.500000, 98.730, -170.3734
83.800003, 98.546, -170.7534
85.000000, 98.387, -170.6875
86.199997, 98.259, -170.5434
87.500000, 98.157, -170.0813
88.500000, 98.126, -170.0022
90.000000, 97.937, -169.9128
91.199997, 97.829, -168.4115
92.500000, 97.885, -167.3509
93.800003, 97.847, -166.5692
95.000000, 97.901, -164.9609
96.199997, 98.079, -164.3385
97.500000, 98.145, -164.3859
98.800003, 98.217, -163.3121
100.000000, 98.484, -162.5856
101.500000, 98.778, -163.9465
103.000000, 98.723, -165.4618
104.400002, 98.618, -165.0566
106.000000, 98.770, -163.8225
107.500000, 99.072, -164.1219
109.000000, 99.304, -165.3443
110.599998, 99.416, -166.7877
112.000000, 99.429, -167.6260
113.800003, 99.405, -168.5592
115.000000, 99.339, -169.2325
117.199997, 99.240, -170.2823
118.000000, 99.215, -170.6716
120.599998, 99.279, -171.3906
122.000000, 99.306, -171.9007
124.099998, 99.218, -171.6018
125.000000, 99.177, -171.0980
126.500000, 99.114, -170.4710
128.000000, 98.994, -170.1174
131.500000, 98.967, -168.5387
132.000000, 99.014, -168.6022
134.000000, 99.162, -169.6039
136.000000, 99.169, -170.2589
138.000000, 99.146, -170.1187
140.000000, 99.163, -169.8256
143.000000, 99.299, -169.8879
145.000000, 99.498, -169.9392
147.500000, 99.733, -170.3638
150.000000, 99.860, -170.5855
152.500000, 99.947, -171.0237
155.000000, 100.073, -171.7778
157.500000, 100.179, -172.5719
160.000000, 100.268, -173.0861
162.500000, 100.320, -173.9896
165.000000, 100.309, -174.9988
167.500000, 100.302, -175.6137
170.000000, 100.318, -176.3119
172.500000, 100.312, -176.7084
175.000000, 100.355, -177.4398
177.500000, 100.336, -178.0679
180.000000, 100.378, -178.2724
182.500000, 100.442, -178.6974
185.000000, 100.451, -179.0088
187.500000, 100.435, -179.4240
190.000000, 100.445, 179.7586
192.500000, 100.502, 178.8352
195.000000, 100.537, 178.4126
197.500000, 100.529, 178.1404
200.000000, 100.519, 177.3423
203.000000, 100.543, 176.3931
206.000000, 100.518, 176.0437
209.000000, 100.410, 174.7370
212.000000, 100.324, 172.0507
214.000000, 100.323, 171.0809
218.000000, 100.364, 171.1388
220.000000, 100.317, 170.9794
224.000000, 99.998, 170.7876
227.000000, 99.781, 172.1132
230.000000, 99.791, 172.5201
233.000000, 99.853, 171.9686
236.000000, 99.871, 171.3126
240.000000, 99.837, 169.8826
243.000000, 99.870, 169.4303
247.000000, 99.933, 169.3723
250.000000, 99.939, 168.7538
254.000000, 99.906, 168.0051
258.000000, 99.859, 167.4268
262.000000, 99.733, 166.6035
265.000000, 99.614, 166.1490
269.000000, 99.493, 165.4961
272.000000, 99.433, 165.2021
276.000000, 99.374, 164.8640
280.000000, 99.302, 164.5084
285.000000, 99.184, 164.1941
290.000000, 99.083, 163.9702
295.000000, 99.006, 163.6707
300.000000, 98.886, 163.2172
304.000000, 98.805, 162.9796
307.000000, 98.748, 162.6760
311.000000, 98.662, 162.4376
315.000000, 98.581, 162.1880
320.000000, 98.492, 161.9697
325.000000, 98.369, 162.0874
330.000000, 98.239, 162.0606
335.000000, 98.164, 162.2041
340.000000, 98.109, 162.7988
345.000000, 98.019, 163.1464
350.000000, 97.964, 162.6092
355.000000, 97.967, 162.1321
360.000000, 97.950, 162.1259
365.000000, 97.907, 162.1628
370.000000, 97.804, 162.0122
375.000000, 97.621, 161.2667
382.000000, 97.512, 160.5043
387.000000, 97.490, 160.2697
395.000000, 97.278, 161.2616
400.000000, 97.142, 161.0676
406.000000, 97.102, 161.2205
412.000000, 96.993, 161.7917
418.000000, 96.843, 162.3033
425.000000, 96.733, 163.0800
431.000000, 96.635, 163.6823
437.000000, 96.606, 164.3271
444.000000, 96.569, 164.6477
450.000000, 96.478, 165.3994
455.000000, 96.448, 166.0529
462.000000, 96.260, 166.4681
468.000000, 96.246, 167.7032
475.000000, 96.439, 166.9669
482.000000, 96.410, 164.9418
487.000000, 96.325, 165.0595
494.000000, 96.282, 166.3343
500.000000, 96.272, 166.8762
508.000000, 96.250, 167.2132
515.000000, 96.258, 167.2452
522.000000, 96.264, 166.6007
530.000000, 96.187, 166.5686
538.000000, 96.143, 167.4138
545.000000, 96.152, 167.8962
552.000000, 96.085, 168.1223
560.000000, 95.997, 168.1097
570.000000, 95.951, 168.0903
580.000000, 95.949, 168.2443
590.000000, 95.875, 168.5207
600.000000, 95.797, 169.0469
608.000000, 95.702, 169.5627
615.000000, 95.606, 169.9247
622.000000, 95.555, 170.0006
630.000000, 95.552, 170.1068
640.000000, 95.524, 170.4647
650.000000, 95.551, 171.4160
660.000000, 95.767, 173.1871
670.000000, 95.707, 172.4553
680.000000, 95.476, 171.7656
690.000000, 95.381, 173.4052
700.000000, 95.249, 173.3615
710.000000, 95.150, 173.2448
720.000000, 95.135, 173.5339
730.000000, 95.100, 173.6524
740.000000, 95.056, 173.9819
750.000000, 95.053, 174.5414
762.000000, 95.086, 175.5477
775.000000, 95.080, 176.3018
788.000000, 95.117, 176.9603
800.000000, 95.339, 178.1217
812.000000, 95.217, 178.6129
825.000000, 94.795, 177.4012
838.000000, 94.771, 177.6126
850.000000, 94.810, 178.8459
862.000000, 94.868, 179.8758
875.000000, 94.923, -179.7946
885.000000, 94.928, -179.5670
900.000000, 94.959, -179.2913
912.000000, 95.017, -179.2255
925.000000, 95.060, -179.2228
938.000000, 95.051, -179.4625
950.000000, 95.027, -179.7137
962.000000, 95.005, -179.7732
975.000000, 94.976, -179.9057
988.000000, 94.935, 179.6836
1000.000000, 94.866, 179.2648
1015.000000, 94.749, 178.8722
1030.000000, 94.608, 178.8353
1044.000000, 94.483, 179.4317
1060.000000, 94.421, -179.8843
1075.000000, 94.368, -179.8164
1090.000000, 94.281, -179.8895
1106.000000, 94.174, -179.8149
1120.000000, 94.080, -179.6542
1138.000000, 93.960, -179.3872
1150.000000, 93.864, -179.0353
1172.000000, 93.728, -178.0383
1180.000000, 93.695, -177.8448
1206.000000, 93.524, -177.5601
1220.000000, 93.427, -176.8944
1241.000000, 93.289, -175.9047
1250.000000, 93.232, -175.7132
1265.000000, 93.160, -175.2671
1280.000000, 93.085, -174.5802
1315.000000, 92.868, -173.1745
1320.000000, 92.838, -172.8919
1340.000000, 92.710, -171.5748
1360.000000, 92.577, -170.2848
1380.000000, 92.484, -169.3654
1400.000000, 92.381, -168.3221
1430.000000, 92.166, -165.9342
1450.000000, 92.099, -164.3402
1475.000000, 92.019, -162.4005
1500.000000, 91.969, -160.6334
1525.000000, 91.927, -158.6745
1550.000000, 91.900, -157.0341
1575.000000, 91.991, -154.8176
1600.000000, 92.056, -153.3543
1625.000000, 92.120, -151.8601
1650.000000, 92.181, -150.7219
1675.000000, 92.195, -149.1428
1700.000000, 92.131, -147.0993
1725.000000, 92.041, -145.3421
1750.000000, 92.129, -143.9564
1775.000000, 92.242, -142.0890
1800.000000, 92.280, -139.7454
1825.000000, 92.340, -137.4310
1850.000000, 92.489, -135.2308
1875.000000, 92.682, -133.3942
1900.000000, 92.842, -131.9973
1925.000000, 92.992, -130.7056
1950.000000, 93.141, -129.2711
1975.000000, 93.307, -127.7788
2000.000000, 93.469, -126.3265
2030.000000, 93.728, -124.2773
2060.000000, 94.103, -122.1841
2090.000000, 94.543, -120.9944
2120.000000, 94.950, -120.8300
2140.000000, 95.194, -121.0661
2180.000000, 95.564, -122.0779
2200.000000, 95.688, -122.6508
2240.000000, 95.859, -123.3829
2270.000000, 95.957, -123.6153
2300.000000, 96.056, -123.6606
2330.000000, 96.153, -123.5269
2360.000000, 96.262, -123.3532
2400.000000, 96.426, -123.3256
2430.000000, 96.538, -123.3837
2470.000000, 96.684, -123.3731
2500.000000, 96.789, -123.4179
2540.000000, 96.939, -123.4716
2580.000000, 97.104, -123.8040
2620.000000, 97.239, -124.4474
2650.000000, 97.303, -124.9844
2690.000000, 97.356, -125.5618
2720.000000, 97.388, -125.9637
2760.000000, 97.424, -126.4914
2800.000000, 97.452, -127.1097
2850.000000, 97.458, -128.0388
2900.000000, 97.408, -129.0552
2950.000000, 97.291, -130.2123
3000.000000, 97.028, -131.3181
3040.000000, 96.672, -131.0802
3070.000000, 96.460, -129.5646
3110.000000, 96.478, -127.2736
3150.000000, 96.628, -126.7031
3200.000000, 96.689, -127.0618
3250.000000, 96.656, -127.4179
3300.000000, 96.577, -127.7662
3350.000000, 96.450, -128.0665
3400.000000, 96.293, -128.1984
3450.000000, 96.111, -128.2090
3500.000000, 95.912, -128.1862
3550.000000, 95.678, -128.0415
3600.000000, 95.386, -127.5933
3650.000000, 95.068, -126.6051
3700.000000, 94.779, -125.1644
3750.000000, 94.526, -123.4294
3820.000000, 94.202, -120.6233
3870.000000, 94.044, -118.5356
3950.000000, 93.709, -115.2235
4000.000000, 93.543, -111.9597
4060.000000, 93.548, -108.2027
4120.000000, 93.636, -105.3020
4180.000000, 93.684, -102.9472
4250.000000, 93.739, -99.8622
4310.000000, 93.862, -97.4492
4370.000000, 93.958, -95.6238
4440.000000, 93.985, -93.1855
4500.000000, 94.047, -90.5043
4550.000000, 94.203, -88.1703
4620.000000, 94.518, -86.0165
4680.000000, 94.743, -84.9565
4750.000000, 94.905, -84.1532
4820.000000, 94.971, -83.0706
4870.000000, 95.012, -82.0031
4940.000000, 95.085, -80.3525
5000.000000, 95.151, -78.8810
5080.000000, 95.261, -76.5900
5150.000000, 95.431, -74.2054
5220.000000, 95.742, -71.7500
5300.000000, 96.254, -70.0727
5380.000000, 96.785, -69.8961
5450.000000, 97.170, -70.8771
5520.000000, 97.426, -72.4968
5600.000000, 97.559, -74.6602
5700.000000, 97.458, -77.1361
5800.000000, 97.152, -78.2260
5900.000000, 96.814, -77.7757
6000.000000, 96.600, -76.3593
6080.000000, 96.527, -75.1777
6150.000000, 96.491, -74.2905
6220.000000, 96.469, -73.5514
6300.000000, 96.447, -72.8936
6400.000000, 96.387, -72.2379
6500.000000, 96.329, -71.5533
6600.000000, 96.265, -71.2245
6700.000000, 96.114, -71.0653
6800.000000, 95.881, -70.5744
6900.000000, 95.628, -69.5135
7000.000000, 95.414, -67.9000
7100.000000, 95.254, -65.9574
7200.000000, 95.143, -63.7693
7300.000000, 95.082, -61.4458
7400.000000, 95.074, -59.2232
7500.000000, 95.118, -57.1677
7620.000000, 95.229, -55.1260
7750.000000, 95.394, -53.4736
7880.000000, 95.427, -52.4482
8000.000000, 95.307, -51.3404
8120.000000, 95.169, -49.5892
8250.000000, 95.117, -47.1994
8380.000000, 95.230, -44.6866
8500.000000, 95.511, -42.9574
8620.000000, 95.933, -42.5567
8750.000000, 96.448, -44.6261
8850.000000, 96.779, -48.3260
9000.000000, 96.869, -57.3347
9120.000000, 96.324, -66.4635
9250.000000, 94.950, -76.1050
9380.000000, 92.812, -83.1197
9500.000000, 90.297, -85.8819
9620.000000, 87.394, -83.9920
9750.000000, 83.957, -74.7018
9880.000000, 80.656, -53.3068
10000.000000, 78.903, -20.0144
10150.000000, 79.726, 18.6190
10300.000000, 82.114, 41.4277
10440.000000, 84.610, 54.7183
10600.000000, 87.624, 63.3505
10750.000000, 90.344, 63.9528
10900.000000, 92.256, 56.8191
11060.000000, 92.663, 46.1646
11200.000000, 91.848, 42.2260
11380.000000, 90.844, 48.9481
11500.000000, 90.954, 56.9891
11720.000000, 92.497, 68.7978
11800.000000, 93.256, 71.3414
12060.000000, 95.893, 73.8592
12200.000000, 97.354, 72.1584
12410.000000, 99.604, 65.0226
12500.000000, 100.535, 59.6428
12650.000000, 101.761, 46.9211
12800.000000, 102.142, 30.2756
13150.000000, 98.588, -3.1598
13200.000000, 97.739, -5.5337
13400.000000, 94.223, -8.4472
13600.000000, 91.156, -3.7612
