* Measurement data measured by REW V5.31.3
* Source: Headset (DS by VECLAN.COM), MICROPHONE (Master Volume), L, volume: 0.720. Timing signal peak level -29.3 dBFS, measurement signal peak level -9.5 dBFS
* Format: 2M Log Swept Sine, 1 sweep at -24.4 dBFS using an acoustic timing reference
* Dated: Nov 5, 2024 8:51:11 PM
* REW Settings:
*  C-weighting compensation: Off
*  Target level: 85.0 dB
* Note: ; Delay -0.0008 ms (-0.27 mm, -0.01 in) using estimated IR delay relative to Acoustic reference played from HEADPHONE R with no timing offset Clock adjustment: -125.5 ppm
* Measurement: Bass ANC R1
* Smoothing: 1/24 octave
* Frequency Step: 1/48 octave
* Start Frequency: 1.000 Hz
*
* Freq(Hz), SPL(dB), Phase(degrees)
1.000000, 42.125, 145.8795
1.015000, 42.538, 145.0948
1.030000, 42.946, 144.2859
1.044000, 43.323, 143.5087
1.060000, 43.748, 142.5945
1.075000, 44.142, 141.7131
1.090000, 44.531, 140.8120
1.106000, 44.941, 139.8511
1.120000, 45.293, 139.0443
1.138000, 45.735, 138.0704
1.150000, 46.023, 137.4565
1.172000, 46.539, 136.3905
1.180000, 46.723, 136.0186
1.206000, 47.306, 134.8528
1.220000, 47.612, 134.2455
1.241000, 48.062, 133.3516
1.250000, 48.252, 132.9725
1.265000, 48.563, 132.3436
1.280000, 48.870, 131.7155
1.315000, 49.570, 130.2402
1.320000, 49.668, 130.0272
1.340000, 50.057, 129.1672
1.360000, 50.441, 128.2921
1.380000, 50.820, 127.3993
1.400000, 51.196, 126.4868
1.430000, 51.756, 125.0785
1.450000, 52.127, 124.1140
1.475000, 52.588, 122.9009
1.500000, 53.041, 121.7315
1.525000, 53.484, 120.6216
1.550000, 53.918, 119.5608
1.575000, 54.343, 118.5366
1.600000, 54.760, 117.5384
1.625000, 55.169, 116.5567
1.650000, 55.571, 115.5833
1.675000, 55.966, 114.6114
1.700000, 56.355, 113.6348
1.725000, 56.739, 112.6488
1.750000, 57.117, 111.6489
1.775000, 57.491, 110.6317
1.800000, 57.861, 109.5948
1.825000, 58.227, 108.5403
1.850000, 58.589, 107.4855
1.875000, 58.945, 106.4532
1.900000, 59.294, 105.4482
1.925000, 59.638, 104.4672
1.950000, 59.976, 103.5053
1.975000, 60.308, 102.5585
2.000000, 60.635, 101.6229
2.030000, 61.022, 100.5094
2.060000, 61.402, 99.4008
2.090000, 61.775, 98.2918
2.120000, 62.144, 97.1779
2.140000, 62.386, 96.4304
2.180000, 62.865, 94.9209
2.200000, 63.102, 94.1610
2.240000, 63.567, 92.6543
2.270000, 63.908, 91.5467
2.300000, 64.242, 90.4583
2.330000, 64.571, 89.3865
2.360000, 64.894, 88.3288
2.400000, 65.317, 86.9355
2.430000, 65.628, 85.8995
2.470000, 66.036, 84.5257
2.500000, 66.336, 83.4974
2.540000, 66.732, 82.1254
2.580000, 67.120, 80.7540
2.620000, 67.500, 79.3959
2.650000, 67.779, 78.3907
2.690000, 68.143, 77.0686
2.720000, 68.412, 76.0899
2.760000, 68.763, 74.8007
2.800000, 69.108, 73.5271
2.850000, 69.529, 71.9531
2.900000, 69.942, 70.3942
2.950000, 70.347, 68.8478
3.000000, 70.741, 67.3191
3.040000, 71.048, 66.1123
3.070000, 71.275, 65.2173
3.110000, 71.572, 64.0377
3.150000, 71.863, 62.8735
3.200000, 72.220, 61.4390
3.250000, 72.570, 60.0259
3.300000, 72.914, 58.6317
3.350000, 73.250, 57.2550
3.400000, 73.577, 55.8965
3.450000, 73.897, 54.5580
3.500000, 74.210, 53.2406
3.550000, 74.517, 51.9445
3.600000, 74.818, 50.6695
3.650000, 75.113, 49.4146
3.700000, 75.404, 48.1778
3.750000, 75.688, 46.9576
3.820000, 76.075, 45.2780
3.870000, 76.346, 44.0999
3.950000, 76.768, 42.2526
4.000000, 77.027, 41.1214
4.060000, 77.332, 39.7859
4.120000, 77.630, 38.4717
4.180000, 77.921, 37.1787
4.250000, 78.254, 35.6974
4.310000, 78.532, 34.4509
4.370000, 78.806, 33.2254
4.440000, 79.120, 31.8199
4.500000, 79.383, 30.6339
4.550000, 79.598, 29.6589
4.620000, 79.893, 28.3145
4.680000, 80.141, 27.1815
4.750000, 80.425, 25.8813
4.820000, 80.703, 24.6019
4.870000, 80.898, 23.6995
4.940000, 81.165, 22.4526
5.000000, 81.390, 21.4006
5.080000, 81.683, 20.0228
5.150000, 81.934, 18.8391
5.220000, 82.179, 17.6722
5.300000, 82.453, 16.3589
5.380000, 82.720, 15.0711
5.450000, 82.949, 13.9673
5.520000, 83.173, 12.8842
5.600000, 83.422, 11.6667
5.700000, 83.725, 10.1763
5.800000, 84.019, 8.7281
5.900000, 84.305, 7.3248
6.000000, 84.582, 5.9586
6.080000, 84.798, 4.8927
6.150000, 84.983, 3.9828
6.220000, 85.165, 3.0956
6.300000, 85.369, 2.1070
6.400000, 85.617, 0.9052
6.500000, 85.860, -0.2574
6.600000, 86.099, -1.3781
6.700000, 86.332, -2.4589
6.800000, 86.561, -3.5039
6.900000, 86.786, -4.5135
7.000000, 87.008, -5.4883
7.100000, 87.227, -6.4301
7.200000, 87.443, -7.3421
7.300000, 87.657, -8.2267
7.400000, 87.869, -9.0854
7.500000, 88.079, -9.9191
7.620000, 88.328, -10.8912
7.750000, 88.595, -11.9137
7.880000, 88.860, -12.9058
8.000000, 89.102, -13.7984
8.120000, 89.342, -14.6719
8.250000, 89.599, -15.5974
8.380000, 89.854, -16.5037
8.500000, 90.087, -17.3251
8.620000, 90.318, -18.1324
8.750000, 90.566, -18.9924
8.850000, 90.755, -19.6445
9.000000, 91.037, -20.6075
9.120000, 91.260, -21.3661
9.250000, 91.499, -22.1770
9.380000, 91.737, -22.9766
9.500000, 91.955, -23.7065
9.620000, 92.172, -24.4288
9.750000, 92.405, -25.2032
9.880000, 92.628, -25.9707
10.000000, 92.823, -26.6736
10.150000, 93.054, -27.5450
10.300000, 93.277, -28.4099
10.440000, 93.480, -29.2114
10.600000, 93.709, -30.1207
10.750000, 93.926, -30.9669
10.900000, 94.143, -31.8065
11.060000, 94.373, -32.6944
11.200000, 94.574, -33.4642
11.380000, 94.832, -34.4443
11.500000, 95.003, -35.0914
11.720000, 95.321, -36.2665
11.800000, 95.438, -36.6907
12.060000, 95.825, -38.0627
12.200000, 96.038, -38.8018
12.410000, 96.364, -39.9181
12.500000, 96.505, -40.4026
12.650000, 96.741, -41.2198
12.800000, 96.980, -42.0547
13.150000, 97.545, -44.0911
13.200000, 97.627, -44.3939
13.400000, 97.956, -45.6362
13.600000, 98.286, -46.9307
13.800000, 98.617, -48.2766
14.000000, 98.946, -49.6716
14.300000, 99.435, -51.8490
14.500000, 99.759, -53.3540
14.750000, 100.162, -55.2961
15.000000, 100.565, -57.3113
15.250000, 100.971, -59.4117
15.500000, 101.376, -61.6129
15.750000, 101.778, -63.9279
16.000000, 102.172, -66.3679
16.250000, 102.556, -68.9363
16.500000, 102.925, -71.6287
16.750000, 103.278, -74.4354
17.000000, 103.613, -77.3412
17.250000, 103.929, -80.3305
17.500000, 104.223, -83.3881
17.750000, 104.494, -86.5005
18.000000, 104.744, -89.6569
18.250000, 104.971, -92.8479
18.500000, 105.175, -96.0640
18.750000, 105.356, -99.2940
19.000000, 105.514, -102.5258
19.250000, 105.648, -105.7423
19.500000, 105.758, -108.9271
19.750000, 105.846, -112.0636
20.000000, 105.911, -115.1355
20.299999, 105.963, -118.7203
20.600000, 105.990, -122.1829
20.900000, 105.996, -125.5187
21.200001, 105.983, -128.7288
21.400000, 105.964, -130.7998
21.799999, 105.904, -134.7761
22.000000, 105.863, -136.6785
22.400000, 105.763, -140.2999
22.700001, 105.674, -142.8468
23.000000, 105.576, -145.2454
23.299999, 105.473, -147.5016
23.600000, 105.368, -149.6284
24.000000, 105.225, -152.2920
24.299999, 105.116, -154.1795
24.700001, 104.965, -156.5604
25.000000, 104.846, -158.2399
25.400000, 104.681, -160.3204
25.799999, 104.513, -162.2064
26.200001, 104.348, -163.9071
26.500000, 104.229, -165.0829
26.900000, 104.081, -166.5576
27.200001, 103.974, -167.6164
27.600000, 103.834, -168.9786
28.000000, 103.692, -170.2734
28.500000, 103.512, -171.7570
29.000000, 103.335, -173.0635
29.500000, 103.172, -174.2198
30.000000, 103.023, -175.2852
30.400000, 102.911, -176.0953
30.700001, 102.830, -176.6741
31.100000, 102.724, -177.3902
31.500000, 102.625, -178.0261
32.000000, 102.522, -178.7141
32.500000, 102.449, -179.3478
33.000000, 102.410, 179.9598
33.500000, 102.394, 179.1012
34.000000, 102.382, 178.0310
34.500000, 102.355, 176.7924
35.000000, 102.300, 175.4965
35.500000, 102.221, 174.2592
36.000000, 102.130, 173.1417
36.500000, 102.038, 172.1363
37.000000, 101.951, 171.2048
37.500000, 101.867, 170.3243
38.200001, 101.756, 169.1739
38.700001, 101.685, 168.3979
39.500000, 101.589, 167.1703
40.000000, 101.534, 166.3948
40.599998, 101.473, 165.4647
41.200001, 101.417, 164.5306
41.799999, 101.367, 163.5723
42.500000, 101.309, 162.4182
43.099998, 101.261, 161.4055
43.700001, 101.212, 160.3604
44.400002, 101.148, 159.0931
45.000000, 101.082, 157.9998
45.500000, 101.023, 157.1061
46.200001, 100.939, 155.8647
46.799999, 100.865, 154.7781
47.500000, 100.768, 153.5000
48.200001, 100.662, 152.2594
48.700001, 100.584, 151.3981
49.400002, 100.473, 150.2122
50.000000, 100.372, 149.2253
50.799999, 100.236, 147.9709
51.500000, 100.116, 146.9011
52.200001, 99.988, 145.8518
53.000000, 99.831, 144.7349
53.799999, 99.671, 143.7110
54.500000, 99.528, 142.8602
55.200001, 99.381, 142.0540
56.000000, 99.212, 141.1887
57.000000, 98.999, 140.1863
58.000000, 98.793, 139.2142
59.000000, 98.573, 138.2417
60.000000, 98.348, 137.5568
60.799999, 98.207, 137.0999
61.500000, 98.098, 136.5603
62.200001, 97.975, 135.9523
63.000000, 97.821, 135.3184
64.000000, 97.622, 134.6514
65.000000, 97.422, 134.1307
66.000000, 97.227, 133.7092
67.000000, 97.027, 133.3615
68.000000, 96.826, 133.1519
69.000000, 96.631, 133.0701
70.000000, 96.447, 133.0733
71.000000, 96.271, 133.1492
72.000000, 96.108, 133.3281
73.000000, 95.963, 133.5647
74.000000, 95.833, 133.8438
75.000000, 95.722, 134.1866
76.199997, 95.613, 134.6027
77.500000, 95.512, 135.0765
78.800003, 95.438, 135.6319
80.000000, 95.398, 136.1203
81.199997, 95.382, 136.5864
82.500000, 95.402, 137.0261
83.800003, 95.454, 137.3010
85.000000, 95.520, 137.4199
86.199997, 95.602, 137.4257
87.500000, 95.704, 137.2553
88.500000, 95.783, 136.9948
90.000000, 95.908, 136.4604
91.199997, 96.025, 135.8030
92.500000, 96.151, 134.7643
93.800003, 96.266, 133.5153
95.000000, 96.364, 132.2179
96.199997, 96.452, 130.7762
97.500000, 96.526, 129.0411
98.800003, 96.572, 127.1515
100.000000, 96.587, 125.2659
101.500000, 96.563, 122.7409
103.000000, 96.487, 120.1195
104.400002, 96.371, 117.6375
106.000000, 96.173, 114.8538
107.500000, 95.929, 112.4352
109.000000, 95.641, 110.2650
110.599998, 95.305, 108.2811
112.000000, 94.999, 106.8678
113.800003, 94.607, 105.4733
115.000000, 94.352, 104.7465
117.199997, 93.906, 103.5066
118.000000, 93.746, 103.0030
120.599998, 93.223, 101.6663
122.000000, 93.011, 101.0694
124.099998, 92.702, 99.8924
125.000000, 92.554, 99.4416
126.500000, 92.292, 98.8094
128.000000, 92.018, 98.2487
131.500000, 91.359, 96.9810
132.000000, 91.265, 96.8226
134.000000, 90.893, 96.2885
136.000000, 90.519, 95.9175
138.000000, 90.138, 95.6562
140.000000, 89.755, 95.4958
143.000000, 89.194, 95.4427
145.000000, 88.825, 95.5775
147.500000, 88.362, 95.8905
150.000000, 87.895, 96.2973
152.500000, 87.424, 96.8580
155.000000, 86.955, 97.6974
157.500000, 86.488, 98.7172
160.000000, 86.026, 99.8130
162.500000, 85.573, 100.9460
165.000000, 85.128, 102.7651
167.500000, 84.766, 105.0446
170.000000, 84.431, 107.4352
172.500000, 84.133, 110.0375
175.000000, 83.868, 112.6826
177.500000, 83.633, 115.5103
180.000000, 83.475, 118.3753
182.500000, 83.391, 120.9023
185.000000, 83.342, 123.3685
187.500000, 83.326, 125.7944
190.000000, 83.343, 127.9876
192.500000, 83.396, 129.9050
195.000000, 83.475, 131.6254
197.500000, 83.557, 133.1570
200.000000, 83.631, 134.5165
203.000000, 83.731, 135.9421
206.000000, 83.847, 137.0834
209.000000, 83.963, 138.0247
212.000000, 84.071, 138.7565
214.000000, 84.134, 139.1582
218.000000, 84.239, 139.7856
220.000000, 84.281, 140.0376
224.000000, 84.352, 140.4631
227.000000, 84.401, 140.7056
230.000000, 84.443, 140.8569
233.000000, 84.474, 140.9137
236.000000, 84.481, 140.8885
240.000000, 84.458, 140.8511
243.000000, 84.420, 140.9467
247.000000, 84.378, 141.3229
250.000000, 84.370, 141.5397
254.000000, 84.369, 141.5908
258.000000, 84.346, 141.5679
262.000000, 84.299, 141.5007
265.000000, 84.256, 141.4395
269.000000, 84.188, 141.3767
272.000000, 84.132, 141.3518
276.000000, 84.052, 141.3604
280.000000, 83.957, 141.3769
285.000000, 83.828, 141.3917
290.000000, 83.687, 141.4180
295.000000, 83.521, 141.4426
300.000000, 83.326, 141.4802
304.000000, 83.132, 141.7856
307.000000, 82.964, 142.2234
311.000000, 82.725, 143.1344
315.000000, 82.509, 144.6423
320.000000, 82.366, 147.2647
325.000000, 82.418, 149.7665
330.000000, 82.573, 151.1631
335.000000, 82.699, 151.5742
340.000000, 82.741, 151.6205
345.000000, 82.716, 151.8014
350.000000, 82.671, 152.0933
355.000000, 82.622, 152.3456
360.000000, 82.549, 152.5171
365.000000, 82.424, 152.7481
370.000000, 82.272, 153.4558
375.000000, 82.157, 154.6681
382.000000, 82.100, 156.4193
387.000000, 82.098, 157.4089
395.000000, 82.097, 158.6179
400.000000, 82.086, 159.3219
406.000000, 82.072, 160.1833
412.000000, 82.068, 161.0374
418.000000, 82.072, 161.8311
425.000000, 82.084, 162.6981
431.000000, 82.099, 163.4037
437.000000, 82.111, 164.0135
444.000000, 82.117, 164.6167
450.000000, 82.113, 165.1319
455.000000, 82.104, 165.6082
462.000000, 82.091, 166.3051
468.000000, 82.086, 166.9265
475.000000, 82.093, 167.7004
482.000000, 82.129, 168.4091
487.000000, 82.170, 168.7866
494.000000, 82.216, 169.1108
500.000000, 82.233, 169.3125
508.000000, 82.233, 169.5890
515.000000, 82.222, 169.8552
522.000000, 82.202, 170.1583
530.000000, 82.172, 170.5441
538.000000, 82.141, 170.9507
545.000000, 82.112, 171.3337
552.000000, 82.081, 171.7433
560.000000, 82.042, 172.2147
570.000000, 81.989, 172.8546
580.000000, 81.936, 173.5653
590.000000, 81.887, 174.3680
600.000000, 81.853, 175.2510
608.000000, 81.840, 175.9160
615.000000, 81.829, 176.4149
622.000000, 81.810, 176.8922
630.000000, 81.782, 177.4477
640.000000, 81.741, 178.1859
650.000000, 81.700, 178.9745
660.000000, 81.662, 179.8108
670.000000, 81.642, -179.2947
680.000000, 81.629, -178.4691
690.000000, 81.603, -177.6618
700.000000, 81.574, -176.8184
710.000000, 81.554, -175.9131
720.000000, 81.544, -174.9623
730.000000, 81.540, -174.0242
740.000000, 81.543, -173.1088
750.000000, 81.549, -172.2262
762.000000, 81.559, -171.1768
775.000000, 81.582, -170.0549
788.000000, 81.608, -168.8919
800.000000, 81.634, -167.8356
812.000000, 81.661, -166.8272
825.000000, 81.701, -165.7933
838.000000, 81.746, -164.8113
850.000000, 81.791, -163.9581
862.000000, 81.839, -163.1293
875.000000, 81.889, -162.2246
885.000000, 81.928, -161.5629
900.000000, 81.988, -160.6071
912.000000, 82.036, -159.8566
925.000000, 82.086, -159.0977
938.000000, 82.132, -158.3857
950.000000, 82.167, -157.7296
962.000000, 82.201, -157.1085
975.000000, 82.235, -156.4657
988.000000, 82.267, -155.8367
1000.000000, 82.297, -155.2378
1015.000000, 82.330, -154.4705
1030.000000, 82.361, -153.6854
1044.000000, 82.389, -152.9278
1060.000000, 82.420, -152.0355
1075.000000, 82.455, -151.1644
1090.000000, 82.501, -150.2931
1106.000000, 82.564, -149.4054
1120.000000, 82.629, -148.6694
1138.000000, 82.719, -147.7844
1150.000000, 82.781, -147.2417
1172.000000, 82.890, -146.4645
1180.000000, 82.921, -146.2715
1206.000000, 82.928, -145.7146
1220.000000, 82.876, -145.0369
1241.000000, 82.833, -143.2164
1250.000000, 82.851, -142.2967
1265.000000, 82.925, -140.8311
1280.000000, 83.032, -139.5795
1315.000000, 83.299, -137.3203
1320.000000, 83.336, -137.0353
1340.000000, 83.469, -135.9579
1360.000000, 83.579, -134.9396
1380.000000, 83.691, -133.9422
1400.000000, 83.825, -132.9276
1430.000000, 84.043, -131.5629
1450.000000, 84.180, -130.8021
1475.000000, 84.328, -129.9474
1500.000000, 84.452, -129.0929
1525.000000, 84.545, -128.1801
1550.000000, 84.626, -127.1833
1575.000000, 84.706, -126.1029
1600.000000, 84.776, -124.9635
1625.000000, 84.832, -123.7571
1650.000000, 84.866, -122.4570
1675.000000, 84.868, -121.0282
1700.000000, 84.831, -119.2814
1725.000000, 84.764, -116.9258
1750.000000, 84.687, -113.5681
1775.000000, 84.679, -108.5280
1800.000000, 85.009, -101.1920
1825.000000, 86.064, -93.2346
1850.000000, 87.706, -89.7632
1875.000000, 89.160, -92.6847
1900.000000, 90.006, -98.5605
1925.000000, 90.300, -104.3431
1950.000000, 90.241, -108.2872
1975.000000, 90.103, -110.0416
2000.000000, 90.058, -110.5287
2030.000000, 90.118, -110.7496
2060.000000, 90.217, -110.9423
2090.000000, 90.328, -110.9487
2120.000000, 90.464, -110.8448
2140.000000, 90.562, -110.7458
2180.000000, 90.776, -110.3857
2200.000000, 90.898, -110.1692
2240.000000, 91.169, -109.7780
2270.000000, 91.393, -109.5641
2300.000000, 91.627, -109.4259
2330.000000, 91.868, -109.3611
2360.000000, 92.117, -109.3768
2400.000000, 92.461, -109.5266
2430.000000, 92.725, -109.7569
2470.000000, 93.081, -110.2297
2500.000000, 93.350, -110.7277
2540.000000, 93.695, -111.6697
2580.000000, 94.017, -112.9306
2620.000000, 94.320, -114.3386
2650.000000, 94.529, -115.4330
2690.000000, 94.772, -116.8975
2720.000000, 94.930, -117.9880
2760.000000, 95.123, -119.3795
2800.000000, 95.317, -120.6434
2850.000000, 95.597, -122.1930
2900.000000, 95.920, -124.0297
2950.000000, 96.244, -126.4476
3000.000000, 96.516, -129.5448
3040.000000, 96.670, -132.3547
3070.000000, 96.744, -134.5273
3110.000000, 96.798, -137.4146
3150.000000, 96.820, -140.3583
3200.000000, 96.783, -144.2903
3250.000000, 96.626, -148.3105
3300.000000, 96.360, -151.9767
3350.000000, 96.044, -155.1151
3400.000000, 95.730, -158.1140
3450.000000, 95.367, -161.4988
3500.000000, 94.850, -165.1843
3550.000000, 94.095, -168.4354
3600.000000, 93.097, -170.0793
3650.000000, 91.979, -169.0473
3700.000000, 91.002, -164.2724
3750.000000, 90.681, -156.4117
3820.000000, 91.389, -150.5316
3870.000000, 91.859, -151.9222
3950.000000, 91.765, -157.0438
4000.000000, 91.278, -159.0994
4060.000000, 90.559, -159.2684
4120.000000, 89.905, -157.6951
4180.000000, 89.352, -155.1125
4250.000000, 88.870, -150.9939
4310.000000, 88.662, -147.0886
4370.000000, 88.647, -143.9928
4440.000000, 88.809, -142.7562
4500.000000, 89.060, -143.5918
4550.000000, 89.297, -145.3226
4620.000000, 89.584, -149.1188
4680.000000, 89.735, -153.3247
4750.000000, 89.763, -158.7928
4820.000000, 89.613, -164.3729
4870.000000, 89.407, -168.1608
4940.000000, 89.014, -172.9281
5000.000000, 88.624, -176.3699
5080.000000, 88.145, -179.9094
5150.000000, 87.868, 177.3614
5220.000000, 87.686, 174.1830
5300.000000, 87.529, 170.0397
5380.000000, 87.392, 165.0971
5450.000000, 87.221, 159.9056
5520.000000, 86.927, 154.0237
5600.000000, 86.364, 147.0946
5700.000000, 85.326, 139.8327
5800.000000, 84.196, 135.1559
5900.000000, 83.233, 131.8915
6000.000000, 82.411, 128.6335
6080.000000, 81.774, 125.8849
6150.000000, 81.206, 123.4601
6220.000000, 80.625, 121.1219
6300.000000, 79.943, 118.6597
6400.000000, 79.036, 115.8925
6500.000000, 78.016, 113.7221
6600.000000, 76.875, 113.0765
6700.000000, 75.763, 114.8169
6800.000000, 74.933, 118.7576
6900.000000, 74.568, 123.7433
7000.000000, 74.623, 128.2640
7100.000000, 74.955, 131.6404
7200.000000, 75.455, 133.7683
7300.000000, 76.046, 134.5728
7400.000000, 76.708, 134.2610
7500.000000, 77.434, 132.9500
7620.000000, 78.378, 129.7208
7750.000000, 79.355, 123.8173
7880.000000, 79.991, 115.8676
8000.000000, 80.193, 108.1747
8120.000000, 80.167, 102.1552
8250.000000, 80.270, 98.8002
8380.000000, 80.957, 96.9948
8500.000000, 82.176, 93.2015
8620.000000, 83.619, 85.1532
8750.000000, 84.945, 71.6897
8850.000000, 85.559, 59.0556
9000.000000, 85.700, 39.4895
9120.000000, 85.297, 25.0846
9250.000000, 84.595, 11.2661
9380.000000, 83.770, -0.6068
9500.000000, 82.983, -9.8479
9620.000000, 82.223, -17.7628
9750.000000, 81.448, -24.9947
9880.000000, 80.768, -30.5900
10000.000000, 80.328, -34.4292
10150.000000, 80.181, -38.2283
10300.000000, 80.555, -42.2875
10440.000000, 81.322, -47.6345
10600.000000, 82.571, -56.6334
10750.000000, 84.011, -68.6268
10900.000000, 85.563, -85.1328
11060.000000, 86.922, -108.6994
11200.000000, 87.354, -133.5720
11380.000000, 86.467, -166.8982
11500.000000, 85.141, 172.8187
11720.000000, 82.039, 141.4767
11800.000000, 80.824, 131.3447
12060.000000, 76.595, 98.6110
12200.000000, 74.158, 76.3530
12410.000000, 71.807, -14.7736
12500.000000, 72.354, -71.1853
12650.000000, 74.435, -116.3885
12800.000000, 76.347, -140.0380
13150.000000, 78.626, 179.7664
13200.000000, 78.726, 174.5494
13400.000000, 78.596, 154.5535
13600.000000, 77.702, 136.8105
13800.000000, 76.181, 122.4835
14000.000000, 74.232, 113.0135
14300.000000, 71.502, 110.1666
14500.000000, 70.891, 112.2064
14750.000000, 71.943, 103.9590
