* Measurement data measured by REW V5.31.3
* Source: Headset (DS by VECLAN.COM), MICROPHONE (Master Volume), L, volume: 0.720. Timing signal peak level -11.6 dBFS, measurement signal peak level -7.6 dBFS
* Format: 2M Log Swept Sine, 1 sweep at -14.4 dBFS using an acoustic timing reference
* Dated: Nov 6, 2024 9:57:46 PM
* REW Settings:
*  C-weighting compensation: Off
*  Target level: 85.0 dB
* Note: ; Delay -0.3492 ms (-120 mm, -4.72 in) using estimated IR delay relative to Acoustic reference played from HEADPHONE L with no timing offset Clock adjustment: -9.6 ppm
* Measurement: Electronic ANC L2
* Smoothing: 1/24 octave
* Frequency Step: 1/48 octave
* Start Frequency: 1.000 Hz
*
* Freq(Hz), SPL(dB), Phase(degrees)
1.000000, 33.858, 97.6830
1.015000, 33.832, 102.1356
1.030000, 33.809, 106.7437
1.044000, 33.791, 111.1216
1.060000, 33.775, 116.1307
1.075000, 33.768, 120.7343
1.090000, 33.794, 125.0210
1.106000, 33.978, 128.4692
1.120000, 34.300, 130.5159
1.138000, 34.821, 132.7446
1.150000, 35.214, 134.0978
1.172000, 36.017, 136.3082
1.180000, 36.333, 137.0212
1.206000, 37.434, 138.9981
1.220000, 38.068, 139.8497
1.241000, 39.061, 140.8590
1.250000, 39.500, 141.1969
1.265000, 40.245, 141.6401
1.280000, 41.002, 141.9399
1.315000, 42.791, 142.1251
1.320000, 43.046, 142.0967
1.340000, 44.060, 141.8570
1.360000, 45.053, 141.4266
1.380000, 46.014, 140.8202
1.400000, 46.931, 140.0516
1.430000, 48.202, 138.6237
1.450000, 48.965, 137.5130
1.475000, 49.826, 136.0358
1.500000, 50.617, 134.6363
1.525000, 51.361, 133.3654
1.550000, 52.063, 132.1902
1.575000, 52.727, 131.0758
1.600000, 53.357, 129.9935
1.625000, 53.957, 128.9207
1.650000, 54.532, 127.8395
1.675000, 55.085, 126.7358
1.700000, 55.621, 125.5985
1.725000, 56.142, 124.4190
1.750000, 56.654, 123.1905
1.775000, 57.161, 121.9079
1.800000, 57.665, 120.5685
1.825000, 58.170, 119.1787
1.850000, 58.670, 117.7766
1.875000, 59.156, 116.4116
1.900000, 59.628, 115.0956
1.925000, 60.084, 113.8227
1.950000, 60.527, 112.5846
1.975000, 60.957, 111.3733
2.000000, 61.376, 110.1812
2.030000, 61.865, 108.7659
2.060000, 62.341, 107.3568
2.090000, 62.805, 105.9435
2.120000, 63.261, 104.5171
2.140000, 63.560, 103.5548
2.180000, 64.150, 101.5960
2.200000, 64.441, 100.6020
2.240000, 65.010, 98.6205
2.270000, 65.422, 97.1611
2.300000, 65.823, 95.7287
2.330000, 66.213, 94.3223
2.360000, 66.593, 92.9397
2.400000, 67.086, 91.1273
2.430000, 67.446, 89.7867
2.470000, 67.914, 88.0162
2.500000, 68.258, 86.6954
2.540000, 68.708, 84.9362
2.580000, 69.148, 83.1744
2.620000, 69.575, 81.4182
2.650000, 69.885, 80.1124
2.690000, 70.288, 78.3929
2.720000, 70.582, 77.1221
2.760000, 70.964, 75.4548
2.800000, 71.335, 73.8187
2.850000, 71.786, 71.8150
2.900000, 72.224, 69.8515
2.950000, 72.650, 67.9151
3.000000, 73.061, 65.9918
3.040000, 73.379, 64.4665
3.070000, 73.611, 63.3349
3.110000, 73.912, 61.8472
3.150000, 74.206, 60.3874
3.200000, 74.563, 58.6065
3.250000, 74.911, 56.8767
3.300000, 75.249, 55.1934
3.350000, 75.577, 53.5381
3.400000, 75.894, 51.9015
3.450000, 76.199, 50.2908
3.500000, 76.495, 48.7148
3.550000, 76.783, 47.1814
3.600000, 77.064, 45.6962
3.650000, 77.339, 44.2610
3.700000, 77.607, 42.8668
3.750000, 77.867, 41.5004
3.820000, 78.219, 39.6322
3.870000, 78.462, 38.3352
3.950000, 78.842, 36.3363
4.000000, 79.074, 35.1395
4.060000, 79.348, 33.7552
4.120000, 79.616, 32.4168
4.180000, 79.876, 31.1180
4.250000, 80.174, 29.6503
4.310000, 80.425, 28.4328
4.370000, 80.674, 27.2528
4.440000, 80.961, 25.9246
4.500000, 81.203, 24.8258
4.550000, 81.403, 23.9341
4.620000, 81.679, 22.7150
4.680000, 81.914, 21.6915
4.750000, 82.185, 20.5178
4.820000, 82.455, 19.3688
4.870000, 82.647, 18.5655
4.940000, 82.913, 17.4607
5.000000, 83.139, 16.5259
5.080000, 83.436, 15.2873
5.150000, 83.694, 14.2066
5.220000, 83.948, 13.1330
5.300000, 84.236, 11.9172
5.380000, 84.519, 10.7097
5.450000, 84.762, 9.6556
5.520000, 85.001, 8.6003
5.600000, 85.268, 7.3935
5.700000, 85.594, 5.8913
5.800000, 85.911, 4.4041
5.900000, 86.216, 2.9316
6.000000, 86.510, 1.4666
6.080000, 86.738, 0.3070
6.150000, 86.932, -0.6909
6.220000, 87.121, -1.6700
6.300000, 87.331, -2.7702
6.400000, 87.584, -4.1223
6.500000, 87.828, -5.4367
6.600000, 88.065, -6.7010
6.700000, 88.293, -7.9189
6.800000, 88.515, -9.0961
6.900000, 88.732, -10.2278
7.000000, 88.945, -11.3098
7.100000, 89.154, -12.3457
7.200000, 89.360, -13.3422
7.300000, 89.565, -14.3037
7.400000, 89.769, -15.2308
7.500000, 89.972, -16.1256
7.620000, 90.215, -17.1697
7.750000, 90.477, -18.2768
7.880000, 90.740, -19.3594
8.000000, 90.981, -20.3469
8.120000, 91.220, -21.3328
8.250000, 91.477, -22.3975
8.380000, 91.730, -23.4592
8.500000, 91.959, -24.4394
8.620000, 92.185, -25.4185
8.750000, 92.424, -26.4706
8.850000, 92.603, -27.2717
9.000000, 92.866, -28.4593
9.120000, 93.072, -29.3901
9.250000, 93.291, -30.3742
9.380000, 93.505, -31.3340
9.500000, 93.701, -32.1968
9.620000, 93.895, -33.0357
9.750000, 94.104, -33.9207
9.880000, 94.304, -34.7866
10.000000, 94.480, -35.5706
10.150000, 94.690, -36.5358
10.300000, 94.895, -37.4976
10.440000, 95.084, -38.3955
10.600000, 95.299, -39.4316
10.750000, 95.504, -40.4203
10.900000, 95.711, -41.4260
11.060000, 95.929, -42.5216
11.200000, 96.118, -43.4983
11.380000, 96.356, -44.7738
11.500000, 96.511, -45.6348
11.720000, 96.792, -47.2259
11.800000, 96.893, -47.8062
12.060000, 97.218, -49.6918
12.200000, 97.392, -50.7020
12.410000, 97.650, -52.2083
12.500000, 97.759, -52.8501
12.650000, 97.941, -53.9151
12.800000, 98.121, -54.9762
13.150000, 98.541, -57.4474
13.200000, 98.601, -57.8017
13.400000, 98.843, -59.2254
13.600000, 99.088, -60.6678
13.800000, 99.334, -62.1364
14.000000, 99.580, -63.6411
14.300000, 99.946, -65.9806
14.500000, 100.186, -67.6046
14.750000, 100.479, -69.7120
15.000000, 100.762, -71.9032
15.250000, 101.034, -74.1683
15.500000, 101.289, -76.4879
15.750000, 101.525, -78.8398
16.000000, 101.741, -81.1994
16.250000, 101.938, -83.5456
16.500000, 102.120, -85.8659
16.750000, 102.290, -88.1552
17.000000, 102.450, -90.4183
17.250000, 102.603, -92.6652
17.500000, 102.746, -94.9075
17.750000, 102.878, -97.1536
18.000000, 102.997, -99.4052
18.250000, 103.102, -101.6568
18.500000, 103.190, -103.8958
18.750000, 103.261, -106.1058
19.000000, 103.317, -108.2704
19.250000, 103.359, -110.3745
19.500000, 103.389, -112.4095
19.750000, 103.409, -114.3718
20.000000, 103.420, -116.2626
20.299999, 103.425, -118.4441
20.600000, 103.422, -120.5399
20.900000, 103.410, -122.5597
21.200001, 103.391, -124.5099
21.400000, 103.373, -125.7732
21.799999, 103.327, -128.2116
22.000000, 103.297, -129.3851
22.400000, 103.228, -131.6321
22.700001, 103.166, -133.2198
23.000000, 103.097, -134.7142
23.299999, 103.024, -136.1104
23.600000, 102.950, -137.4099
24.000000, 102.853, -139.0105
24.299999, 102.784, -140.1331
24.700001, 102.694, -141.5565
25.000000, 102.626, -142.5793
25.400000, 102.530, -143.8778
25.799999, 102.429, -145.0789
26.200001, 102.323, -146.1594
26.500000, 102.245, -146.8882
26.900000, 102.145, -147.7655
27.200001, 102.074, -148.3672
27.600000, 101.984, -149.1104
28.000000, 101.896, -149.7884
28.500000, 101.788, -150.5273
29.000000, 101.687, -151.1313
29.500000, 101.599, -151.6171
30.000000, 101.525, -152.0145
30.400000, 101.474, -152.2689
30.700001, 101.441, -152.4124
31.100000, 101.412, -152.5350
31.500000, 101.409, -152.6074
32.000000, 101.452, -152.7621
32.500000, 101.537, -153.2034
33.000000, 101.631, -154.0799
33.500000, 101.688, -155.3371
34.000000, 101.684, -156.7495
34.500000, 101.622, -158.0613
35.000000, 101.528, -159.1163
35.500000, 101.425, -159.8994
36.000000, 101.331, -160.4777
36.500000, 101.249, -160.9206
37.000000, 101.179, -161.2664
37.500000, 101.121, -161.5403
38.200001, 101.058, -161.8526
38.700001, 101.023, -162.0406
39.500000, 100.983, -162.2510
40.000000, 100.973, -162.3335
40.599998, 100.979, -162.4537
41.200001, 100.996, -162.6539
41.799999, 101.009, -162.9067
42.500000, 101.025, -163.1909
43.099998, 101.047, -163.4458
43.700001, 101.072, -163.7720
44.400002, 101.089, -164.2251
45.000000, 101.092, -164.5922
45.500000, 101.093, -164.8579
46.200001, 101.098, -165.2010
46.799999, 101.104, -165.4903
47.500000, 101.110, -165.7994
48.200001, 101.119, -166.0569
48.700001, 101.131, -166.2141
49.400002, 101.153, -166.4014
50.000000, 101.181, -166.5337
50.799999, 101.231, -166.7047
51.500000, 101.284, -166.8803
52.200001, 101.338, -167.0587
53.000000, 101.407, -167.2246
53.799999, 101.492, -167.3903
54.500000, 101.577, -167.5990
55.200001, 101.663, -167.8736
56.000000, 101.761, -168.2249
57.000000, 101.889, -168.7127
58.000000, 102.017, -169.2683
59.000000, 102.152, -169.8026
60.000000, 102.312, -170.4290
60.799999, 102.440, -171.0740
61.500000, 102.546, -171.6670
62.200001, 102.655, -172.2527
63.000000, 102.789, -172.9513
64.000000, 102.968, -173.9118
65.000000, 103.160, -174.9904
66.000000, 103.365, -176.2256
67.000000, 103.584, -177.6640
68.000000, 103.812, -179.4042
69.000000, 104.030, 178.4731
70.000000, 104.216, 175.9732
71.000000, 104.353, 173.1691
72.000000, 104.428, 170.1647
73.000000, 104.437, 167.0938
74.000000, 104.384, 164.0844
75.000000, 104.279, 161.2288
76.199997, 104.101, 158.0890
77.500000, 103.865, 155.0743
78.800003, 103.603, 152.4442
80.000000, 103.349, 150.3201
81.199997, 103.091, 148.4550
82.500000, 102.814, 146.6782
83.800003, 102.544, 145.1140
85.000000, 102.302, 143.8116
86.199997, 102.069, 142.6340
87.500000, 101.826, 141.4789
88.500000, 101.648, 140.6690
90.000000, 101.397, 139.5864
91.199997, 101.218, 138.7734
92.500000, 101.038, 137.8622
93.800003, 100.863, 136.9404
95.000000, 100.704, 136.0660
96.199997, 100.542, 135.1651
97.500000, 100.359, 134.1609
98.800003, 100.166, 133.1388
100.000000, 99.976, 132.2031
101.500000, 99.724, 131.0725
103.000000, 99.453, 130.0106
104.400002, 99.184, 129.1261
106.000000, 98.862, 128.2790
107.500000, 98.551, 127.6493
109.000000, 98.237, 127.1980
110.599998, 97.908, 126.9106
112.000000, 97.626, 126.7833
113.800003, 97.275, 126.7426
115.000000, 97.047, 126.7731
117.199997, 96.646, 126.9438
118.000000, 96.508, 127.0392
120.599998, 96.066, 127.5383
122.000000, 95.843, 128.0527
124.099998, 95.535, 128.9166
125.000000, 95.407, 129.3005
126.500000, 95.199, 129.9612
128.000000, 95.003, 130.6490
131.500000, 94.611, 132.3525
132.000000, 94.562, 132.6080
134.000000, 94.378, 133.6541
136.000000, 94.215, 134.6992
138.000000, 94.073, 135.7332
140.000000, 93.956, 136.7152
143.000000, 93.810, 138.0624
145.000000, 93.727, 138.9151
147.500000, 93.643, 139.9246
150.000000, 93.574, 140.8143
152.500000, 93.509, 141.6101
155.000000, 93.455, 142.2911
157.500000, 93.403, 142.8325
160.000000, 93.336, 143.2767
162.500000, 93.261, 143.7234
165.000000, 93.221, 144.1621
167.500000, 93.196, 144.4030
170.000000, 93.158, 144.6332
172.500000, 93.103, 144.8033
175.000000, 93.033, 144.9365
177.500000, 92.954, 145.0826
180.000000, 92.871, 145.2662
182.500000, 92.789, 145.3780
185.000000, 92.709, 145.4170
187.500000, 92.636, 145.4438
190.000000, 92.562, 145.4700
192.500000, 92.482, 145.4710
195.000000, 92.395, 145.4314
197.500000, 92.301, 145.3630
200.000000, 92.202, 145.2786
203.000000, 92.074, 145.1826
206.000000, 91.933, 145.1227
209.000000, 91.783, 145.1264
212.000000, 91.631, 145.1478
214.000000, 91.529, 145.1632
218.000000, 91.317, 145.2194
220.000000, 91.206, 145.2861
224.000000, 90.979, 145.5267
227.000000, 90.806, 145.7746
230.000000, 90.632, 146.0564
233.000000, 90.462, 146.3689
236.000000, 90.296, 146.7130
240.000000, 90.073, 147.1898
243.000000, 89.902, 147.5438
247.000000, 89.675, 148.0737
250.000000, 89.507, 148.5065
254.000000, 89.279, 149.1167
258.000000, 89.046, 149.7725
262.000000, 88.808, 150.4763
265.000000, 88.628, 151.0429
269.000000, 88.387, 151.8817
272.000000, 88.201, 152.5472
276.000000, 87.945, 153.5066
280.000000, 87.684, 154.6426
285.000000, 87.369, 156.3984
290.000000, 87.095, 158.4648
295.000000, 86.884, 160.5828
300.000000, 86.715, 162.3639
304.000000, 86.570, 163.5893
307.000000, 86.440, 164.5387
311.000000, 86.248, 166.0855
315.000000, 86.083, 168.1013
320.000000, 85.992, 170.8257
325.000000, 86.007, 172.9181
330.000000, 86.013, 174.0737
335.000000, 85.938, 174.7858
340.000000, 85.780, 175.5612
345.000000, 85.565, 176.5996
350.000000, 85.316, 178.0038
355.000000, 85.066, 179.8502
360.000000, 84.847, -177.9366
365.000000, 84.672, -175.6153
370.000000, 84.526, -173.2572
375.000000, 84.411, -170.8132
382.000000, 84.322, -167.3446
387.000000, 84.292, -165.0928
395.000000, 84.247, -161.7126
400.000000, 84.229, -159.6457
406.000000, 84.215, -157.2788
412.000000, 84.208, -154.9350
418.000000, 84.218, -152.6472
425.000000, 84.242, -150.1931
431.000000, 84.255, -148.1665
437.000000, 84.264, -146.1516
444.000000, 84.274, -143.8454
450.000000, 84.281, -141.8879
455.000000, 84.287, -140.2539
462.000000, 84.297, -137.8937
468.000000, 84.319, -135.8181
475.000000, 84.369, -133.4740
482.000000, 84.435, -131.3517
487.000000, 84.479, -129.9371
494.000000, 84.528, -127.9940
500.000000, 84.561, -126.3257
508.000000, 84.597, -124.0832
515.000000, 84.626, -122.0852
522.000000, 84.655, -120.0605
530.000000, 84.688, -117.7447
538.000000, 84.724, -115.4271
545.000000, 84.757, -113.3384
552.000000, 84.794, -111.1895
560.000000, 84.843, -108.6932
570.000000, 84.918, -105.5123
580.000000, 85.011, -102.2443
590.000000, 85.138, -98.9731
600.000000, 85.294, -95.8196
608.000000, 85.421, -93.3701
615.000000, 85.533, -91.2425
622.000000, 85.650, -89.1048
630.000000, 85.795, -86.6610
640.000000, 85.997, -83.6121
650.000000, 86.223, -80.5908
660.000000, 86.467, -77.6566
670.000000, 86.731, -74.8439
680.000000, 87.020, -72.1429
690.000000, 87.331, -69.5627
700.000000, 87.662, -67.1511
710.000000, 88.010, -64.9623
720.000000, 88.369, -63.0084
730.000000, 88.723, -61.2908
740.000000, 89.066, -59.8021
750.000000, 89.399, -58.4719
762.000000, 89.786, -57.0588
775.000000, 90.186, -55.8222
788.000000, 90.552, -54.8554
800.000000, 90.859, -54.1051
812.000000, 91.138, -53.4339
825.000000, 91.411, -52.7610
838.000000, 91.653, -52.1429
850.000000, 91.850, -51.5995
862.000000, 92.021, -51.0794
875.000000, 92.176, -50.5291
885.000000, 92.280, -50.0765
900.000000, 92.421, -49.2951
912.000000, 92.520, -48.6130
925.000000, 92.610, -47.8471
938.000000, 92.681, -47.0535
950.000000, 92.733, -46.2676
962.000000, 92.774, -45.4123
975.000000, 92.807, -44.4029
988.000000, 92.831, -43.3186
1000.000000, 92.846, -42.2615
1015.000000, 92.854, -40.8587
1030.000000, 92.856, -39.3362
1044.000000, 92.854, -37.7861
1060.000000, 92.845, -35.8776
1075.000000, 92.833, -33.9489
1090.000000, 92.830, -31.8867
1106.000000, 92.842, -29.5647
1120.000000, 92.854, -27.3744
1138.000000, 92.881, -24.1831
1150.000000, 92.928, -21.8129
1172.000000, 93.123, -17.2247
1180.000000, 93.235, -15.5952
1206.000000, 93.706, -11.0615
1220.000000, 93.982, -9.2256
1241.000000, 94.359, -6.9855
1250.000000, 94.499, -6.1238
1265.000000, 94.704, -4.7606
1280.000000, 94.877, -3.4464
1315.000000, 95.208, -0.2016
1320.000000, 95.251, 0.3015
1340.000000, 95.409, 2.3826
1360.000000, 95.535, 4.5214
1380.000000, 95.653, 6.7301
1400.000000, 95.787, 9.0548
1430.000000, 96.014, 12.6583
1450.000000, 96.177, 15.0843
1475.000000, 96.396, 18.1162
1500.000000, 96.628, 21.0804
1525.000000, 96.866, 23.9766
1550.000000, 97.105, 26.7691
1575.000000, 97.338, 29.4021
1600.000000, 97.550, 31.9624
1625.000000, 97.744, 34.5488
1650.000000, 97.928, 37.2144
1675.000000, 98.106, 39.9165
1700.000000, 98.285, 42.5746
1725.000000, 98.469, 45.2570
1750.000000, 98.660, 47.9939
1775.000000, 98.846, 50.6968
1800.000000, 99.018, 53.3907
1825.000000, 99.177, 56.1415
1850.000000, 99.322, 58.9955
1875.000000, 99.466, 62.0590
1900.000000, 99.662, 65.4105
1925.000000, 99.948, 68.6812
1950.000000, 100.268, 71.4572
1975.000000, 100.552, 73.8326
2000.000000, 100.793, 76.0848
2030.000000, 101.050, 78.8069
2060.000000, 101.289, 81.5925
2090.000000, 101.521, 84.4359
2120.000000, 101.760, 87.3114
2140.000000, 101.922, 89.2218
2180.000000, 102.244, 93.0478
2200.000000, 102.403, 94.9474
2240.000000, 102.716, 98.6654
2270.000000, 102.943, 101.4162
2300.000000, 103.165, 104.1668
2330.000000, 103.388, 106.9291
2360.000000, 103.616, 109.7224
2400.000000, 103.937, 113.4755
2430.000000, 104.188, 116.2268
2470.000000, 104.527, 119.7130
2500.000000, 104.779, 122.1694
2540.000000, 105.105, 125.2913
2580.000000, 105.424, 128.3543
2620.000000, 105.734, 131.3800
2650.000000, 105.962, 133.6104
2690.000000, 106.258, 136.5071
2720.000000, 106.470, 138.6007
2760.000000, 106.737, 141.2965
2800.000000, 106.986, 143.9314
2850.000000, 107.280, 147.2742
2900.000000, 107.557, 150.5694
2950.000000, 107.800, 153.6000
3000.000000, 108.020, 156.5530
3040.000000, 108.191, 158.9712
3070.000000, 108.317, 160.7959
3110.000000, 108.490, 163.2073
3150.000000, 108.672, 165.5009
3200.000000, 108.900, 168.0420
3250.000000, 109.107, 170.1585
3300.000000, 109.254, 171.8437
3350.000000, 109.310, 173.2215
3400.000000, 109.248, 174.4562
3450.000000, 109.024, 175.7420
3500.000000, 108.591, 177.6826
3550.000000, 107.986, -178.4009
3600.000000, 107.499, -171.5146
3650.000000, 107.490, -163.4357
3700.000000, 107.926, -156.8920
3750.000000, 108.536, -153.2846
3820.000000, 109.041, -152.8502
3870.000000, 108.949, -153.5009
3950.000000, 108.200, -152.7058
4000.000000, 107.540, -150.4419
4060.000000, 106.706, -146.0316
4120.000000, 105.887, -140.2410
4180.000000, 105.109, -133.2955
4250.000000, 104.301, -123.7938
4310.000000, 103.747, -114.7349
4370.000000, 103.364, -105.3680
4440.000000, 103.145, -95.0346
4500.000000, 103.117, -87.1319
4550.000000, 103.156, -81.2668
4620.000000, 103.207, -74.0555
4680.000000, 103.175, -68.5284
4750.000000, 103.009, -62.2063
4820.000000, 102.714, -55.3203
4870.000000, 102.463, -49.6754
4940.000000, 102.165, -40.3056
5000.000000, 102.129, -31.0774
5080.000000, 102.532, -19.3142
5150.000000, 103.145, -11.1929
5220.000000, 103.796, -5.2451
5300.000000, 104.458, -0.4036
5380.000000, 104.951, 2.6951
5450.000000, 105.154, 4.0911
5520.000000, 105.070, 4.7891
5600.000000, 104.596, 5.9191
5700.000000, 103.580, 9.6603
5800.000000, 102.419, 16.5106
5900.000000, 101.329, 25.5552
6000.000000, 100.341, 36.0007
6080.000000, 99.623, 45.1486
6150.000000, 99.068, 53.6458
6220.000000, 98.607, 62.5741
6300.000000, 98.231, 73.0952
6400.000000, 97.954, 85.7400
6500.000000, 97.711, 97.0753
6600.000000, 97.366, 107.7090
6700.000000, 96.911, 118.5729
6800.000000, 96.405, 130.2629
6900.000000, 95.944, 142.9041
7000.000000, 95.605, 156.3352
7100.000000, 95.414, 170.2401
7200.000000, 95.365, -175.8935
7300.000000, 95.418, -162.4844
7400.000000, 95.528, -149.6904
7500.000000, 95.693, -137.0977
7620.000000, 96.012, -121.7385
7750.000000, 96.521, -105.3193
7880.000000, 97.090, -89.6918
8000.000000, 97.642, -76.1108
8120.000000, 98.269, -63.0833
8250.000000, 99.091, -50.0638
8380.000000, 100.019, -39.2974
8500.000000, 100.819, -32.0392
8620.000000, 101.332, -27.2723
8750.000000, 101.366, -23.5945
8850.000000, 100.996, -20.5713
9000.000000, 99.921, -13.8047
9120.000000, 98.783, -5.6324
9250.000000, 97.485, 6.2977
9380.000000, 96.326, 21.1447
9500.000000, 95.524, 36.5065
9620.000000, 95.034, 52.1637
9750.000000, 94.794, 68.3536
9880.000000, 94.725, 83.4707
10000.000000, 94.693, 96.3298
10150.000000, 94.508, 111.2977
10300.000000, 94.011, 126.9956
10440.000000, 93.413, 145.0698
10600.000000, 93.381, 171.0315
10750.000000, 94.709, -164.9045
10900.000000, 96.913, -148.4436
11060.000000, 99.135, -141.1799
11200.000000, 100.249, -141.5310
11380.000000, 99.994, -145.0815
11500.000000, 98.850, -145.4106
11720.000000, 95.654, -137.1583
11800.000000, 94.349, -131.4004
12060.000000, 89.982, -99.8914
12200.000000, 88.436, -72.5874
12410.000000, 88.532, -35.7061
12500.000000, 88.897, -24.5629
12650.000000, 89.322, -9.3374
12800.000000, 89.459, 4.2854
13150.000000, 89.128, 34.8561
13200.000000, 89.044, 39.0967
13400.000000, 88.558, 55.2654
13600.000000, 87.640, 71.6350
13800.000000, 86.412, 91.1111
14000.000000, 85.387, 114.3162
14300.000000, 85.125, 150.1782
