* Measurement data measured by REW V5.31.3
* Source: Headset (DS by VECLAN.COM), MICROPHONE (Master Volume), L, volume: 0.720. Timing signal peak level -23.0 dBFS, measurement signal peak level -14.3 dBFS
* Format: 2M Log Swept Sine, 1 sweep at -14.4 dBFS using an acoustic timing reference
* Dated: Nov 5, 2024 9:02:23 PM
* REW Settings:
*  C-weighting compensation: Off
*  Target level: 85.0 dB
* Note: ; Delay -2.6627 ms (-913 mm, -(2 ft 11.96 in)) using IR start time relative to Acoustic reference played from HEADPHONE R with no timing offset Clock adjustment: -889.4 ppm
* Measurement: Classical ANC R2
* Smoothing: 1/24 octave
* Frequency Step: 1/48 octave
* Start Frequency: 1.000 Hz
*
* Freq(Hz), SPL(dB), Phase(degrees)
1.000000, 40.075, 48.0012
1.015000, 40.105, 49.9368
1.030000, 40.131, 51.8980
1.044000, 40.152, 53.7425
1.060000, 40.170, 55.8550
1.075000, 40.184, 57.8281
1.090000, 40.207, 59.7826
1.106000, 40.296, 61.8377
1.120000, 40.445, 63.6086
1.138000, 40.678, 65.8436
1.150000, 40.848, 67.3030
1.172000, 41.189, 69.9030
1.180000, 41.321, 70.8211
1.206000, 41.776, 73.6901
1.220000, 42.037, 75.1554
1.241000, 42.444, 77.2389
1.250000, 42.624, 78.0877
1.265000, 42.930, 79.4412
1.280000, 43.242, 80.7163
1.315000, 43.989, 83.3787
1.320000, 44.097, 83.7230
1.340000, 44.530, 85.0102
1.360000, 44.962, 86.1550
1.380000, 45.392, 87.1602
1.400000, 45.814, 88.0301
1.430000, 46.428, 89.0924
1.450000, 46.821, 89.6500
1.475000, 47.295, 90.2155
1.500000, 47.766, 90.7094
1.525000, 48.239, 91.1576
1.550000, 48.714, 91.5531
1.575000, 49.190, 91.8876
1.600000, 49.666, 92.1550
1.625000, 50.140, 92.3512
1.650000, 50.611, 92.4735
1.675000, 51.077, 92.5206
1.700000, 51.538, 92.4920
1.725000, 51.992, 92.3880
1.750000, 52.437, 92.2093
1.775000, 52.873, 91.9572
1.800000, 53.297, 91.6339
1.825000, 53.710, 91.2464
1.850000, 54.111, 90.8192
1.875000, 54.503, 90.3817
1.900000, 54.885, 89.9413
1.925000, 55.259, 89.4955
1.950000, 55.626, 89.0411
1.975000, 55.985, 88.5750
2.000000, 56.336, 88.0948
2.030000, 56.750, 87.4965
2.060000, 57.155, 86.8713
2.090000, 57.551, 86.2162
2.120000, 57.941, 85.5291
2.140000, 58.197, 85.0522
2.180000, 58.700, 84.0527
2.200000, 58.948, 83.5333
2.240000, 59.432, 82.4796
2.270000, 59.785, 81.6889
2.300000, 60.129, 80.8998
2.330000, 60.466, 80.1118
2.360000, 60.795, 79.3240
2.400000, 61.222, 78.2721
2.430000, 61.536, 77.4806
2.470000, 61.946, 76.4194
2.500000, 62.247, 75.6175
2.540000, 62.643, 74.5385
2.580000, 63.030, 73.4492
2.620000, 63.407, 72.3583
2.650000, 63.683, 71.5432
2.690000, 64.042, 70.4630
2.720000, 64.304, 69.6586
2.760000, 64.647, 68.5945
2.800000, 64.983, 67.5405
2.850000, 65.392, 66.2368
2.900000, 65.793, 64.9474
2.950000, 66.184, 63.6706
3.000000, 66.565, 62.4060
3.040000, 66.861, 61.4049
3.070000, 67.079, 60.6611
3.110000, 67.364, 59.6798
3.150000, 67.643, 58.7112
3.200000, 67.985, 57.5191
3.250000, 68.321, 56.3483
3.300000, 68.651, 55.1987
3.350000, 68.974, 54.0693
3.400000, 69.290, 52.9588
3.450000, 69.598, 51.8667
3.500000, 69.900, 50.7922
3.550000, 70.197, 49.7348
3.600000, 70.489, 48.6938
3.650000, 70.778, 47.6690
3.700000, 71.063, 46.6619
3.750000, 71.343, 45.6736
3.820000, 71.726, 44.3180
3.870000, 71.995, 43.3658
3.950000, 72.418, 41.8628
4.000000, 72.679, 40.9334
4.060000, 72.988, 39.8293
4.120000, 73.292, 38.7430
4.180000, 73.591, 37.6733
4.250000, 73.935, 36.4396
4.310000, 74.225, 35.3885
4.370000, 74.511, 34.3391
4.440000, 74.839, 33.1180
4.500000, 75.116, 32.0793
4.550000, 75.343, 31.2199
4.620000, 75.656, 30.0233
4.680000, 75.920, 29.0007
4.750000, 76.222, 27.8077
4.820000, 76.517, 26.6138
4.870000, 76.725, 25.7625
4.940000, 77.009, 24.5752
5.000000, 77.248, 23.5630
5.080000, 77.560, 22.2216
5.150000, 77.824, 21.0534
5.220000, 78.083, 19.8868
5.300000, 78.369, 18.5592
5.380000, 78.647, 17.2456
5.450000, 78.884, 16.1126
5.520000, 79.113, 14.9939
5.600000, 79.367, 13.7254
5.700000, 79.673, 12.1596
5.800000, 79.966, 10.6332
5.900000, 80.247, 9.1529
6.000000, 80.517, 7.7057
6.080000, 80.724, 6.5746
6.150000, 80.900, 5.6114
6.220000, 81.071, 4.6764
6.300000, 81.261, 3.6380
6.400000, 81.490, 2.3785
6.500000, 81.711, 1.1684
6.600000, 81.925, 0.0163
6.700000, 82.132, -1.0822
6.800000, 82.333, -2.1323
6.900000, 82.530, -3.1303
7.000000, 82.722, -4.0737
7.100000, 82.910, -4.9669
7.200000, 83.095, -5.8133
7.300000, 83.279, -6.6135
7.400000, 83.460, -7.3677
7.500000, 83.641, -8.0791
7.620000, 83.857, -8.8845
7.750000, 84.092, -9.7032
7.880000, 84.328, -10.4688
8.000000, 84.547, -11.1428
8.120000, 84.769, -11.7951
8.250000, 85.012, -12.4782
8.380000, 85.257, -13.1542
8.500000, 85.485, -13.7829
8.620000, 85.714, -14.4155
8.750000, 85.963, -15.1158
8.850000, 86.152, -15.6711
9.000000, 86.435, -16.5278
9.120000, 86.657, -17.2326
9.250000, 86.893, -18.0176
9.380000, 87.122, -18.8196
9.500000, 87.327, -19.5641
9.620000, 87.526, -20.3094
9.750000, 87.733, -21.1125
9.880000, 87.924, -21.8945
10.000000, 88.084, -22.5917
10.150000, 88.266, -23.4256
10.300000, 88.435, -24.2012
10.440000, 88.585, -24.8696
10.600000, 88.754, -25.5704
10.750000, 88.918, -26.1657
10.900000, 89.087, -26.7123
11.060000, 89.274, -27.2591
11.200000, 89.443, -27.7148
11.380000, 89.669, -28.2978
11.500000, 89.824, -28.6935
11.720000, 90.118, -29.4515
11.800000, 90.227, -29.7428
12.060000, 90.589, -30.7449
12.200000, 90.785, -31.3186
12.410000, 91.077, -32.2114
12.500000, 91.200, -32.6009
12.650000, 91.403, -33.2555
12.800000, 91.604, -33.9101
13.150000, 92.067, -35.4135
13.200000, 92.133, -35.6250
13.400000, 92.401, -36.4640
13.600000, 92.673, -37.3006
13.800000, 92.950, -38.1439
14.000000, 93.231, -39.0062
14.300000, 93.655, -40.3489
14.500000, 93.938, -41.2817
14.750000, 94.292, -42.4869
15.000000, 94.648, -43.7319
15.250000, 95.008, -45.0152
15.500000, 95.373, -46.3463
15.750000, 95.741, -47.7421
16.000000, 96.111, -49.2262
16.250000, 96.481, -50.8206
16.500000, 96.846, -52.5359
16.750000, 97.202, -54.3723
17.000000, 97.546, -56.3143
17.250000, 97.874, -58.3389
17.500000, 98.187, -60.4210
17.750000, 98.484, -62.5404
18.000000, 98.770, -64.6888
18.250000, 99.046, -66.8697
18.500000, 99.316, -69.0987
18.750000, 99.579, -71.3958
19.000000, 99.833, -73.7792
19.250000, 100.074, -76.2589
19.500000, 100.296, -78.8298
19.750000, 100.495, -81.4742
20.000000, 100.667, -84.1617
20.299999, 100.836, -87.3923
20.600000, 100.968, -90.5721
20.900000, 101.068, -93.6565
21.200001, 101.145, -96.6264
21.400000, 101.186, -98.5460
21.799999, 101.251, -102.2745
22.000000, 101.274, -104.1007
22.400000, 101.300, -107.7021
22.700001, 101.293, -110.3497
23.000000, 101.260, -112.9183
23.299999, 101.200, -115.3636
23.600000, 101.118, -117.6438
24.000000, 100.986, -120.3818
24.299999, 100.880, -122.2051
24.700001, 100.741, -124.3636
25.000000, 100.643, -125.8159
25.400000, 100.524, -127.5939
25.799999, 100.422, -129.2683
26.200001, 100.330, -130.9258
26.500000, 100.261, -132.1962
26.900000, 100.156, -133.9250
27.200001, 100.057, -135.2012
27.600000, 99.897, -136.7601
28.000000, 99.718, -138.0430
28.500000, 99.509, -139.2436
29.000000, 99.340, -140.2056
29.500000, 99.192, -141.1157
30.000000, 99.036, -141.8651
30.400000, 98.918, -142.2141
30.700001, 98.852, -142.3473
31.100000, 98.805, -142.5080
31.500000, 98.790, -142.8328
32.000000, 98.753, -143.4959
32.500000, 98.660, -144.0877
33.000000, 98.553, -144.2553
33.500000, 98.502, -144.1542
34.000000, 98.505, -144.2551
34.500000, 98.490, -144.7097
35.000000, 98.411, -145.1807
35.500000, 98.299, -145.2922
36.000000, 98.222, -145.0469
36.500000, 98.213, -144.7957
37.000000, 98.250, -144.9005
37.500000, 98.283, -145.5128
38.200001, 98.220, -146.9216
38.700001, 98.066, -147.6888
39.500000, 97.812, -147.4324
40.000000, 97.800, -146.8189
40.599998, 97.900, -146.7945
41.200001, 97.937, -147.5305
41.799999, 97.870, -147.9715
42.500000, 97.863, -147.7350
43.099998, 97.964, -147.9753
43.700001, 97.994, -148.9705
44.400002, 97.834, -149.7687
45.000000, 97.691, -149.3024
45.500000, 97.687, -148.5530
46.200001, 97.816, -148.2603
46.799999, 97.890, -148.9337
47.500000, 97.827, -149.8839
48.200001, 97.673, -149.9941
48.700001, 97.596, -149.4085
49.400002, 97.629, -148.1732
50.000000, 97.782, -147.4052
50.799999, 98.044, -147.3894
51.500000, 98.218, -148.1646
52.200001, 98.287, -149.2141
53.000000, 98.247, -150.1796
53.799999, 98.140, -150.5813
54.500000, 98.038, -150.4599
55.200001, 97.966, -149.9814
56.000000, 97.949, -149.2908
57.000000, 97.988, -148.5339
58.000000, 98.096, -147.7058
59.000000, 98.275, -147.3472
60.000000, 98.385, -147.1957
60.799999, 98.466, -146.7610
61.500000, 98.548, -146.3672
62.200001, 98.621, -145.9708
63.000000, 98.713, -145.5089
64.000000, 98.828, -145.2571
65.000000, 98.920, -145.1060
66.000000, 99.055, -145.3139
67.000000, 99.147, -145.9789
68.000000, 99.251, -146.4442
69.000000, 99.406, -147.3441
70.000000, 99.490, -148.4518
71.000000, 99.574, -149.1824
72.000000, 99.687, -150.1636
73.000000, 99.732, -151.4649
74.000000, 99.711, -152.4917
75.000000, 99.715, -153.2592
76.199997, 99.752, -154.6219
77.500000, 99.693, -156.4020
78.800003, 99.592, -157.5240
80.000000, 99.554, -158.3440
81.199997, 99.526, -159.4215
82.500000, 99.443, -160.7399
83.800003, 99.306, -161.8533
85.000000, 99.175, -162.5720
86.199997, 99.066, -163.1159
87.500000, 98.973, -163.6586
88.500000, 98.910, -164.0873
90.000000, 98.821, -164.7873
91.199997, 98.740, -165.4688
92.500000, 98.629, -166.2001
93.800003, 98.513, -166.9059
95.000000, 98.399, -167.5845
96.199997, 98.272, -168.3112
97.500000, 98.110, -169.1507
98.800003, 97.918, -170.0323
100.000000, 97.710, -170.8762
101.500000, 97.402, -171.8527
103.000000, 97.052, -172.4906
104.400002, 96.705, -172.6190
106.000000, 96.309, -172.0180
107.500000, 95.979, -170.8069
109.000000, 95.714, -169.3480
110.599998, 95.484, -167.9806
112.000000, 95.301, -167.0323
113.800003, 95.080, -165.9570
115.000000, 94.950, -165.1749
117.199997, 94.770, -163.5269
118.000000, 94.720, -162.9249
120.599998, 94.465, -161.4227
122.000000, 94.259, -160.0988
124.099998, 94.022, -157.9518
125.000000, 93.940, -157.1334
126.500000, 93.820, -155.8656
128.000000, 93.714, -154.6167
131.500000, 93.514, -151.4028
132.000000, 93.490, -150.9310
134.000000, 93.404, -149.1165
136.000000, 93.331, -147.3944
138.000000, 93.272, -145.6856
140.000000, 93.226, -143.9020
143.000000, 93.173, -141.1449
145.000000, 93.154, -139.3226
147.500000, 93.164, -137.1675
150.000000, 93.205, -135.1828
152.500000, 93.255, -133.3359
155.000000, 93.304, -131.6401
157.500000, 93.365, -130.0427
160.000000, 93.442, -128.5009
162.500000, 93.509, -127.1473
165.000000, 93.536, -125.8431
167.500000, 93.573, -124.5900
170.000000, 93.621, -123.4361
172.500000, 93.666, -122.2617
175.000000, 93.693, -121.1936
177.500000, 93.698, -120.2394
180.000000, 93.698, -119.3152
182.500000, 93.695, -118.4083
185.000000, 93.684, -117.4788
187.500000, 93.669, -116.5551
190.000000, 93.649, -115.6482
192.500000, 93.621, -114.7418
195.000000, 93.584, -113.8323
197.500000, 93.541, -112.9072
200.000000, 93.497, -111.9682
203.000000, 93.438, -110.8393
206.000000, 93.368, -109.6812
209.000000, 93.289, -108.5287
212.000000, 93.195, -107.3671
214.000000, 93.126, -106.5265
218.000000, 92.989, -104.6246
220.000000, 92.926, -103.6049
224.000000, 92.816, -101.5758
227.000000, 92.746, -100.0912
230.000000, 92.673, -98.6592
233.000000, 92.587, -97.2848
236.000000, 92.501, -95.8637
240.000000, 92.385, -93.8224
243.000000, 92.284, -92.2142
247.000000, 92.160, -90.0248
250.000000, 92.086, -88.4107
254.000000, 91.993, -86.3187
258.000000, 91.893, -84.2616
262.000000, 91.780, -82.2133
265.000000, 91.689, -80.6849
269.000000, 91.564, -78.6532
272.000000, 91.466, -77.1014
276.000000, 91.333, -74.9965
280.000000, 91.191, -72.8939
285.000000, 90.998, -70.2409
290.000000, 90.784, -67.5412
295.000000, 90.546, -64.7952
300.000000, 90.271, -61.8938
304.000000, 90.020, -59.2627
307.000000, 89.816, -57.0684
311.000000, 89.542, -53.7257
315.000000, 89.304, -49.7866
320.000000, 89.148, -44.2583
325.000000, 89.179, -39.0635
330.000000, 89.282, -35.0144
335.000000, 89.323, -31.7898
340.000000, 89.273, -28.6724
345.000000, 89.176, -25.2187
350.000000, 89.084, -21.4228
355.000000, 89.013, -17.5638
360.000000, 88.969, -13.8078
365.000000, 88.952, -10.0275
370.000000, 88.950, -6.3336
375.000000, 88.943, -2.8930
382.000000, 88.875, 1.7665
387.000000, 88.801, 5.2840
395.000000, 88.701, 11.1628
400.000000, 88.652, 14.8383
406.000000, 88.597, 19.2829
412.000000, 88.551, 23.7206
418.000000, 88.511, 28.1415
425.000000, 88.463, 33.2746
431.000000, 88.419, 37.6881
437.000000, 88.372, 42.1265
444.000000, 88.321, 47.3932
450.000000, 88.284, 51.9600
455.000000, 88.261, 55.8301
462.000000, 88.249, 61.2702
468.000000, 88.258, 65.9034
475.000000, 88.286, 71.2011
482.000000, 88.317, 76.3385
487.000000, 88.335, 79.9628
494.000000, 88.349, 85.0410
500.000000, 88.356, 89.3994
508.000000, 88.368, 95.2508
515.000000, 88.382, 100.4050
522.000000, 88.399, 105.5456
530.000000, 88.425, 111.4437
538.000000, 88.456, 117.3560
545.000000, 88.486, 122.5078
552.000000, 88.519, 127.6429
560.000000, 88.560, 133.4933
570.000000, 88.612, 140.8092
580.000000, 88.675, 148.1984
590.000000, 88.765, 155.5565
600.000000, 88.860, 162.7274
608.000000, 88.928, 168.3896
615.000000, 88.981, 173.3344
622.000000, 89.031, 178.2813
630.000000, 89.092, -176.0561
640.000000, 89.178, -169.0146
650.000000, 89.262, -162.0668
660.000000, 89.332, -155.1534
670.000000, 89.392, -148.2314
680.000000, 89.451, -141.3108
690.000000, 89.512, -134.3564
700.000000, 89.572, -127.3890
710.000000, 89.625, -120.4509
720.000000, 89.681, -113.4831
730.000000, 89.743, -106.5064
740.000000, 89.805, -99.5337
750.000000, 89.867, -92.5674
762.000000, 89.941, -84.2244
775.000000, 90.016, -75.2316
788.000000, 90.088, -66.2628
800.000000, 90.148, -57.9974
812.000000, 90.208, -49.7097
825.000000, 90.274, -40.7339
838.000000, 90.343, -31.7519
850.000000, 90.406, -23.4753
862.000000, 90.463, -15.2148
875.000000, 90.514, -6.2719
885.000000, 90.549, 0.6168
900.000000, 90.600, 10.9757
912.000000, 90.636, 19.2727
925.000000, 90.675, 28.3030
938.000000, 90.717, 37.3696
950.000000, 90.758, 45.7440
962.000000, 90.800, 54.1190
975.000000, 90.845, 63.1554
988.000000, 90.885, 72.1600
1000.000000, 90.922, 80.4922
1015.000000, 90.964, 90.8771
1030.000000, 91.000, 101.2957
1044.000000, 91.031, 111.0668
1060.000000, 91.069, 122.2252
1075.000000, 91.109, 132.6646
1090.000000, 91.154, 143.0194
1106.000000, 91.199, 154.0627
1120.000000, 91.233, 163.8016
1138.000000, 91.284, 176.3132
1150.000000, 91.324, -175.4021
1172.000000, 91.381, -160.4485
1180.000000, 91.386, -155.0974
1206.000000, 91.306, -137.6685
1220.000000, 91.214, -127.8162
1241.000000, 91.120, -112.3107
1250.000000, 91.111, -105.5962
1265.000000, 91.124, -94.5031
1280.000000, 91.153, -83.5472
1315.000000, 91.206, -58.3132
1320.000000, 91.210, -54.7279
1340.000000, 91.207, -40.3581
1360.000000, 91.177, -25.8978
1380.000000, 91.146, -11.3589
1400.000000, 91.131, 3.1847
1430.000000, 91.112, 24.8375
1450.000000, 91.092, 39.2148
1475.000000, 91.044, 57.2172
1500.000000, 90.965, 75.3305
1525.000000, 90.856, 93.5634
1550.000000, 90.714, 111.9470
1575.000000, 90.547, 130.5507
1600.000000, 90.365, 149.3987
1625.000000, 90.164, 168.4576
1650.000000, 89.940, -172.2651
1675.000000, 89.689, -152.7258
1700.000000, 89.401, -132.7448
1725.000000, 89.075, -112.0752
1750.000000, 88.724, -90.2571
1775.000000, 88.430, -66.3850
1800.000000, 88.470, -39.4359
1825.000000, 89.253, -11.2722
1850.000000, 90.637, 11.5596
1875.000000, 91.809, 27.1265
1900.000000, 92.359, 40.2623
1925.000000, 92.412, 54.3140
1950.000000, 92.177, 70.6204
1975.000000, 91.901, 89.5382
2000.000000, 91.761, 110.0033
2030.000000, 91.786, 134.8032
2060.000000, 91.921, 159.2902
2090.000000, 92.116, -176.3673
2120.000000, 92.358, -152.2595
2140.000000, 92.532, -136.3148
2180.000000, 92.900, -104.5339
2200.000000, 93.093, -88.7649
2240.000000, 93.491, -57.5381
2270.000000, 93.805, -34.2576
2300.000000, 94.127, -11.0586
2330.000000, 94.448, 11.9238
2360.000000, 94.756, 34.6425
2400.000000, 95.145, 64.7272
2430.000000, 95.427, 87.1840
2470.000000, 95.782, 116.9194
2500.000000, 96.024, 139.0353
2540.000000, 96.304, 168.3896
2580.000000, 96.544, -162.2150
2620.000000, 96.749, -132.7474
2650.000000, 96.882, -110.6067
2690.000000, 97.032, -81.0155
2720.000000, 97.128, -58.7659
2760.000000, 97.229, -28.9988
2800.000000, 97.310, 1.0443
2850.000000, 97.430, 39.0781
2900.000000, 97.610, 77.1948
2950.000000, 97.826, 114.9414
3000.000000, 98.014, 151.9888
3040.000000, 98.108, -178.7998
3070.000000, 98.139, -156.9636
3110.000000, 98.144, -127.6704
3150.000000, 98.140, -98.1812
3200.000000, 98.103, -61.4722
3250.000000, 97.983, -24.8979
3300.000000, 97.776, 11.9597
3350.000000, 97.524, 49.3567
3400.000000, 97.259, 86.8867
3450.000000, 96.940, 124.1482
3500.000000, 96.494, 161.1963
3550.000000, 95.865, -161.3794
3600.000000, 95.070, -122.6372
3650.000000, 94.169, -81.9287
3700.000000, 93.283, -37.4006
3750.000000, 92.876, 13.0798
3820.000000, 93.536, 79.7346
3870.000000, 94.152, 119.6172
3950.000000, 94.466, 178.9668
4000.000000, 94.269, -143.0872
4060.000000, 93.868, -95.0869
4120.000000, 93.476, -45.1619
4180.000000, 93.193, 5.6064
4250.000000, 93.049, 58.3579
4310.000000, 92.923, 91.4778
4370.000000, 92.915, 118.4016
4440.000000, 93.115, 148.2939
4500.000000, 93.393, 173.3137
4550.000000, 93.657, -166.6106
4620.000000, 94.020, -139.8433
4680.000000, 94.282, -118.0024
4750.000000, 94.494, -93.5139
4820.000000, 94.580, -69.7888
4870.000000, 94.554, -53.0696
4940.000000, 94.412, -29.6895
5000.000000, 94.220, -9.4285
5080.000000, 93.948, 18.2380
5150.000000, 93.778, 42.3921
5220.000000, 93.634, 65.7419
5300.000000, 93.455, 91.7083
5380.000000, 93.255, 116.6726
5450.000000, 93.012, 137.5046
5520.000000, 92.619, 157.7075
5600.000000, 91.895, -179.2329
5700.000000, 90.623, -148.3643
5800.000000, 89.306, -113.8008
5900.000000, 88.306, -77.0291
6000.000000, 87.670, -39.9392
6080.000000, 87.374, -10.6143
6150.000000, 87.256, 14.7500
6220.000000, 87.277, 39.7915
6300.000000, 87.472, 67.6445
6400.000000, 87.908, 100.5293
6500.000000, 88.404, 130.8811
6600.000000, 88.795, 158.9902
6700.000000, 89.004, -174.2456
6800.000000, 89.047, -147.9382
6900.000000, 88.991, -121.7124
7000.000000, 88.903, -95.3096
7100.000000, 88.836, -68.6885
7200.000000, 88.831, -42.0625
7300.000000, 88.909, -15.7192
7400.000000, 89.072, 10.0576
7500.000000, 89.310, 34.9648
7620.000000, 89.664, 63.3271
7750.000000, 90.066, 92.2871
7880.000000, 90.283, 119.7734
8000.000000, 90.255, 144.5293
8120.000000, 90.049, 169.2622
8250.000000, 89.716, -163.7363
8380.000000, 89.427, -135.8262
8500.000000, 89.394, -109.1719
8620.000000, 89.726, -82.9199
8750.000000, 90.423, -56.7427
8850.000000, 91.011, -38.9370
9000.000000, 91.673, -15.9497
9120.000000, 91.898, 0.2432
9250.000000, 91.781, 16.6323
9380.000000, 91.290, 32.7505
9500.000000, 90.560, 48.2896
9620.000000, 89.633, 64.9282
9750.000000, 88.461, 84.6255
9880.000000, 87.229, 106.8159
10000.000000, 86.257, 129.7920
10150.000000, 85.679, 160.6445
10300.000000, 86.030, -169.2788
10440.000000, 86.983, -144.4150
10600.000000, 88.490, -120.6479
10750.000000, 90.157, -102.8989
10900.000000, 91.837, -90.2695
11060.000000, 93.135, -82.7358
11200.000000, 93.396, -79.6182
11380.000000, 92.327, -75.6997
11500.000000, 90.953, -70.5967
11720.000000, 87.732, -48.9404
11800.000000, 86.400, -33.9888
12060.000000, 81.525, 47.4932
12200.000000, 80.438, 119.7368
12410.000000, 83.393, -149.6230
12500.000000, 84.889, -123.1357
12650.000000, 86.829, -84.8706
12800.000000, 88.115, -49.5542
13150.000000, 89.430, 30.8149
13200.000000, 89.499, 42.3594
13400.000000, 89.597, 88.8164
13600.000000, 89.571, 135.6226
13800.000000, 89.581, -178.7256
14000.000000, 89.360, -135.2656
14300.000000, 88.220, -69.8022
14500.000000, 87.421, -23.7490
14750.000000, 87.435, 32.8101
15000.000000, 88.705, 78.2769
15250.000000, 89.545, 106.7915
15500.000000, 88.555, 123.2373
15750.000000, 85.718, 136.4951
16000.000000, 81.404, 159.4985
