* Measurement data measured by REW V5.31.3
* Source: Headset (DS by VECLAN.COM), MICROPHONE (Master Volume), L, volume: 0.720. Timing signal peak level -31.1 dBFS, measurement signal peak level -9.4 dBFS
* Format: 2M Log Swept Sine, 1 sweep at -30.4 dBFS using an acoustic timing reference
* Dated: Nov 6, 2024 11:14:19 PM
* REW Settings:
*  C-weighting compensation: Off
*  Target level: 85.0 dB
* Note: ; Delay -0.1115 ms (-38 mm, -1.51 in) using estimated IR delay relative to Acoustic reference played from HEADPHONE L with no timing offset Clock adjustment: -80.4 ppm
* Measurement: Spatial ANC L3
* Smoothing: 1/24 octave
* Frequency Step: 1/48 octave
* Start Frequency: 1.000 Hz
*
* Freq(Hz), SPL(dB), Phase(degrees)
1.000000, 48.889, -167.8622
1.015000, 49.001, -169.3634
1.030000, 49.119, -170.8961
1.044000, 49.233, -172.3573
1.060000, 49.369, -174.0658
1.075000, 49.504, -175.7075
1.090000, 49.646, -177.3890
1.106000, 49.805, -179.2200
1.120000, 49.948, 179.1606
1.138000, 50.137, 177.0692
1.150000, 50.265, 175.6723
1.172000, 50.505, 173.1111
1.180000, 50.594, 172.1808
1.206000, 50.889, 169.1664
1.220000, 51.051, 167.5511
1.241000, 51.298, 165.1422
1.250000, 51.406, 164.1156
1.265000, 51.587, 162.4132
1.280000, 51.770, 160.7224
1.315000, 52.206, 156.8257
1.320000, 52.270, 156.2748
1.340000, 52.525, 154.0867
1.360000, 52.784, 151.9232
1.380000, 53.045, 149.7848
1.400000, 53.309, 147.6717
1.430000, 53.711, 144.5494
1.450000, 53.981, 142.5007
1.475000, 54.324, 139.9914
1.500000, 54.677, 137.5762
1.525000, 55.039, 135.2686
1.550000, 55.409, 133.0624
1.575000, 55.787, 130.9484
1.600000, 56.171, 128.9172
1.625000, 56.559, 126.9595
1.650000, 56.949, 125.0664
1.675000, 57.341, 123.2298
1.700000, 57.732, 121.4420
1.725000, 58.122, 119.6962
1.750000, 58.509, 117.9864
1.775000, 58.890, 116.3071
1.800000, 59.266, 114.6544
1.825000, 59.635, 113.0285
1.850000, 59.998, 111.4446
1.875000, 60.359, 109.9231
1.900000, 60.718, 108.4656
1.925000, 61.076, 107.0659
1.950000, 61.432, 105.7169
1.975000, 61.785, 104.4119
2.000000, 62.136, 103.1445
2.030000, 62.554, 101.6655
2.060000, 62.967, 100.2238
2.090000, 63.375, 98.8115
2.120000, 63.778, 97.4221
2.140000, 64.044, 96.5054
2.180000, 64.566, 94.6912
2.200000, 64.823, 93.7961
2.240000, 65.329, 92.0574
2.270000, 65.702, 90.8084
2.300000, 66.070, 89.6017
2.330000, 66.432, 88.4305
2.360000, 66.790, 87.2886
2.400000, 67.258, 85.8011
2.430000, 67.605, 84.7050
2.470000, 68.059, 83.2608
2.500000, 68.395, 82.1852
2.540000, 68.835, 80.7558
2.580000, 69.268, 79.3372
2.620000, 69.692, 77.9523
2.650000, 70.005, 76.9408
2.690000, 70.414, 75.6239
2.720000, 70.716, 74.6559
2.760000, 71.112, 73.3853
2.800000, 71.500, 72.1314
2.850000, 71.975, 70.5774
2.900000, 72.441, 69.0284
2.950000, 72.896, 67.4842
3.000000, 73.340, 65.9635
3.040000, 73.688, 64.7698
3.070000, 73.943, 63.8870
3.110000, 74.279, 62.7242
3.150000, 74.607, 61.5750
3.200000, 75.010, 60.1530
3.250000, 75.404, 58.7414
3.300000, 75.789, 57.3358
3.350000, 76.164, 55.9392
3.400000, 76.530, 54.5581
3.450000, 76.887, 53.1953
3.500000, 77.235, 51.8512
3.550000, 77.575, 50.5253
3.600000, 77.906, 49.2159
3.650000, 78.231, 47.9203
3.700000, 78.547, 46.6347
3.750000, 78.856, 45.3581
3.820000, 79.274, 43.5923
3.870000, 79.563, 42.3513
3.950000, 80.013, 40.4069
4.000000, 80.285, 39.2184
4.060000, 80.604, 37.8141
4.120000, 80.913, 36.4254
4.180000, 81.212, 35.0541
4.250000, 81.550, 33.4852
4.310000, 81.831, 32.1734
4.370000, 82.105, 30.8954
4.440000, 82.416, 29.4410
4.500000, 82.674, 28.2164
4.550000, 82.883, 27.2117
4.620000, 83.168, 25.8347
4.680000, 83.407, 24.6868
4.750000, 83.679, 23.3890
4.820000, 83.944, 22.1310
4.870000, 84.129, 21.2518
4.940000, 84.381, 20.0472
5.000000, 84.593, 19.0409
5.080000, 84.870, 17.7396
5.150000, 85.108, 16.6399
5.220000, 85.342, 15.5731
5.300000, 85.603, 14.3890
5.380000, 85.859, 13.2390
5.450000, 86.081, 12.2585
5.520000, 86.300, 11.3020
5.600000, 86.548, 10.2383
5.700000, 86.853, 8.9462
5.800000, 87.153, 7.6846
5.900000, 87.450, 6.4468
6.000000, 87.742, 5.2352
6.080000, 87.974, 4.2817
6.150000, 88.174, 3.4547
6.220000, 88.372, 2.6318
6.300000, 88.596, 1.6964
6.400000, 88.872, 0.5370
6.500000, 89.142, -0.6121
6.600000, 89.408, -1.7540
6.700000, 89.667, -2.8906
6.800000, 89.921, -4.0193
6.900000, 90.170, -5.1353
7.000000, 90.412, -6.2378
7.100000, 90.648, -7.3293
7.200000, 90.879, -8.4058
7.300000, 91.104, -9.4612
7.400000, 91.324, -10.4948
7.500000, 91.538, -11.5089
7.620000, 91.789, -12.6959
7.750000, 92.056, -13.9387
7.880000, 92.316, -15.1404
8.000000, 92.553, -16.2146
8.120000, 92.786, -17.2545
8.250000, 93.036, -18.3450
8.380000, 93.284, -19.4047
8.500000, 93.511, -20.3589
8.620000, 93.738, -21.2915
8.750000, 93.982, -22.2847
8.850000, 94.169, -23.0397
9.000000, 94.449, -24.1583
9.120000, 94.671, -25.0452
9.250000, 94.910, -26.0016
9.380000, 95.147, -26.9528
9.500000, 95.364, -27.8270
9.620000, 95.580, -28.6985
9.750000, 95.810, -29.6387
9.880000, 96.030, -30.5737
10.000000, 96.222, -31.4321
10.150000, 96.447, -32.4978
10.300000, 96.663, -33.5548
10.440000, 96.859, -34.5328
10.600000, 97.079, -35.6420
10.750000, 97.287, -36.6735
10.900000, 97.495, -37.6984
11.060000, 97.716, -38.7869
11.200000, 97.908, -39.7359
11.380000, 98.153, -40.9551
11.500000, 98.316, -41.7682
11.720000, 98.615, -43.2628
11.800000, 98.725, -43.8085
12.060000, 99.083, -45.5925
12.200000, 99.277, -46.5626
12.410000, 99.568, -48.0328
12.500000, 99.692, -48.6699
12.650000, 99.898, -49.7412
12.800000, 100.103, -50.8267
13.150000, 100.573, -53.4199
13.200000, 100.640, -53.7979
13.400000, 100.905, -55.3279
13.600000, 101.167, -56.8868
13.800000, 101.425, -58.4730
14.000000, 101.678, -60.0834
14.300000, 102.045, -62.5390
14.500000, 102.283, -64.1997
14.750000, 102.573, -66.3018
15.000000, 102.858, -68.4354
15.250000, 103.138, -70.6057
15.500000, 103.412, -72.8186
15.750000, 103.675, -75.0771
16.000000, 103.926, -77.3810
16.250000, 104.162, -79.7234
16.500000, 104.384, -82.0938
16.750000, 104.589, -84.4783
17.000000, 104.780, -86.8619
17.250000, 104.957, -89.2327
17.500000, 105.121, -91.5823
17.750000, 105.272, -93.9068
18.000000, 105.411, -96.2065
18.250000, 105.540, -98.4841
18.500000, 105.659, -100.7418
18.750000, 105.767, -102.9802
19.000000, 105.864, -105.1973
19.250000, 105.951, -107.3872
19.500000, 106.026, -109.5427
19.750000, 106.089, -111.6569
20.000000, 106.142, -113.7231
20.299999, 106.193, -116.1353
20.600000, 106.232, -118.4730
20.900000, 106.261, -120.7397
21.200001, 106.280, -122.9393
21.400000, 106.287, -124.3696
21.799999, 106.288, -127.1425
22.000000, 106.282, -128.4832
22.400000, 106.260, -131.0681
22.700001, 106.234, -132.9198
23.000000, 106.203, -134.6978
23.299999, 106.167, -136.4039
23.600000, 106.127, -138.0408
24.000000, 106.068, -140.1185
24.299999, 106.021, -141.5995
24.700001, 105.956, -143.4759
25.000000, 105.907, -144.8164
25.400000, 105.839, -146.5286
25.799999, 105.770, -148.1669
26.200001, 105.696, -149.7312
26.500000, 105.637, -150.8478
26.900000, 105.555, -152.2486
27.200001, 105.494, -153.2310
27.600000, 105.416, -154.4613
28.000000, 105.341, -155.6241
28.500000, 105.249, -157.0081
29.000000, 105.153, -158.2990
29.500000, 105.055, -159.4522
30.000000, 104.964, -160.4622
30.400000, 104.900, -161.2012
30.700001, 104.857, -161.7350
31.100000, 104.803, -162.4213
31.500000, 104.751, -163.0540
32.000000, 104.697, -163.7254
32.500000, 104.676, -164.2996
33.000000, 104.702, -164.9492
33.500000, 104.758, -165.8859
34.000000, 104.810, -167.1906
34.500000, 104.825, -168.7581
35.000000, 104.787, -170.3784
35.500000, 104.707, -171.8692
36.000000, 104.606, -173.1464
36.500000, 104.502, -174.2185
37.000000, 104.403, -175.1319
37.500000, 104.313, -175.9319
38.200001, 104.204, -176.9218
38.700001, 104.138, -177.5682
39.500000, 104.048, -178.5352
40.000000, 104.001, -179.1098
40.599998, 103.953, -179.7880
41.200001, 103.913, 179.5223
41.799999, 103.876, 178.8038
42.500000, 103.834, 177.9206
43.099998, 103.793, 177.1307
43.700001, 103.743, 176.3350
44.400002, 103.674, 175.4456
45.000000, 103.609, 174.7399
45.500000, 103.555, 174.1890
46.200001, 103.480, 173.4587
46.799999, 103.417, 172.8627
47.500000, 103.345, 172.2075
48.200001, 103.274, 171.6169
48.700001, 103.228, 171.2386
49.400002, 103.175, 170.7430
50.000000, 103.137, 170.3187
50.799999, 103.091, 169.7505
51.500000, 103.056, 169.2789
52.200001, 103.030, 168.8273
53.000000, 103.010, 168.2983
53.799999, 102.998, 167.7386
54.500000, 102.995, 167.2083
55.200001, 102.996, 166.6066
56.000000, 102.994, 165.8313
57.000000, 102.983, 164.7846
58.000000, 102.960, 163.6243
59.000000, 102.910, 162.4411
60.000000, 102.851, 161.3284
60.799999, 102.800, 160.4014
61.500000, 102.740, 159.6056
62.200001, 102.675, 158.8842
63.000000, 102.602, 158.1136
64.000000, 102.504, 157.1833
65.000000, 102.395, 156.3578
66.000000, 102.277, 155.6670
67.000000, 102.154, 155.1772
68.000000, 102.036, 154.8923
69.000000, 101.930, 154.7690
70.000000, 101.840, 154.7954
71.000000, 101.777, 154.9090
72.000000, 101.741, 155.0313
73.000000, 101.729, 155.1152
74.000000, 101.739, 155.1279
75.000000, 101.767, 155.0358
76.199997, 101.814, 154.7642
77.500000, 101.866, 154.3033
78.800003, 101.913, 153.7504
80.000000, 101.951, 153.2120
81.199997, 101.990, 152.6831
82.500000, 102.043, 152.1258
83.800003, 102.113, 151.5587
85.000000, 102.194, 150.9938
86.199997, 102.289, 150.3418
87.500000, 102.398, 149.5370
88.500000, 102.484, 148.8517
90.000000, 102.620, 147.6956
91.199997, 102.730, 146.6086
92.500000, 102.844, 145.2949
93.800003, 102.954, 143.8510
95.000000, 103.051, 142.3878
96.199997, 103.140, 140.7917
97.500000, 103.219, 138.9160
98.800003, 103.277, 136.9120
100.000000, 103.306, 134.9735
101.500000, 103.308, 132.4718
103.000000, 103.270, 129.9365
104.400002, 103.202, 127.5915
106.000000, 103.091, 124.9819
107.500000, 102.959, 122.6401
109.000000, 102.808, 120.4218
110.599998, 102.631, 118.1592
112.000000, 102.464, 116.2389
113.800003, 102.231, 113.8459
115.000000, 102.065, 112.3043
117.199997, 101.744, 109.6481
118.000000, 101.623, 108.7488
120.599998, 101.210, 105.9994
122.000000, 100.967, 104.7147
124.099998, 100.603, 103.0233
125.000000, 100.448, 102.3515
126.500000, 100.191, 101.3120
128.000000, 99.938, 100.3786
131.500000, 99.374, 98.5756
132.000000, 99.296, 98.3459
134.000000, 98.988, 97.4808
136.000000, 98.692, 96.7114
138.000000, 98.410, 96.0162
140.000000, 98.137, 95.3828
143.000000, 97.744, 94.5266
145.000000, 97.493, 93.9998
147.500000, 97.190, 93.3743
150.000000, 96.893, 92.7722
152.500000, 96.599, 92.1889
155.000000, 96.313, 91.6433
157.500000, 96.029, 91.1105
160.000000, 95.738, 90.5354
162.500000, 95.446, 89.9935
165.000000, 95.187, 89.5126
167.500000, 94.936, 89.0212
170.000000, 94.674, 88.6043
172.500000, 94.401, 88.1741
175.000000, 94.127, 87.7177
177.500000, 93.853, 87.2695
180.000000, 93.575, 86.8738
182.500000, 93.297, 86.5227
185.000000, 93.017, 86.1836
187.500000, 92.734, 85.8703
190.000000, 92.446, 85.5832
192.500000, 92.155, 85.3338
195.000000, 91.859, 85.1248
197.500000, 91.560, 84.9921
200.000000, 91.266, 84.9569
203.000000, 90.925, 85.0258
206.000000, 90.592, 85.1711
209.000000, 90.260, 85.3346
212.000000, 89.928, 85.5104
214.000000, 89.706, 85.6641
218.000000, 89.262, 86.1035
220.000000, 89.045, 86.3907
224.000000, 88.629, 87.0602
227.000000, 88.330, 87.6019
230.000000, 88.036, 88.1287
233.000000, 87.741, 88.6135
236.000000, 87.446, 89.0647
240.000000, 87.046, 89.7432
243.000000, 86.743, 90.5050
247.000000, 86.348, 91.6862
250.000000, 86.060, 92.5684
254.000000, 85.698, 93.7247
258.000000, 85.348, 94.8667
262.000000, 85.002, 96.1071
265.000000, 84.743, 97.0735
269.000000, 84.392, 98.4441
272.000000, 84.130, 99.5273
276.000000, 83.768, 101.0889
280.000000, 83.393, 102.8521
285.000000, 82.936, 105.5581
290.000000, 82.561, 108.9567
295.000000, 82.320, 112.6838
300.000000, 82.187, 115.8768
304.000000, 82.107, 117.7406
307.000000, 82.026, 118.9998
311.000000, 81.888, 120.8732
315.000000, 81.760, 123.1382
320.000000, 81.693, 126.2302
325.000000, 81.738, 128.7799
330.000000, 81.793, 130.3720
335.000000, 81.770, 131.3524
340.000000, 81.664, 132.3375
345.000000, 81.506, 133.6324
350.000000, 81.317, 135.3748
355.000000, 81.146, 137.6876
360.000000, 81.042, 140.2111
365.000000, 80.986, 142.4574
370.000000, 80.941, 144.5313
375.000000, 80.903, 146.6254
382.000000, 80.874, 149.6490
387.000000, 80.873, 151.8271
395.000000, 80.915, 155.2340
400.000000, 80.966, 157.2553
406.000000, 81.049, 159.6545
412.000000, 81.166, 161.9880
418.000000, 81.317, 164.0659
425.000000, 81.504, 166.1222
431.000000, 81.657, 167.7003
437.000000, 81.805, 169.2021
444.000000, 81.975, 170.7861
450.000000, 82.119, 172.0328
455.000000, 82.237, 173.0309
462.000000, 82.397, 174.3939
468.000000, 82.542, 175.5082
475.000000, 82.728, 176.6301
482.000000, 82.913, 177.5712
487.000000, 83.037, 178.2177
494.000000, 83.198, 179.0556
500.000000, 83.327, 179.7068
508.000000, 83.493, -179.4977
515.000000, 83.636, -178.8513
522.000000, 83.774, -178.2435
530.000000, 83.924, -177.5865
538.000000, 84.068, -176.9480
545.000000, 84.196, -176.4259
552.000000, 84.325, -175.9305
560.000000, 84.468, -175.3867
570.000000, 84.646, -174.7571
580.000000, 84.820, -174.2180
590.000000, 84.991, -173.6704
600.000000, 85.181, -173.1624
608.000000, 85.335, -172.9000
615.000000, 85.458, -172.7815
622.000000, 85.568, -172.6849
630.000000, 85.689, -172.5555
640.000000, 85.839, -172.4462
650.000000, 85.983, -172.4060
660.000000, 86.121, -172.3902
670.000000, 86.257, -172.4366
680.000000, 86.388, -172.4957
690.000000, 86.520, -172.5842
700.000000, 86.655, -172.7322
710.000000, 86.792, -172.9925
720.000000, 86.922, -173.3652
730.000000, 87.042, -173.8388
740.000000, 87.152, -174.4203
750.000000, 87.248, -175.0745
762.000000, 87.336, -175.9161
775.000000, 87.402, -176.9030
788.000000, 87.439, -177.9506
800.000000, 87.448, -178.9326
812.000000, 87.432, -179.8976
825.000000, 87.386, 179.1084
838.000000, 87.313, 178.1788
850.000000, 87.224, 177.3716
862.000000, 87.119, 176.6642
875.000000, 86.987, 176.0071
885.000000, 86.874, 175.6031
900.000000, 86.686, 175.1336
912.000000, 86.526, 174.8704
925.000000, 86.345, 174.7028
938.000000, 86.157, 174.6774
950.000000, 85.979, 174.7825
962.000000, 85.799, 174.9965
975.000000, 85.602, 175.3566
988.000000, 85.404, 175.8464
1000.000000, 85.225, 176.3979
1015.000000, 85.005, 177.2036
1030.000000, 84.789, 178.1422
1044.000000, 84.598, 179.1613
1060.000000, 84.388, -179.5155
1075.000000, 84.197, -178.1521
1090.000000, 84.016, -176.6750
1106.000000, 83.839, -174.9516
1120.000000, 83.696, -173.2333
1138.000000, 83.541, -170.6290
1150.000000, 83.469, -168.6520
1172.000000, 83.447, -164.7262
1180.000000, 83.481, -163.2922
1206.000000, 83.725, -159.0827
1220.000000, 83.910, -157.2616
1241.000000, 84.202, -155.1371
1250.000000, 84.320, -154.3955
1265.000000, 84.503, -153.3131
1280.000000, 84.670, -152.3792
1315.000000, 85.003, -150.4567
1320.000000, 85.047, -150.1893
1340.000000, 85.211, -149.1031
1360.000000, 85.352, -147.9778
1380.000000, 85.490, -146.8450
1400.000000, 85.648, -145.7298
1430.000000, 85.894, -144.1642
1450.000000, 86.051, -143.1677
1475.000000, 86.257, -141.8789
1500.000000, 86.482, -140.5701
1525.000000, 86.730, -139.3571
1550.000000, 86.993, -138.2534
1575.000000, 87.250, -137.3170
1600.000000, 87.493, -136.5369
1625.000000, 87.729, -135.7968
1650.000000, 87.968, -135.0621
1675.000000, 88.214, -134.3712
1700.000000, 88.469, -133.7759
1725.000000, 88.727, -133.2991
1750.000000, 88.985, -132.9382
1775.000000, 89.240, -132.6733
1800.000000, 89.482, -132.5101
1825.000000, 89.705, -132.4197
1850.000000, 89.903, -132.2959
1875.000000, 90.089, -131.8981
1900.000000, 90.327, -131.1453
1925.000000, 90.651, -130.5931
1950.000000, 90.997, -130.7513
1975.000000, 91.295, -131.4000
2000.000000, 91.542, -132.1609
2030.000000, 91.801, -133.0142
2060.000000, 92.037, -133.8091
2090.000000, 92.268, -134.5593
2120.000000, 92.502, -135.2838
2140.000000, 92.654, -135.8212
2180.000000, 92.929, -137.0504
2200.000000, 93.055, -137.7057
2240.000000, 93.290, -139.0828
2270.000000, 93.448, -140.1725
2300.000000, 93.594, -141.2528
2330.000000, 93.738, -142.2957
2360.000000, 93.881, -143.3292
2400.000000, 94.078, -144.7599
2430.000000, 94.228, -145.9269
2470.000000, 94.419, -147.6737
2500.000000, 94.545, -149.1309
2540.000000, 94.678, -151.1727
2580.000000, 94.772, -153.2809
2620.000000, 94.834, -155.4486
2650.000000, 94.857, -157.0966
2690.000000, 94.855, -159.2785
2720.000000, 94.829, -160.8871
2760.000000, 94.761, -162.9633
2800.000000, 94.661, -164.9260
2850.000000, 94.491, -167.1657
2900.000000, 94.289, -169.0532
2950.000000, 94.085, -170.6920
3000.000000, 93.887, -172.3123
3040.000000, 93.736, -173.5997
3070.000000, 93.629, -174.5267
3110.000000, 93.493, -175.7737
3150.000000, 93.365, -177.0903
3200.000000, 93.210, -178.8156
3250.000000, 93.039, 179.2551
3300.000000, 92.813, 176.9022
3350.000000, 92.512, 174.1230
3400.000000, 92.106, 171.0376
3450.000000, 91.556, 167.8588
3500.000000, 90.781, 165.0349
3550.000000, 89.724, 163.7887
3600.000000, 88.555, 166.0244
3650.000000, 87.726, 171.6082
3700.000000, 87.526, 177.5473
3750.000000, 87.829, -179.1725
3820.000000, 88.221, 179.2803
3870.000000, 88.052, 176.0820
3950.000000, 87.050, 172.1694
4000.000000, 86.168, 171.6024
4060.000000, 85.029, 172.8653
4120.000000, 83.883, 176.0582
4180.000000, 82.812, -178.6213
4250.000000, 81.820, -169.6262
4310.000000, 81.340, -160.1794
4370.000000, 81.293, -150.4369
4440.000000, 81.758, -140.5017
4500.000000, 82.461, -134.1692
4550.000000, 83.144, -130.6796
4620.000000, 84.092, -128.3354
4680.000000, 84.789, -128.1694
4750.000000, 85.383, -129.3676
4820.000000, 85.696, -131.4490
4870.000000, 85.750, -133.0026
4940.000000, 85.648, -134.4386
5000.000000, 85.525, -134.5913
5080.000000, 85.481, -134.1813
5150.000000, 85.530, -134.0936
5220.000000, 85.618, -134.5704
5300.000000, 85.749, -135.9507
5380.000000, 85.869, -138.4427
5450.000000, 85.846, -141.7990
5520.000000, 85.583, -145.9142
5600.000000, 84.916, -150.4163
5700.000000, 83.642, -153.8567
5800.000000, 82.192, -154.2142
5900.000000, 80.805, -152.2024
6000.000000, 79.566, -148.3342
6080.000000, 78.690, -144.2599
6150.000000, 78.010, -140.3083
6220.000000, 77.425, -136.1765
6300.000000, 76.896, -131.4956
6400.000000, 76.406, -126.4851
6500.000000, 75.924, -123.0291
6600.000000, 75.269, -120.4241
6700.000000, 74.365, -117.6310
6800.000000, 73.212, -113.6512
6900.000000, 71.906, -107.4207
7000.000000, 70.611, -97.9808
7100.000000, 69.567, -85.0854
7200.000000, 69.010, -69.9167
7300.000000, 69.015, -54.5220
7400.000000, 69.479, -40.5538
7500.000000, 70.257, -28.4030
7620.000000, 71.493, -15.8223
7750.000000, 73.082, -4.9294
7880.000000, 74.728, 2.9258
8000.000000, 76.218, 7.7208
8120.000000, 77.658, 10.3149
8250.000000, 79.117, 10.4202
8380.000000, 80.347, 7.7349
8500.000000, 81.117, 3.4002
8620.000000, 81.419, -1.6680
8750.000000, 81.233, -6.6823
8850.000000, 80.829, -9.4693
9000.000000, 80.007, -11.2844
9120.000000, 79.292, -10.8715
9250.000000, 78.525, -9.0389
9380.000000, 77.790, -5.9811
9500.000000, 77.157, -2.1923
9620.000000, 76.590, 2.5476
9750.000000, 76.129, 8.6677
9880.000000, 75.955, 15.3224
10000.000000, 76.102, 21.2516
10150.000000, 76.545, 26.9603
10300.000000, 77.057, 30.4031
10440.000000, 77.562, 31.9229
10600.000000, 78.182, 31.0720
10750.000000, 78.636, 26.3983
10900.000000, 78.540, 17.6193
11060.000000, 77.319, 6.5297
11200.000000, 75.205, -0.5491
11380.000000, 71.512, -2.0693
11500.000000, 68.810, 1.1287
11720.000000, 63.594, 8.1711
11800.000000, 61.939, 8.2469
12060.000000, 66.478, -173.3089
12200.000000, 70.411, 179.5975
12410.000000, 74.142, 167.1128
12500.000000, 75.141, 162.2302
12650.000000, 76.368, 155.4450
12800.000000, 77.305, 149.6542
13150.000000, 78.102, 134.6637
13200.000000, 77.982, 132.8170
13400.000000, 77.095, 129.1606
13600.000000, 76.420, 130.9469
13800.000000, 76.257, 131.3756
14000.000000, 75.884, 129.4838
14300.000000, 74.923, 130.2542
14500.000000, 74.894, 132.5226
