* Measurement data measured by REW V5.31.3
* Source: Headset (DS by VECLAN.COM), MICROPHONE (Master Volume), L, volume: 0.720. Timing signal peak level -12.5 dBFS, measurement signal peak level -7.8 dBFS
* Format: 2M Log Swept Sine, 1 sweep at -14.4 dBFS using an acoustic timing reference
* Dated: Nov 7, 2024 11:53:24 AM
* REW Settings:
*  C-weighting compensation: Off
*  Target level: 85.0 dB
* Note: ; Delay -0.0979 ms (-34 mm, -1.32 in) using estimated IR delay relative to Acoustic reference played from HEADPHONE L with no timing offset Clock adjustment: -114.2 ppm
* Measurement: Electronic Passive L4
* Smoothing: 1/24 octave
* Frequency Step: 1/48 octave
* Start Frequency: 1.000 Hz
*
* Freq(Hz), SPL(dB), Phase(degrees)
1.000000, 42.498, 153.2246
1.015000, 42.675, 152.6354
1.030000, 42.855, 152.0144
1.044000, 43.026, 151.4059
1.060000, 43.223, 150.6761
1.075000, 43.411, 149.9596
1.090000, 43.600, 149.2154
1.106000, 43.806, 148.4112
1.120000, 43.990, 147.7307
1.138000, 44.234, 146.9047
1.150000, 44.402, 146.3815
1.172000, 44.716, 145.4674
1.180000, 44.833, 145.1464
1.206000, 45.221, 144.1312
1.220000, 45.435, 143.5957
1.241000, 45.761, 142.7967
1.250000, 45.902, 142.4535
1.265000, 46.139, 141.8777
1.280000, 46.379, 141.2941
1.315000, 46.943, 139.8866
1.320000, 47.024, 139.6790
1.340000, 47.349, 138.8294
1.360000, 47.674, 137.9462
1.380000, 47.998, 137.0263
1.400000, 48.320, 136.0674
1.430000, 48.799, 134.5533
1.450000, 49.113, 133.4952
1.475000, 49.502, 132.1462
1.500000, 49.890, 130.8376
1.525000, 50.282, 129.5936
1.550000, 50.674, 128.4031
1.575000, 51.069, 127.2523
1.600000, 51.463, 126.1287
1.625000, 51.857, 125.0213
1.650000, 52.250, 123.9201
1.675000, 52.642, 122.8169
1.700000, 53.031, 121.7043
1.725000, 53.417, 120.5764
1.750000, 53.798, 119.4279
1.775000, 54.176, 118.2545
1.800000, 54.548, 117.0536
1.825000, 54.914, 115.8284
1.850000, 55.275, 114.6023
1.875000, 55.633, 113.4061
1.900000, 55.987, 112.2465
1.925000, 56.338, 111.1187
1.950000, 56.686, 110.0168
1.975000, 57.031, 108.9349
2.000000, 57.372, 107.8676
2.030000, 57.776, 106.5989
2.060000, 58.175, 105.3360
2.090000, 58.569, 104.0716
2.120000, 58.957, 102.7994
2.140000, 59.213, 101.9442
2.180000, 59.717, 100.2125
2.200000, 59.965, 99.3390
2.240000, 60.452, 97.6086
2.270000, 60.811, 96.3405
2.300000, 61.164, 95.0979
2.330000, 61.512, 93.8778
2.360000, 61.854, 92.6762
2.400000, 62.303, 91.0963
2.430000, 62.633, 89.9231
2.470000, 63.066, 88.3675
2.500000, 63.385, 87.2027
2.540000, 63.803, 85.6464
2.580000, 64.214, 84.0885
2.620000, 64.615, 82.5457
2.650000, 64.910, 81.4050
2.690000, 65.296, 79.9067
2.720000, 65.579, 78.7992
2.760000, 65.950, 77.3423
2.800000, 66.314, 75.9050
2.850000, 66.758, 74.1303
2.900000, 67.192, 72.3727
2.950000, 67.617, 70.6276
3.000000, 68.029, 68.9006
3.040000, 68.351, 67.5369
3.070000, 68.588, 66.5259
3.110000, 68.897, 65.1941
3.150000, 69.201, 63.8810
3.200000, 69.572, 62.2648
3.250000, 69.935, 60.6741
3.300000, 70.290, 59.1053
3.350000, 70.636, 57.5542
3.400000, 70.973, 56.0213
3.450000, 71.302, 54.5101
3.500000, 71.622, 53.0233
3.550000, 71.935, 51.5622
3.600000, 72.241, 50.1271
3.650000, 72.541, 48.7167
3.700000, 72.835, 47.3269
3.750000, 73.122, 45.9540
3.820000, 73.512, 44.0624
3.870000, 73.783, 42.7356
3.950000, 74.205, 40.6589
4.000000, 74.463, 39.3902
4.060000, 74.766, 37.8942
4.120000, 75.061, 36.4218
4.180000, 75.349, 34.9723
4.250000, 75.676, 33.3120
4.310000, 75.950, 31.9168
4.370000, 76.218, 30.5473
4.440000, 76.525, 28.9788
4.500000, 76.781, 27.6555
4.550000, 76.990, 26.5673
4.620000, 77.277, 25.0668
4.680000, 77.518, 23.8025
4.750000, 77.792, 22.3522
4.820000, 78.061, 20.9249
4.870000, 78.249, 19.9177
4.940000, 78.507, 18.5252
5.000000, 78.723, 17.3489
5.080000, 79.005, 15.8060
5.150000, 79.245, 14.4780
5.220000, 79.480, 13.1660
5.300000, 79.742, 11.6860
5.380000, 79.996, 10.2306
5.450000, 80.213, 8.9794
5.520000, 80.424, 7.7475
5.600000, 80.660, 6.3570
5.700000, 80.944, 4.6470
5.800000, 81.219, 2.9780
5.900000, 81.484, 1.3528
6.000000, 81.738, -0.2394
6.080000, 81.935, -1.4876
6.150000, 82.103, -2.5560
6.220000, 82.267, -3.5998
6.300000, 82.450, -4.7666
6.400000, 82.670, -6.1914
6.500000, 82.884, -7.5736
6.600000, 83.091, -8.9066
6.700000, 83.293, -10.1938
6.800000, 83.488, -11.4404
6.900000, 83.680, -12.6450
7.000000, 83.868, -13.8060
7.100000, 84.052, -14.9266
7.200000, 84.233, -16.0116
7.300000, 84.412, -17.0642
7.400000, 84.589, -18.0855
7.500000, 84.765, -19.0775
7.620000, 84.974, -20.2372
7.750000, 85.197, -21.4642
7.880000, 85.419, -22.6621
8.000000, 85.621, -23.7486
8.120000, 85.821, -24.8233
8.250000, 86.034, -25.9747
8.380000, 86.243, -27.1133
8.500000, 86.431, -28.1556
8.620000, 86.615, -29.1896
8.750000, 86.809, -30.2954
8.850000, 86.954, -31.1347
9.000000, 87.166, -32.3756
9.120000, 87.330, -33.3464
9.250000, 87.502, -34.3723
9.380000, 87.669, -35.3722
9.500000, 87.819, -36.2685
9.620000, 87.967, -37.1371
9.750000, 88.123, -38.0493
9.880000, 88.270, -38.9329
10.000000, 88.393, -39.7235
10.150000, 88.536, -40.6830
10.300000, 88.672, -41.6185
10.440000, 88.794, -42.4732
10.600000, 88.932, -43.4372
10.750000, 89.064, -44.3358
10.900000, 89.196, -45.2314
11.060000, 89.335, -46.1886
11.200000, 89.453, -47.0283
11.380000, 89.600, -48.1065
11.500000, 89.694, -48.8235
11.720000, 89.861, -50.1236
11.800000, 89.920, -50.5888
12.060000, 90.106, -52.0640
12.200000, 90.203, -52.8270
12.410000, 90.346, -53.9268
12.500000, 90.406, -54.3804
12.650000, 90.505, -55.1133
12.800000, 90.602, -55.8203
13.150000, 90.831, -57.3869
13.200000, 90.864, -57.6039
13.400000, 90.999, -58.4606
13.600000, 91.135, -59.3066
13.800000, 91.272, -60.1483
14.000000, 91.408, -60.9873
14.300000, 91.605, -62.2369
14.500000, 91.731, -63.0571
14.750000, 91.885, -64.0578
15.000000, 92.036, -65.0246
15.250000, 92.189, -65.9546
15.500000, 92.343, -66.8524
15.750000, 92.496, -67.7264
16.000000, 92.649, -68.5867
16.250000, 92.801, -69.4409
16.500000, 92.952, -70.2917
16.750000, 93.099, -71.1377
17.000000, 93.245, -71.9736
17.250000, 93.388, -72.7943
17.500000, 93.530, -73.5965
17.750000, 93.669, -74.3807
18.000000, 93.807, -75.1509
18.250000, 93.945, -75.9127
18.500000, 94.081, -76.6716
18.750000, 94.216, -77.4306
19.000000, 94.349, -78.1892
19.250000, 94.480, -78.9441
19.500000, 94.608, -79.6907
19.750000, 94.733, -80.4252
20.000000, 94.856, -81.1462
20.299999, 95.002, -81.9966
20.600000, 95.146, -82.8378
20.900000, 95.289, -83.6780
21.200001, 95.428, -84.5216
21.400000, 95.518, -85.0854
21.799999, 95.693, -86.2080
22.000000, 95.777, -86.7622
22.400000, 95.940, -87.8489
22.700001, 96.061, -88.6461
23.000000, 96.181, -89.4347
23.299999, 96.301, -90.2230
23.600000, 96.419, -91.0176
24.000000, 96.574, -92.0900
24.299999, 96.686, -92.9004
24.700001, 96.830, -93.9808
25.000000, 96.933, -94.7869
25.400000, 97.065, -95.8538
25.799999, 97.190, -96.9096
26.200001, 97.307, -97.9479
26.500000, 97.390, -98.7096
26.900000, 97.495, -99.6982
27.200001, 97.571, -100.4211
27.600000, 97.667, -101.3669
28.000000, 97.755, -102.2948
28.500000, 97.848, -103.4074
29.000000, 97.921, -104.4092
29.500000, 97.978, -105.2356
30.000000, 98.025, -105.8371
30.400000, 98.061, -106.1143
30.700001, 98.092, -106.1713
31.100000, 98.153, -106.0172
31.500000, 98.260, -105.6284
32.000000, 98.496, -105.0531
32.500000, 98.850, -104.8536
33.000000, 99.266, -105.4615
33.500000, 99.661, -106.9445
34.000000, 99.974, -109.0252
34.500000, 100.191, -111.3154
35.000000, 100.329, -113.5192
35.500000, 100.414, -115.5063
36.000000, 100.470, -117.2546
36.500000, 100.506, -118.7653
37.000000, 100.534, -120.0301
37.500000, 100.569, -121.0563
38.200001, 100.654, -122.2039
38.700001, 100.751, -122.9627
39.500000, 100.959, -124.3876
40.000000, 101.099, -125.5288
40.599998, 101.249, -127.1569
41.200001, 101.361, -128.9589
41.799999, 101.431, -130.8067
42.500000, 101.467, -132.9223
43.099998, 101.462, -134.6516
43.700001, 101.425, -136.2348
44.400002, 101.355, -137.8171
45.000000, 101.283, -138.9403
45.500000, 101.220, -139.7230
46.200001, 101.129, -140.5563
46.799999, 101.061, -141.0002
47.500000, 101.011, -141.2609
48.200001, 100.997, -141.3431
48.700001, 101.010, -141.3107
49.400002, 101.070, -141.1811
50.000000, 101.167, -141.1104
50.799999, 101.342, -141.2725
51.500000, 101.515, -141.6926
52.200001, 101.695, -142.3615
53.000000, 101.891, -143.4306
53.799999, 102.058, -144.7324
54.500000, 102.175, -145.9461
55.200001, 102.268, -147.1566
56.000000, 102.350, -148.4614
57.000000, 102.433, -149.8629
58.000000, 102.524, -150.9812
59.000000, 102.649, -152.0472
60.000000, 102.771, -153.3072
60.799999, 102.838, -154.2764
61.500000, 102.890, -154.9511
62.200001, 102.953, -155.4831
63.000000, 103.050, -155.9697
64.000000, 103.226, -156.4723
65.000000, 103.478, -157.0764
66.000000, 103.797, -158.0158
67.000000, 104.161, -159.4215
68.000000, 104.548, -161.4179
69.000000, 104.917, -164.0629
70.000000, 105.238, -167.2439
71.000000, 105.495, -170.8511
72.000000, 105.670, -174.7659
73.000000, 105.757, -178.7561
74.000000, 105.772, 177.3755
75.000000, 105.741, 173.7386
76.199997, 105.684, 169.6460
77.500000, 105.608, 165.3316
78.800003, 105.507, 161.0480
80.000000, 105.381, 157.0701
81.199997, 105.208, 153.0715
82.500000, 104.960, 148.7881
83.800003, 104.639, 144.6421
85.000000, 104.280, 141.1467
86.199997, 103.891, 138.0409
87.500000, 103.451, 135.0357
88.500000, 103.101, 132.9267
90.000000, 102.543, 130.0461
91.199997, 102.058, 128.0463
92.500000, 101.496, 126.2653
93.800003, 100.903, 124.9480
95.000000, 100.342, 124.1736
96.199997, 99.773, 123.8155
97.500000, 99.156, 123.9943
98.800003, 98.565, 124.8427
100.000000, 98.068, 126.2143
101.500000, 97.553, 128.5931
103.000000, 97.184, 131.3488
104.400002, 96.970, 133.8931
106.000000, 96.857, 136.4503
107.500000, 96.839, 138.3122
109.000000, 96.870, 139.7101
110.599998, 96.930, 140.7430
112.000000, 96.980, 141.2873
113.800003, 97.022, 141.6328
115.000000, 97.034, 141.6795
117.199997, 97.032, 141.4795
118.000000, 97.027, 141.3444
120.599998, 97.013, 140.8679
122.000000, 97.006, 140.5312
124.099998, 96.979, 140.0028
125.000000, 96.965, 139.7479
126.500000, 96.935, 139.2733
128.000000, 96.900, 138.7792
131.500000, 96.802, 137.5401
132.000000, 96.785, 137.3502
134.000000, 96.709, 136.5438
136.000000, 96.623, 135.6807
138.000000, 96.532, 134.7950
140.000000, 96.431, 133.9044
143.000000, 96.253, 132.5990
145.000000, 96.115, 131.7276
147.500000, 95.927, 130.6655
150.000000, 95.728, 129.6622
152.500000, 95.516, 128.7372
155.000000, 95.295, 127.8971
157.500000, 95.063, 127.0978
160.000000, 94.820, 126.3564
162.500000, 94.573, 125.6495
165.000000, 94.321, 125.0078
167.500000, 94.065, 124.4730
170.000000, 93.802, 124.0205
172.500000, 93.534, 123.6249
175.000000, 93.258, 123.2821
177.500000, 92.974, 122.9805
180.000000, 92.680, 122.7697
182.500000, 92.388, 122.7066
185.000000, 92.102, 122.7441
187.500000, 91.815, 122.8605
190.000000, 91.534, 123.0515
192.500000, 91.263, 123.2938
195.000000, 91.000, 123.5889
197.500000, 90.737, 123.9596
200.000000, 90.474, 124.4169
203.000000, 90.171, 125.0953
206.000000, 89.896, 125.8834
209.000000, 89.653, 126.6704
212.000000, 89.425, 127.3378
214.000000, 89.272, 127.6928
218.000000, 88.945, 128.2856
220.000000, 88.770, 128.6017
224.000000, 88.408, 129.3847
227.000000, 88.133, 130.0790
230.000000, 87.861, 130.8539
233.000000, 87.590, 131.7218
236.000000, 87.320, 132.6768
240.000000, 86.968, 134.0883
243.000000, 86.718, 135.2567
247.000000, 86.409, 136.8393
250.000000, 86.186, 137.9944
254.000000, 85.891, 139.5655
258.000000, 85.590, 141.1939
262.000000, 85.287, 142.9051
265.000000, 85.059, 144.2337
269.000000, 84.753, 146.1367
272.000000, 84.527, 147.7062
276.000000, 84.230, 150.0089
280.000000, 83.942, 152.6071
285.000000, 83.627, 156.4145
290.000000, 83.417, 160.7635
295.000000, 83.349, 165.1021
300.000000, 83.391, 168.8723
304.000000, 83.472, 171.6234
307.000000, 83.556, 173.6631
311.000000, 83.724, 176.1902
315.000000, 83.954, 178.0191
320.000000, 84.208, 179.0513
325.000000, 84.308, 179.3912
330.000000, 84.279, 179.9554
335.000000, 84.197, -179.0145
340.000000, 84.108, -177.6332
345.000000, 84.022, -176.0018
350.000000, 83.956, -174.1394
355.000000, 83.934, -172.2441
360.000000, 83.939, -170.5791
365.000000, 83.931, -169.0894
370.000000, 83.909, -167.5820
375.000000, 83.883, -165.9932
382.000000, 83.853, -163.6910
387.000000, 83.838, -162.0096
395.000000, 83.832, -159.2844
400.000000, 83.841, -157.5692
406.000000, 83.867, -155.5327
412.000000, 83.910, -153.5105
418.000000, 83.975, -151.5538
425.000000, 84.064, -149.5276
431.000000, 84.122, -148.0061
437.000000, 84.155, -146.4357
444.000000, 84.200, -144.4307
450.000000, 84.261, -142.7147
455.000000, 84.325, -141.3293
462.000000, 84.422, -139.5584
468.000000, 84.495, -138.1879
475.000000, 84.561, -136.6296
482.000000, 84.619, -135.0477
487.000000, 84.662, -133.9033
494.000000, 84.721, -132.2910
500.000000, 84.770, -130.9039
508.000000, 84.835, -129.0480
515.000000, 84.893, -127.4154
522.000000, 84.948, -125.7644
530.000000, 85.012, -123.8486
538.000000, 85.083, -121.9056
545.000000, 85.154, -120.1688
552.000000, 85.231, -118.4089
560.000000, 85.323, -116.3796
570.000000, 85.455, -113.7826
580.000000, 85.616, -111.1613
590.000000, 85.801, -108.6518
600.000000, 85.993, -106.2382
608.000000, 86.154, -104.3944
615.000000, 86.297, -102.8473
622.000000, 86.438, -101.3046
630.000000, 86.605, -99.5338
640.000000, 86.829, -97.3487
650.000000, 87.071, -95.2120
660.000000, 87.329, -93.1519
670.000000, 87.599, -91.2206
680.000000, 87.881, -89.3950
690.000000, 88.174, -87.6875
700.000000, 88.478, -86.1258
710.000000, 88.787, -84.7130
720.000000, 89.101, -83.4713
730.000000, 89.413, -82.4280
740.000000, 89.716, -81.5638
750.000000, 90.007, -80.8253
762.000000, 90.346, -80.0921
775.000000, 90.693, -79.4919
788.000000, 91.014, -79.0753
800.000000, 91.284, -78.8212
812.000000, 91.530, -78.6607
825.000000, 91.770, -78.5515
838.000000, 91.983, -78.4731
850.000000, 92.157, -78.4267
862.000000, 92.310, -78.3874
875.000000, 92.452, -78.3260
885.000000, 92.546, -78.2645
900.000000, 92.668, -78.1534
912.000000, 92.747, -78.0396
925.000000, 92.815, -77.8705
938.000000, 92.867, -77.6298
950.000000, 92.905, -77.3261
962.000000, 92.934, -76.9557
975.000000, 92.955, -76.5023
988.000000, 92.967, -75.9977
1000.000000, 92.972, -75.4677
1015.000000, 92.973, -74.7132
1030.000000, 92.968, -73.8807
1044.000000, 92.955, -73.0383
1060.000000, 92.932, -71.9765
1075.000000, 92.910, -70.8845
1090.000000, 92.888, -69.7261
1106.000000, 92.863, -68.3739
1120.000000, 92.840, -67.0140
1138.000000, 92.822, -64.9761
1150.000000, 92.828, -63.4552
1172.000000, 92.897, -60.4834
1180.000000, 92.943, -59.4000
1206.000000, 93.160, -56.1099
1220.000000, 93.299, -54.5468
1241.000000, 93.506, -52.4501
1250.000000, 93.591, -51.6253
1265.000000, 93.726, -50.3145
1280.000000, 93.852, -49.0586
1315.000000, 94.115, -46.1660
1320.000000, 94.149, -45.7374
1340.000000, 94.275, -44.0005
1360.000000, 94.372, -42.2670
1380.000000, 94.457, -40.4883
1400.000000, 94.552, -38.6219
1430.000000, 94.713, -35.6586
1450.000000, 94.835, -33.5919
1475.000000, 95.015, -30.9443
1500.000000, 95.224, -28.3498
1525.000000, 95.436, -25.9219
1550.000000, 95.636, -23.6228
1575.000000, 95.823, -21.3411
1600.000000, 96.005, -19.0320
1625.000000, 96.194, -16.6505
1650.000000, 96.399, -14.2014
1675.000000, 96.622, -11.7775
1700.000000, 96.855, -9.4647
1725.000000, 97.089, -7.2767
1750.000000, 97.320, -5.1603
1775.000000, 97.546, -3.0586
1800.000000, 97.766, -0.9610
1825.000000, 97.982, 1.1313
1850.000000, 98.199, 3.2768
1875.000000, 98.436, 5.5003
1900.000000, 98.702, 7.6189
1925.000000, 98.975, 9.5044
1950.000000, 99.235, 11.2643
1975.000000, 99.482, 13.0148
2000.000000, 99.724, 14.7806
2030.000000, 100.016, 16.8788
2060.000000, 100.312, 18.9292
2090.000000, 100.616, 20.9220
2120.000000, 100.915, 22.8447
2140.000000, 101.107, 24.1181
2180.000000, 101.489, 26.6462
2200.000000, 101.681, 27.8792
2240.000000, 102.065, 30.2699
2270.000000, 102.354, 32.0035
2300.000000, 102.650, 33.7025
2330.000000, 102.955, 35.3618
2360.000000, 103.267, 36.9345
2400.000000, 103.682, 38.8039
2430.000000, 103.987, 40.0276
2470.000000, 104.378, 41.4874
2500.000000, 104.660, 42.4633
2540.000000, 105.017, 43.6392
2580.000000, 105.355, 44.7559
2620.000000, 105.673, 45.8365
2650.000000, 105.899, 46.6154
2690.000000, 106.178, 47.5970
2720.000000, 106.374, 48.2965
2760.000000, 106.617, 49.1805
2800.000000, 106.837, 50.0105
2850.000000, 107.096, 51.1460
2900.000000, 107.353, 52.4142
2950.000000, 107.619, 53.7293
3000.000000, 107.901, 55.0480
3040.000000, 108.134, 55.9318
3070.000000, 108.306, 56.3969
3110.000000, 108.529, 56.7369
3150.000000, 108.734, 56.8193
3200.000000, 108.945, 56.6677
3250.000000, 109.089, 56.3036
3300.000000, 109.164, 55.8208
3350.000000, 109.160, 55.2016
3400.000000, 109.026, 54.2999
3450.000000, 108.702, 53.4970
3500.000000, 108.209, 54.1235
3550.000000, 107.767, 57.0942
3600.000000, 107.605, 61.0914
3650.000000, 107.699, 64.6310
3700.000000, 107.969, 66.9404
3750.000000, 108.244, 67.2212
3820.000000, 108.282, 65.3558
3870.000000, 108.018, 63.8539
3950.000000, 107.226, 62.7728
4000.000000, 106.574, 63.0974
4060.000000, 105.675, 64.1126
4120.000000, 104.671, 65.3988
4180.000000, 103.638, 67.4328
4250.000000, 102.541, 71.6281
4310.000000, 101.795, 76.7823
4370.000000, 101.307, 82.8340
4440.000000, 101.100, 89.8423
4500.000000, 101.179, 94.9228
4550.000000, 101.348, 98.1593
4620.000000, 101.606, 101.0123
4680.000000, 101.742, 102.1406
4750.000000, 101.726, 102.7385
4820.000000, 101.520, 103.7601
4870.000000, 101.300, 105.3253
4940.000000, 101.064, 109.1973
5000.000000, 101.101, 113.5529
5080.000000, 101.536, 118.8421
5150.000000, 102.148, 121.6563
5220.000000, 102.831, 122.4843
5300.000000, 103.562, 121.0033
5380.000000, 104.059, 117.0590
5450.000000, 104.168, 112.4930
5520.000000, 103.974, 108.4326
5600.000000, 103.546, 105.4694
5700.000000, 102.956, 103.4669
5800.000000, 102.334, 102.1019
5900.000000, 101.645, 101.6261
6000.000000, 100.931, 102.5394
6080.000000, 100.415, 104.4323
6150.000000, 100.085, 106.8498
6220.000000, 99.918, 109.4813
6300.000000, 99.898, 111.8932
6400.000000, 99.980, 113.4398
6500.000000, 100.059, 113.6626
6600.000000, 100.087, 112.8421
6700.000000, 99.999, 111.0133
6800.000000, 99.726, 108.7593
6900.000000, 99.266, 106.8281
7000.000000, 98.662, 105.8497
7100.000000, 97.990, 106.3899
7200.000000, 97.358, 108.5052
7300.000000, 96.857, 111.6344
7400.000000, 96.515, 115.2345
7500.000000, 96.325, 119.0051
7620.000000, 96.323, 123.3515
7750.000000, 96.580, 127.1643
7880.000000, 96.925, 129.6576
8000.000000, 97.281, 130.7582
8120.000000, 97.646, 130.5543
8250.000000, 97.955, 128.9381
8380.000000, 98.079, 126.2202
8500.000000, 98.016, 123.2611
8620.000000, 97.822, 120.3781
8750.000000, 97.498, 117.7413
8850.000000, 97.201, 116.0479
9000.000000, 96.717, 114.0377
9120.000000, 96.265, 113.1417
9250.000000, 95.747, 113.1865
9380.000000, 95.333, 113.7501
9500.000000, 95.053, 113.9754
9620.000000, 94.772, 113.8592
9750.000000, 94.420, 113.9055
9880.000000, 94.065, 114.7532
10000.000000, 93.835, 116.4820
10150.000000, 93.823, 119.2828
10300.000000, 94.181, 121.6419
10440.000000, 94.813, 122.3616
10600.000000, 95.769, 120.5794
10750.000000, 96.784, 115.7337
10900.000000, 97.725, 107.0096
11060.000000, 98.232, 93.5272
11200.000000, 97.911, 80.4355
11380.000000, 96.584, 67.3187
11500.000000, 95.478, 61.6987
11720.000000, 93.045, 52.9548
11800.000000, 91.870, 49.8802
12060.000000, 86.267, 44.9284
12200.000000, 83.009, 74.1321
12410.000000, 85.565, 178.2672
12500.000000, 87.691, 176.6442
12650.000000, 90.219, 169.5251
12800.000000, 91.702, 161.9929
13150.000000, 93.606, 146.7137
13200.000000, 93.734, 144.1312
13400.000000, 93.616, 133.3493
13600.000000, 92.659, 125.5754
13800.000000, 91.519, 121.4857
14000.000000, 90.232, 119.3675
14300.000000, 88.291, 123.5608
14500.000000, 87.955, 128.7243
14750.000000, 88.868, 128.8315
15000.000000, 90.282, 114.5993
15250.000000, 90.146, 85.2179
