* Measurement data measured by REW V5.31
* Source: Headset (DS by VECLAN.COM), MICROPHONE (Master Volume), L, volume: 0.720. Timing signal peak level -21.7 dBFS, measurement signal peak level -21.6 dBFS
* Format: 2M Log Swept Sine, 1 sweep at -12.0 dBFS using an acoustic timing reference
* Dated: Apr 20, 2024 12:37:47 PM
* REW Settings:
*  C-weighting compensation: Off
*  Target level: 75.0 dB
* Note: ; Delay -0.0675 ms (-23 mm, -0.91 in) using estimated IR delay relative to Acoustic reference played from HEADPHONE L with no timing offset
* Measurement: ZMF Caldera L5
* Smoothing: 1/24 octave
* Frequency Step: 1/48 octave
* Start Frequency: 1.000 Hz
*
* Freq(Hz), SPL(dB), Phase(degrees)
1.000000, 80.681, -98.0529
1.015000, 80.817, -96.8757
1.030000, 80.954, -95.7342
1.044000, 81.083, -94.7022
1.060000, 81.229, -93.5634
1.075000, 81.366, -92.5358
1.090000, 81.503, -91.5466
1.106000, 81.651, -90.5278
1.120000, 81.785, -89.6560
1.138000, 81.965, -88.5552
1.150000, 82.091, -87.8340
1.172000, 82.330, -86.5464
1.180000, 82.419, -86.0943
1.206000, 82.716, -84.6618
1.220000, 82.879, -83.9149
1.241000, 83.125, -82.8282
1.250000, 83.231, -82.3750
1.265000, 83.406, -81.6369
1.280000, 83.581, -80.9205
1.315000, 83.978, -79.3352
1.320000, 84.033, -79.1186
1.340000, 84.249, -78.2775
1.360000, 84.454, -77.4755
1.380000, 84.647, -76.7517
1.400000, 84.826, -76.0826
1.430000, 85.063, -75.1538
1.450000, 85.198, -74.5837
1.475000, 85.338, -73.9185
1.500000, 85.447, -73.2865
1.525000, 85.528, -72.6789
1.550000, 85.586, -72.0958
1.575000, 85.623, -71.5595
1.600000, 85.642, -71.0882
1.625000, 85.647, -70.6434
1.650000, 85.641, -70.2260
1.675000, 85.628, -69.8364
1.700000, 85.611, -69.4751
1.725000, 85.592, -69.1427
1.750000, 85.576, -68.8394
1.775000, 85.565, -68.5827
1.800000, 85.563, -68.3893
1.825000, 85.571, -68.2251
1.850000, 85.589, -68.0885
1.875000, 85.609, -67.9745
1.900000, 85.631, -67.8792
1.925000, 85.653, -67.8000
1.950000, 85.676, -67.7342
1.975000, 85.698, -67.6968
2.000000, 85.721, -67.7021
2.030000, 85.748, -67.7186
2.060000, 85.774, -67.7461
2.090000, 85.799, -67.7832
2.120000, 85.822, -67.8288
2.140000, 85.837, -67.8636
2.180000, 85.863, -67.9649
2.200000, 85.875, -68.0422
2.240000, 85.897, -68.2198
2.270000, 85.912, -68.3744
2.300000, 85.925, -68.5425
2.330000, 85.938, -68.7196
2.360000, 85.948, -68.9015
2.400000, 85.961, -69.1928
2.430000, 85.969, -69.4140
2.470000, 85.978, -69.6979
2.500000, 85.984, -69.8993
2.540000, 85.989, -70.1497
2.580000, 85.992, -70.4037
2.620000, 85.993, -70.7000
2.650000, 85.991, -70.9279
2.690000, 85.987, -71.2349
2.720000, 85.982, -71.4630
2.760000, 85.975, -71.7561
2.800000, 85.966, -72.0713
2.850000, 85.954, -72.4352
2.900000, 85.941, -72.7476
2.950000, 85.927, -73.0083
3.000000, 85.910, -73.2718
3.040000, 85.894, -73.4804
3.070000, 85.881, -73.6276
3.110000, 85.864, -73.8090
3.150000, 85.847, -73.9707
3.200000, 85.829, -74.1704
3.250000, 85.813, -74.3411
3.300000, 85.803, -74.4621
3.350000, 85.795, -74.5314
3.400000, 85.790, -74.5908
3.450000, 85.787, -74.6301
3.500000, 85.787, -74.6434
3.550000, 85.793, -74.6368
3.600000, 85.805, -74.6428
3.650000, 85.824, -74.6480
3.700000, 85.851, -74.6309
3.750000, 85.884, -74.5812
3.820000, 85.941, -74.5093
3.870000, 85.988, -74.4594
3.950000, 86.076, -74.4073
4.000000, 86.138, -74.4302
4.060000, 86.222, -74.4997
4.120000, 86.315, -74.5754
4.180000, 86.418, -74.6648
4.250000, 86.546, -74.8342
4.310000, 86.659, -75.0265
4.370000, 86.774, -75.2822
4.440000, 86.910, -75.6877
4.500000, 87.030, -76.0795
4.550000, 87.132, -76.4296
4.620000, 87.276, -76.9847
4.680000, 87.397, -77.5043
4.750000, 87.534, -78.1594
4.820000, 87.667, -78.8962
4.870000, 87.760, -79.4594
4.940000, 87.887, -80.2785
5.000000, 87.992, -81.0128
5.080000, 88.124, -82.0158
5.150000, 88.232, -82.9037
5.220000, 88.332, -83.8387
5.300000, 88.437, -84.9396
5.380000, 88.535, -86.0410
5.450000, 88.614, -87.0012
5.520000, 88.687, -87.9340
5.600000, 88.763, -88.9988
5.700000, 88.847, -90.3306
5.800000, 88.923, -91.6182
5.900000, 88.994, -92.8494
6.000000, 89.058, -94.0297
6.080000, 89.105, -94.9560
6.150000, 89.146, -95.7364
6.220000, 89.187, -96.5034
6.300000, 89.234, -97.3476
6.400000, 89.293, -98.3660
6.500000, 89.352, -99.3655
6.600000, 89.411, -100.3464
6.700000, 89.472, -101.3223
6.800000, 89.533, -102.2830
6.900000, 89.592, -103.2416
7.000000, 89.648, -104.1977
7.100000, 89.701, -105.1653
7.200000, 89.749, -106.1231
7.300000, 89.790, -107.0611
7.400000, 89.821, -107.9759
7.500000, 89.844, -108.8822
7.620000, 89.862, -109.9041
7.750000, 89.867, -110.8853
7.880000, 89.859, -111.7529
8.000000, 89.847, -112.4187
8.120000, 89.836, -112.9228
8.250000, 89.825, -113.2911
8.380000, 89.829, -113.5070
8.500000, 89.853, -113.5808
8.620000, 89.900, -113.5414
8.750000, 89.977, -113.4699
8.850000, 90.061, -113.4377
9.000000, 90.222, -113.4309
9.120000, 90.372, -113.5546
9.250000, 90.551, -113.8845
9.380000, 90.742, -114.3981
9.500000, 90.914, -115.0538
9.620000, 91.076, -115.8957
9.750000, 91.234, -116.9848
9.880000, 91.359, -118.2027
10.000000, 91.435, -119.4225
10.150000, 91.480, -121.0671
10.300000, 91.470, -122.6692
10.440000, 91.410, -124.1027
10.600000, 91.296, -125.5726
10.750000, 91.153, -126.6922
10.900000, 90.984, -127.5497
11.060000, 90.797, -128.1391
11.200000, 90.634, -128.3858
11.380000, 90.448, -128.3531
11.500000, 90.347, -128.1339
11.720000, 90.220, -127.4868
11.800000, 90.195, -127.2231
12.060000, 90.183, -126.4148
12.200000, 90.208, -126.1288
12.410000, 90.268, -125.8569
12.500000, 90.294, -125.7923
12.650000, 90.335, -125.7410
12.800000, 90.372, -125.7152
13.150000, 90.450, -125.6279
13.200000, 90.463, -125.6049
13.400000, 90.530, -125.4556
13.600000, 90.627, -125.2690
13.800000, 90.762, -125.1142
14.000000, 90.930, -125.1104
14.300000, 91.225, -125.6009
14.500000, 91.424, -126.2541
14.750000, 91.649, -127.3679
15.000000, 91.832, -128.6959
15.250000, 91.975, -130.1241
15.500000, 92.082, -131.4631
15.750000, 92.167, -132.6371
16.000000, 92.249, -133.6384
16.250000, 92.341, -134.5717
16.500000, 92.444, -135.4625
16.750000, 92.551, -136.3720
17.000000, 92.655, -137.3214
17.250000, 92.747, -138.3198
17.500000, 92.822, -139.3021
17.750000, 92.880, -140.2301
18.000000, 92.925, -141.0950
18.250000, 92.961, -141.9241
18.500000, 92.985, -142.7120
18.750000, 92.993, -143.4551
19.000000, 92.979, -144.1290
19.250000, 92.943, -144.7014
19.500000, 92.887, -145.0824
19.750000, 92.823, -145.2236
20.000000, 92.768, -145.1353
20.299999, 92.734, -144.8563
20.600000, 92.745, -144.5142
20.900000, 92.792, -144.3007
21.200001, 92.848, -144.3302
21.400000, 92.877, -144.4674
21.799999, 92.901, -144.8626
22.000000, 92.898, -145.0523
22.400000, 92.884, -145.3560
22.700001, 92.883, -145.5180
23.000000, 92.898, -145.6987
23.299999, 92.921, -145.9636
23.600000, 92.945, -146.2852
24.000000, 92.979, -146.7178
24.299999, 93.017, -147.0290
24.700001, 93.106, -147.4797
25.000000, 93.200, -147.9546
25.400000, 93.336, -148.8989
25.799999, 93.447, -150.1015
26.200001, 93.520, -151.3616
26.500000, 93.561, -152.2585
26.900000, 93.616, -153.4270
27.200001, 93.651, -154.3884
27.600000, 93.653, -155.8365
28.000000, 93.549, -157.2449
28.500000, 93.250, -158.1360
29.000000, 92.900, -157.1433
29.500000, 92.756, -154.5771
30.000000, 92.906, -152.1444
30.400000, 93.122, -151.2126
30.700001, 93.261, -151.0990
31.100000, 93.368, -151.3806
31.500000, 93.387, -151.7451
32.000000, 93.347, -151.9124
32.500000, 93.313, -151.8349
33.000000, 93.315, -151.8870
33.500000, 93.318, -152.3877
34.000000, 93.264, -153.2376
34.500000, 93.129, -153.9861
35.000000, 92.970, -154.1668
35.500000, 92.892, -153.8436
36.000000, 92.942, -153.6166
36.500000, 93.052, -153.9878
37.000000, 93.128, -154.8331
37.500000, 93.146, -155.6892
38.200001, 93.140, -156.4065
38.700001, 93.140, -156.5663
39.500000, 93.180, -156.0239
40.000000, 93.308, -155.3713
40.599998, 93.573, -155.2170
41.200001, 93.781, -156.1455
41.799999, 93.795, -157.2145
42.500000, 93.715, -157.2289
43.099998, 93.775, -156.7359
43.700001, 93.899, -156.9953
44.400002, 93.890, -157.9945
45.000000, 93.760, -158.2310
45.500000, 93.689, -157.8085
46.200001, 93.722, -157.3221
46.799999, 93.751, -157.5520
47.500000, 93.676, -157.6520
48.200001, 93.667, -156.7707
48.700001, 93.814, -156.2785
49.400002, 94.099, -157.1555
50.000000, 94.191, -159.1042
50.799999, 94.029, -161.1969
51.500000, 93.875, -161.6133
52.200001, 93.874, -161.7137
53.000000, 93.925, -162.4380
53.799999, 93.914, -163.2275
54.500000, 93.896, -163.4830
55.200001, 93.911, -163.5348
56.000000, 93.912, -163.5809
57.000000, 93.855, -162.6008
58.000000, 94.065, -160.6911
59.000000, 94.446, -161.3175
60.000000, 94.469, -163.9296
60.799999, 94.220, -165.3060
61.500000, 93.973, -165.2582
62.200001, 93.856, -164.3997
63.000000, 93.937, -163.6269
64.000000, 94.138, -164.2463
65.000000, 94.177, -165.6592
66.000000, 94.084, -166.0798
67.000000, 94.057, -165.5320
68.000000, 94.095, -165.0987
69.000000, 94.124, -164.9757
70.000000, 94.129, -165.2065
71.000000, 94.085, -165.6396
72.000000, 94.039, -165.8520
73.000000, 94.064, -165.9800
74.000000, 94.125, -166.2571
75.000000, 94.192, -166.3752
76.199997, 94.292, -166.3161
77.500000, 94.386, -166.2321
78.800003, 94.418, -166.9341
80.000000, 94.220, -167.6621
81.199997, 94.026, -167.7503
82.500000, 93.800, -167.7907
83.800003, 93.817, -166.6531
85.000000, 94.033, -167.0997
86.199997, 94.151, -168.0785
87.500000, 94.194, -168.7409
88.500000, 94.197, -168.6652
90.000000, 94.277, -168.4659
91.199997, 94.285, -168.8897
92.500000, 94.245, -169.0024
93.800003, 94.261, -169.2201
95.000000, 94.266, -169.7344
96.199997, 94.243, -170.1576
97.500000, 94.224, -170.3864
98.800003, 94.198, -170.6395
100.000000, 94.156, -170.6247
101.500000, 94.136, -170.4638
103.000000, 94.129, -170.2985
104.400002, 94.139, -170.0812
106.000000, 94.178, -169.7747
107.500000, 94.167, -169.8275
109.000000, 94.050, -169.2085
110.599998, 94.063, -167.6981
112.000000, 94.170, -167.7518
113.800003, 94.191, -169.1366
115.000000, 94.139, -170.2058
117.199997, 94.067, -170.7773
118.000000, 94.111, -170.7564
120.599998, 94.138, -171.2044
122.000000, 94.072, -170.5582
124.099998, 94.041, -170.3618
125.000000, 94.022, -170.6813
126.500000, 93.998, -171.3659
128.000000, 94.019, -171.9188
131.500000, 94.214, -171.3617
132.000000, 94.249, -171.2566
134.000000, 94.275, -171.3425
136.000000, 94.175, -171.3095
138.000000, 94.140, -171.3156
140.000000, 94.193, -171.1756
143.000000, 94.256, -170.9217
145.000000, 94.178, -170.8015
147.500000, 94.081, -170.6405
150.000000, 94.165, -170.5944
152.500000, 94.324, -171.1454
155.000000, 94.310, -172.0472
157.500000, 94.201, -172.9845
160.000000, 94.206, -173.0607
162.500000, 94.353, -172.7230
165.000000, 94.389, -172.7594
167.500000, 94.241, -172.3254
170.000000, 94.150, -171.5928
172.500000, 94.203, -170.8968
175.000000, 94.301, -170.9268
177.500000, 94.352, -171.0620
180.000000, 94.344, -170.9910
182.500000, 94.279, -170.8225
185.000000, 94.288, -170.8539
187.500000, 94.393, -171.8093
190.000000, 94.422, -172.2477
192.500000, 94.358, -171.6791
195.000000, 94.259, -171.2445
197.500000, 94.232, -171.5185
200.000000, 94.289, -171.7962
203.000000, 94.383, -171.2256
206.000000, 94.450, -170.7657
209.000000, 94.476, -171.1783
212.000000, 94.469, -171.5856
214.000000, 94.443, -171.6682
218.000000, 94.312, -172.1167
220.000000, 94.256, -172.3613
224.000000, 94.307, -172.2368
227.000000, 94.396, -171.9297
230.000000, 94.459, -171.5524
233.000000, 94.509, -171.4628
236.000000, 94.507, -171.7612
240.000000, 94.495, -171.9640
243.000000, 94.502, -171.6395
247.000000, 94.555, -171.3192
250.000000, 94.584, -171.5355
254.000000, 94.593, -171.5112
258.000000, 94.609, -171.4358
262.000000, 94.591, -171.5260
265.000000, 94.529, -171.6210
269.000000, 94.491, -171.6311
272.000000, 94.506, -171.7202
276.000000, 94.550, -172.1234
280.000000, 94.575, -172.1602
285.000000, 94.558, -171.8905
290.000000, 94.603, -172.1562
295.000000, 94.642, -172.2413
300.000000, 94.663, -172.0910
304.000000, 94.644, -172.2153
307.000000, 94.628, -172.3788
311.000000, 94.633, -172.4252
315.000000, 94.649, -172.4023
320.000000, 94.615, -172.3793
325.000000, 94.719, -172.7044
330.000000, 94.838, -172.8972
335.000000, 94.728, -172.8683
340.000000, 94.669, -173.1459
345.000000, 94.636, -173.3905
350.000000, 94.604, -173.7455
355.000000, 94.547, -173.8486
360.000000, 94.507, -173.8662
365.000000, 94.498, -174.1312
370.000000, 94.459, -174.2368
375.000000, 94.373, -174.1765
382.000000, 94.269, -174.3791
387.000000, 94.189, -174.2194
395.000000, 94.174, -173.9182
400.000000, 94.077, -174.2617
406.000000, 93.897, -174.4759
412.000000, 93.740, -174.3581
418.000000, 93.642, -173.6589
425.000000, 93.516, -172.6070
431.000000, 93.422, -171.5309
437.000000, 93.374, -170.4430
444.000000, 93.316, -169.2993
450.000000, 93.314, -168.0210
455.000000, 93.353, -167.0392
462.000000, 93.369, -165.8755
468.000000, 93.430, -165.0611
475.000000, 93.595, -164.4439
482.000000, 93.748, -163.7306
487.000000, 93.826, -163.4567
494.000000, 93.942, -163.0543
500.000000, 94.024, -162.7327
508.000000, 94.107, -162.1933
515.000000, 94.187, -161.8455
522.000000, 94.273, -161.6806
530.000000, 94.376, -161.6705
538.000000, 94.467, -161.8256
545.000000, 94.520, -161.9099
552.000000, 94.567, -161.9031
560.000000, 94.628, -162.0360
570.000000, 94.680, -162.0429
580.000000, 94.715, -161.7715
590.000000, 94.680, -161.9969
600.000000, 94.615, -162.3604
608.000000, 94.639, -162.3329
615.000000, 94.684, -162.1860
622.000000, 94.706, -162.0716
630.000000, 94.739, -161.7745
640.000000, 94.759, -161.2573
650.000000, 94.718, -161.2434
660.000000, 94.692, -160.9742
670.000000, 94.701, -160.3637
680.000000, 94.752, -159.9003
690.000000, 94.812, -159.6228
700.000000, 94.901, -159.2827
710.000000, 94.972, -158.7783
720.000000, 94.979, -158.5088
730.000000, 94.990, -158.2157
740.000000, 95.064, -157.5607
750.000000, 95.200, -156.8279
762.000000, 95.373, -156.6942
775.000000, 95.550, -157.0076
788.000000, 95.739, -157.2505
800.000000, 95.908, -157.6775
812.000000, 96.030, -158.3333
825.000000, 96.151, -159.3614
838.000000, 96.245, -160.6709
850.000000, 96.280, -162.3402
862.000000, 96.249, -163.7598
875.000000, 96.099, -165.0486
885.000000, 95.982, -166.2225
900.000000, 95.835, -167.9832
912.000000, 95.616, -168.6361
925.000000, 95.357, -168.8585
938.000000, 95.122, -168.7835
950.000000, 94.928, -168.3988
962.000000, 94.762, -168.1892
975.000000, 94.578, -168.1541
988.000000, 94.366, -167.7505
1000.000000, 94.211, -167.0995
1015.000000, 94.028, -166.2372
1030.000000, 93.855, -165.2480
1044.000000, 93.729, -164.0295
1060.000000, 93.664, -162.4777
1075.000000, 93.699, -160.7306
1090.000000, 93.656, -160.1642
1106.000000, 93.597, -161.2537
1120.000000, 93.568, -161.6178
1138.000000, 93.440, -159.4217
1150.000000, 93.277, -158.0352
1172.000000, 93.109, -157.4449
1180.000000, 93.102, -157.2125
1206.000000, 93.126, -155.6310
1220.000000, 93.102, -155.1389
1241.000000, 92.879, -154.4421
1250.000000, 92.734, -154.0078
1265.000000, 92.584, -152.7112
1280.000000, 92.534, -151.0163
1315.000000, 92.222, -148.6634
1320.000000, 92.172, -148.2209
1340.000000, 91.967, -146.1394
1360.000000, 91.811, -143.8085
1380.000000, 91.665, -140.7978
1400.000000, 91.574, -136.7165
1430.000000, 91.735, -131.0644
1450.000000, 91.902, -127.6462
1475.000000, 92.290, -122.3858
1500.000000, 92.944, -117.9934
1525.000000, 93.701, -116.6926
1550.000000, 94.281, -117.0029
1575.000000, 94.671, -117.2914
1600.000000, 94.888, -117.5141
1625.000000, 94.954, -117.2878
1650.000000, 95.019, -115.9379
1675.000000, 95.195, -114.3650
1700.000000, 95.364, -112.8568
1725.000000, 95.565, -111.0146
1750.000000, 95.836, -109.0703
1775.000000, 96.198, -107.1262
1800.000000, 96.662, -105.4557
1825.000000, 97.141, -104.5082
1850.000000, 97.598, -103.9637
1875.000000, 98.052, -103.7244
1900.000000, 98.539, -103.7330
1925.000000, 99.037, -104.3490
1950.000000, 99.486, -105.5576
1975.000000, 99.846, -107.0524
2000.000000, 100.149, -108.6626
2030.000000, 100.418, -110.7672
2060.000000, 100.575, -112.3400
2090.000000, 100.763, -112.9702
2120.000000, 101.084, -113.3533
2140.000000, 101.376, -114.1864
2180.000000, 101.874, -117.4117
2200.000000, 102.021, -119.2770
2240.000000, 102.177, -123.0571
2270.000000, 102.206, -125.9548
2300.000000, 102.140, -128.8473
2330.000000, 101.935, -131.2389
2360.000000, 101.672, -132.4480
2400.000000, 101.454, -132.7622
2430.000000, 101.420, -133.0203
2470.000000, 101.454, -133.9504
2500.000000, 101.469, -135.0808
2540.000000, 101.448, -136.7636
2580.000000, 101.360, -138.9945
2620.000000, 101.118, -141.1168
2650.000000, 100.879, -142.1165
2690.000000, 100.554, -142.8423
2720.000000, 100.321, -143.0743
2760.000000, 100.090, -143.2938
2800.000000, 99.880, -143.9672
2850.000000, 99.504, -144.4908
2900.000000, 99.140, -144.2590
2950.000000, 98.834, -143.8178
3000.000000, 98.519, -143.8509
3040.000000, 98.122, -143.9864
3070.000000, 97.754, -143.3048
3110.000000, 97.306, -141.0895
3150.000000, 97.004, -138.0190
3200.000000, 96.893, -134.2144
3250.000000, 96.968, -131.1116
3300.000000, 97.166, -129.3258
3350.000000, 97.242, -128.9126
3400.000000, 97.238, -127.9176
3450.000000, 97.305, -127.4722
3500.000000, 97.276, -127.5090
3550.000000, 97.161, -127.3479
3600.000000, 97.028, -127.0960
3650.000000, 96.893, -126.8920
3700.000000, 96.699, -127.0536
3750.000000, 96.289, -127.3418
3820.000000, 95.385, -123.7671
3870.000000, 95.135, -118.1251
3950.000000, 95.289, -112.1700
4000.000000, 95.381, -109.2381
4060.000000, 95.653, -105.4548
4120.000000, 96.095, -103.5005
4180.000000, 96.338, -103.6985
4250.000000, 96.289, -102.9875
4310.000000, 96.332, -101.0356
4370.000000, 96.476, -99.9365
4440.000000, 96.541, -99.5460
4500.000000, 96.448, -99.4065
4550.000000, 96.273, -98.5702
4620.000000, 96.099, -96.3600
4680.000000, 96.016, -94.4409
4750.000000, 95.944, -92.0382
4820.000000, 95.914, -89.5190
4870.000000, 95.893, -87.7513
4940.000000, 95.843, -84.9522
5000.000000, 95.854, -81.9949
5080.000000, 96.000, -78.1023
5150.000000, 96.168, -74.9575
5220.000000, 96.336, -71.6753
5300.000000, 96.685, -66.6641
5380.000000, 97.430, -62.3319
5450.000000, 98.186, -60.3686
5520.000000, 98.961, -59.7297
5600.000000, 99.760, -60.6809
5700.000000, 100.481, -63.2119
5800.000000, 101.007, -65.9267
5900.000000, 101.451, -68.6957
6000.000000, 101.795, -72.0589
6080.000000, 101.979, -74.8195
6150.000000, 102.144, -77.3445
6220.000000, 102.299, -80.6036
6300.000000, 102.292, -85.6650
6400.000000, 101.687, -90.9887
6500.000000, 101.048, -93.2995
6600.000000, 100.398, -95.4695
6700.000000, 99.745, -96.4163
6800.000000, 99.089, -98.0725
6900.000000, 98.092, -98.2654
7000.000000, 97.194, -95.2537
7100.000000, 96.557, -91.7422
7200.000000, 95.986, -88.0170
7300.000000, 95.470, -83.2335
7400.000000, 95.134, -77.4735
7500.000000, 94.927, -71.5922
7620.000000, 95.010, -61.1676
7750.000000, 96.233, -51.8722
7880.000000, 97.578, -48.9960
8000.000000, 98.780, -49.8253
8120.000000, 99.620, -54.3321
8250.000000, 100.026, -59.5103
8380.000000, 100.373, -65.9945
8500.000000, 100.151, -73.6972
8620.000000, 99.380, -80.1945
8750.000000, 98.113, -83.5352
8850.000000, 97.311, -82.8892
9000.000000, 96.676, -83.1173
9120.000000, 96.227, -85.0714
9250.000000, 95.656, -88.2441
9380.000000, 94.955, -93.1729
9500.000000, 93.990, -99.3835
9620.000000, 92.580, -106.5522
9750.000000, 90.385, -114.9260
9880.000000, 87.197, -120.1721
10000.000000, 83.554, -105.8903
10150.000000, 79.813, -81.9115
10300.000000, 77.713, -54.3270
10440.000000, 80.320, 37.5089
10600.000000, 82.171, 33.6079
10750.000000, 82.231, 46.2083
10900.000000, 85.008, 66.1296
11060.000000, 88.664, 69.8457
11200.000000, 90.812, 63.5897
11380.000000, 91.947, 54.2421
11500.000000, 92.223, 50.2259
11720.000000, 92.849, 53.2516
11800.000000, 93.708, 54.7981
12060.000000, 95.468, 43.8634
12200.000000, 95.588, 38.0503
12410.000000, 95.845, 29.7646
12500.000000, 95.675, 25.6889
12650.000000, 95.364, 20.7921
