* Measurement data measured by REW V5.30.9
* Source: Headset (JA3 HIFI AUDIO(CX31993)), MICROPHONE (Master Volume), L, volume: 0.230
* Format: 2M Log Swept Sine, 1 sweep at -12.0 dBFS with no timing reference
* Dated: Feb 21, 2024 4:47:14 PM
* REW Settings:
*  C-weighting compensation: Off
*  Target level: 75.0 dB
* Note: ; 
* Measurement: Anonymous L
* Smoothing: 1/24 octave
* Frequency Step: 1/48 octave
* Start Frequency: 1.000 Hz
*
* Freq(Hz) SPL(dB) Phase(degrees)
1.000000 72.241 35.9463
1.015000 72.438 35.4306
1.030000 72.633 34.9056
1.044000 72.814 34.4064
1.060000 73.020 33.8244
1.075000 73.213 33.2669
1.090000 73.405 32.6979
1.106000 73.609 32.0813
1.120000 73.786 31.5397
1.138000 74.011 30.8454
1.150000 74.160 30.3842
1.172000 74.430 29.5428
1.180000 74.527 29.2380
1.206000 74.839 28.2523
1.220000 75.005 27.7243
1.241000 75.251 26.9359
1.250000 75.355 26.5992
1.265000 75.528 26.0396
1.280000 75.700 25.4817
1.315000 76.094 24.1859
1.320000 76.150 24.0013
1.340000 76.372 23.2642
1.360000 76.591 22.5285
1.380000 76.809 21.7936
1.400000 77.024 21.0590
1.430000 77.343 19.9566
1.450000 77.554 19.2208
1.475000 77.815 18.3029
1.500000 78.072 17.3958
1.525000 78.326 16.5027
1.550000 78.575 15.6220
1.575000 78.821 14.7516
1.600000 79.064 13.8893
1.625000 79.303 13.0330
1.650000 79.539 12.1806
1.675000 79.771 11.3301
1.700000 80.001 10.4795
1.725000 80.228 9.6268
1.750000 80.451 8.7703
1.775000 80.672 7.9082
1.800000 80.891 7.0389
1.825000 81.107 6.1614
1.850000 81.320 5.2775
1.875000 81.530 4.3915
1.900000 81.737 3.5062
1.925000 81.940 2.6231
1.950000 82.141 1.7432
1.975000 82.339 0.8674
2.000000 82.533 -0.0039
2.030000 82.764 -1.0431
2.060000 82.990 -2.0752
2.090000 83.213 -3.1005
2.120000 83.433 -4.1194
2.140000 83.577 -4.7955
2.180000 83.862 -6.1418
2.200000 84.002 -6.8131
2.240000 84.277 -8.1552
2.270000 84.479 -9.1611
2.300000 84.678 -10.1641
2.330000 84.872 -11.1623
2.360000 85.063 -12.1543
2.400000 85.313 -13.4651
2.430000 85.497 -14.4384
2.470000 85.737 -15.7219
2.500000 85.914 -16.6738
2.540000 86.145 -17.9290
2.580000 86.372 -19.1727
2.620000 86.593 -20.4129
2.650000 86.755 -21.3414
2.690000 86.967 -22.5743
2.720000 87.122 -23.4929
2.760000 87.324 -24.7071
2.800000 87.522 -25.9064
2.850000 87.764 -27.3816
2.900000 87.999 -28.8279
2.950000 88.229 -30.2501
3.000000 88.451 -31.6625
3.040000 88.624 -32.7872
3.070000 88.751 -33.6257
3.110000 88.916 -34.7344
3.150000 89.078 -35.8298
3.200000 89.275 -37.1765
3.250000 89.467 -38.4943
3.300000 89.656 -39.7834
3.350000 89.838 -41.0535
3.400000 90.016 -42.3120
3.450000 90.188 -43.5570
3.500000 90.355 -44.7848
3.550000 90.518 -45.9919
3.600000 90.678 -47.1751
3.650000 90.834 -48.3332
3.700000 90.986 -49.4703
3.750000 91.135 -50.5935
3.820000 91.336 -52.1436
3.870000 91.476 -53.2323
3.950000 91.693 -54.9363
4.000000 91.825 -55.9751
4.060000 91.980 -57.1968
4.120000 92.132 -58.3981
4.180000 92.279 -59.5812
4.250000 92.446 -60.9373
4.310000 92.585 -62.0772
4.370000 92.722 -63.1954
4.440000 92.877 -64.4753
4.500000 93.007 -65.5555
4.550000 93.113 -66.4445
4.620000 93.258 -67.6709
4.680000 93.379 -68.7042
4.750000 93.517 -69.8884
4.820000 93.651 -71.0529
4.870000 93.745 -71.8750
4.940000 93.873 -73.0120
5.000000 93.980 -73.9722
5.080000 94.118 -75.2298
5.150000 94.236 -76.3095
5.220000 94.350 -77.3742
5.300000 94.476 -78.5741
5.380000 94.597 -79.7524
5.450000 94.700 -80.7626
5.520000 94.800 -81.7535
5.600000 94.910 -82.8673
5.700000 95.042 -84.2325
5.800000 95.168 -85.5613
5.900000 95.289 -86.8501
6.000000 95.404 -88.1051
6.080000 95.493 -89.0860
6.150000 95.568 -89.9258
6.220000 95.642 -90.7475
6.300000 95.723 -91.6653
6.400000 95.822 -92.7843
6.500000 95.918 -93.8734
6.600000 96.011 -94.9333
6.700000 96.101 -95.9650
6.800000 96.189 -96.9713
6.900000 96.275 -97.9555
7.000000 96.358 -98.9198
7.100000 96.440 -99.8654
7.200000 96.519 -100.7937
7.300000 96.597 -101.7069
7.400000 96.671 -102.6071
7.500000 96.744 -103.4949
7.620000 96.827 -104.5426
7.750000 96.912 -105.6562
7.880000 96.992 -106.7500
8.000000 97.062 -107.7375
8.120000 97.127 -108.7008
8.250000 97.192 -109.7189
8.380000 97.253 -110.7057
8.500000 97.305 -111.5849
8.620000 97.353 -112.4352
8.750000 97.403 -113.3224
8.850000 97.439 -113.9795
9.000000 97.492 -114.9256
9.120000 97.532 -115.6517
9.250000 97.576 -116.4089
9.380000 97.619 -117.1377
9.500000 97.659 -117.7909
9.620000 97.700 -118.4281
9.750000 97.744 -119.1021
9.880000 97.784 -119.7645
10.000000 97.814 -120.3685
10.150000 97.844 -121.1144
10.300000 97.869 -121.8533
10.440000 97.888 -122.5380
10.600000 97.906 -123.3131
10.750000 97.922 -124.0317
10.900000 97.936 -124.7411
11.060000 97.948 -125.4843
11.200000 97.957 -126.1222
11.380000 97.967 -126.9227
11.500000 97.972 -127.4431
11.720000 97.979 -128.3700
11.800000 97.982 -128.6981
12.060000 97.988 -129.7338
12.200000 97.990 -130.2734
12.410000 97.998 -131.0613
12.500000 98.004 -131.3919
12.650000 98.021 -131.9342
12.800000 98.040 -132.4665
13.150000 98.087 -133.6741
13.200000 98.094 -133.8431
13.400000 98.121 -134.5106
13.600000 98.146 -135.1657
13.800000 98.171 -135.8089
14.000000 98.194 -136.4401
14.300000 98.227 -137.3637
14.500000 98.247 -137.9625
14.750000 98.270 -138.6898
15.000000 98.291 -139.3919
15.250000 98.311 -140.0681
15.500000 98.330 -140.7193
15.750000 98.349 -141.3477
16.000000 98.368 -141.9559
16.250000 98.390 -142.5465
16.500000 98.412 -143.1211
16.750000 98.433 -143.6806
17.000000 98.454 -144.2260
17.250000 98.473 -144.7581
17.500000 98.492 -145.2779
17.750000 98.509 -145.7858
18.000000 98.524 -146.2805
18.250000 98.537 -146.7587
18.500000 98.548 -147.2148
18.750000 98.558 -147.6439
19.000000 98.568 -148.0440
19.250000 98.581 -148.4185
19.500000 98.597 -148.7776
19.750000 98.617 -149.1360
20.000000 98.641 -149.5096
20.299999 98.671 -149.9923
20.600000 98.697 -150.5123
20.900000 98.716 -151.0486
21.200001 98.725 -151.5662
21.400000 98.727 -151.8836
21.799999 98.730 -152.4305
22.000000 98.734 -152.6646
22.400000 98.754 -153.0997
22.700001 98.778 -153.4445
23.000000 98.805 -153.8359
23.299999 98.828 -154.2743
23.600000 98.842 -154.7351
24.000000 98.844 -155.3173
24.299999 98.838 -155.6884
24.700001 98.830 -156.0771
25.000000 98.830 -156.3099
25.400000 98.841 -156.6003
25.799999 98.861 -156.9261
26.200001 98.878 -157.3072
26.500000 98.886 -157.6112
26.900000 98.886 -157.9947
27.200001 98.883 -158.2395
27.600000 98.883 -158.5056
28.000000 98.896 -158.7553
28.500000 98.927 -159.1827
29.000000 98.947 -159.8175
29.500000 98.922 -160.5100
30.000000 98.858 -160.9514
30.400000 98.813 -161.0062
30.700001 98.803 -160.9235
31.100000 98.833 -160.8201
31.500000 98.899 -160.9182
32.000000 98.981 -161.4285
32.500000 99.016 -162.1687
33.000000 99.006 -162.8139
33.500000 98.986 -163.2244
34.000000 98.984 -163.5005
34.500000 98.996 -163.7864
35.000000 99.006 -164.1078
35.500000 99.010 -164.4112
36.000000 99.013 -164.6752
36.500000 99.020 -164.9279
37.000000 99.024 -165.1875
37.500000 99.026 -165.4383
38.200001 99.029 -165.7592
38.700001 99.035 -165.9989
39.500000 99.041 -166.4440
40.000000 99.037 -166.7241
40.599998 99.028 -167.0016
41.200001 99.025 -167.2052
41.799999 99.036 -167.3922
42.500000 99.058 -167.6819
43.099998 99.069 -167.9847
43.700001 99.071 -168.2662
44.400002 99.069 -168.5157
45.000000 99.071 -168.6825
45.500000 99.077 -168.8124
46.200001 99.091 -169.0260
46.799999 99.104 -169.2872
47.500000 99.105 -169.6694
48.200001 99.087 -170.0048
48.700001 99.073 -170.1672
49.400002 99.067 -170.3393
50.000000 99.072 -170.5046
50.799999 99.083 -170.7636
51.500000 99.094 -170.9946
52.200001 99.104 -171.2223
53.000000 99.114 -171.4574
53.799999 99.125 -171.6505
54.500000 99.136 -171.8189
55.200001 99.142 -172.0018
56.000000 99.142 -172.1840
57.000000 99.144 -172.3511
58.000000 99.154 -172.5549
59.000000 99.159 -172.8105
60.000000 99.163 -173.0478
60.799999 99.171 -173.2597
61.500000 99.177 -173.4935
62.200001 99.176 -173.7609
63.000000 99.164 -174.0867
64.000000 99.129 -174.4596
65.000000 99.083 -174.6703
66.000000 99.052 -174.7253
67.000000 99.051 -174.7554
68.000000 99.073 -174.9127
69.000000 99.091 -175.1786
70.000000 99.105 -175.3947
71.000000 99.127 -175.6029
72.000000 99.145 -175.8249
73.000000 99.160 -175.9953
74.000000 99.175 -176.1633
75.000000 99.185 -176.3465
76.199997 99.190 -176.5608
77.500000 99.187 -176.8211
78.800003 99.182 -177.0306
80.000000 99.188 -177.2825
81.199997 99.181 -177.5540
82.500000 99.182 -177.6441
83.800003 99.196 -177.7954
85.000000 99.188 -177.9080
86.199997 99.176 -177.9854
87.500000 99.158 -178.1299
88.500000 99.155 -178.3232
90.000000 99.156 -178.8338
91.199997 99.169 -179.1256
92.500000 99.218 -179.3017
93.800003 99.254 -179.4017
95.000000 99.238 -179.0376
96.199997 99.201 -177.9210
97.500000 99.395 -175.6545
98.800003 99.729 -176.8894
100.000000 99.538 -179.4106
101.500000 99.243 -179.9044
103.000000 99.179 179.7533
104.400002 99.213 179.3069
106.000000 99.245 178.9778
107.500000 99.253 178.9976
109.000000 99.239 179.0804
110.599998 99.205 179.0172
112.000000 99.180 178.8325
113.800003 99.174 178.4110
115.000000 99.176 178.1159
117.199997 99.186 177.7280
118.000000 99.188 177.6053
120.599998 99.186 177.3517
122.000000 99.199 177.2371
124.099998 99.227 177.0301
125.000000 99.239 176.9479
126.500000 99.254 176.7995
128.000000 99.258 176.6640
131.500000 99.265 176.3849
132.000000 99.266 176.3517
134.000000 99.276 176.2217
136.000000 99.273 176.0562
138.000000 99.260 175.9581
140.000000 99.259 175.7650
143.000000 99.299 175.2885
145.000000 99.346 174.8760
147.500000 99.355 174.4515
150.000000 99.355 174.4099
152.500000 99.352 174.3385
155.000000 99.344 174.1802
157.500000 99.332 173.9367
160.000000 99.340 173.5455
162.500000 99.356 173.1105
165.000000 99.361 172.9142
167.500000 99.344 172.8266
170.000000 99.323 172.6591
172.500000 99.318 172.3831
175.000000 99.333 172.0691
177.500000 99.330 171.7039
180.000000 99.299 171.4321
182.500000 99.281 171.2174
185.000000 99.284 171.0141
187.500000 99.295 170.8931
190.000000 99.269 170.7579
192.500000 99.203 170.3857
195.000000 99.095 169.8152
197.500000 99.064 170.1200
200.000000 99.188 170.0513
203.000000 99.274 169.5056
206.000000 99.303 169.1620
209.000000 99.325 168.8504
212.000000 99.344 168.5664
214.000000 99.351 168.4012
218.000000 99.359 168.1093
220.000000 99.361 167.9346
224.000000 99.371 167.5511
227.000000 99.383 167.2338
230.000000 99.393 166.8825
233.000000 99.398 166.6026
236.000000 99.405 166.3640
240.000000 99.409 165.9152
243.000000 99.403 165.6189
247.000000 99.387 165.3286
250.000000 99.387 164.9233
254.000000 99.393 164.3319
258.000000 99.364 164.0494
262.000000 99.336 163.8708
265.000000 99.358 163.7885
269.000000 99.408 163.6408
272.000000 99.436 163.3528
276.000000 99.458 162.8628
280.000000 99.465 162.3813
285.000000 99.460 161.7919
290.000000 99.438 161.1329
295.000000 99.435 160.5372
300.000000 99.447 160.1501
304.000000 99.447 159.6272
307.000000 99.444 159.2627
311.000000 99.431 158.9063
315.000000 99.415 158.5084
320.000000 99.383 157.9255
325.000000 99.361 157.4478
330.000000 99.358 157.0859
335.000000 99.350 156.7853
340.000000 99.353 156.4469
345.000000 99.386 155.9911
350.000000 99.414 155.3044
355.000000 99.416 154.5847
360.000000 99.396 153.8495
365.000000 99.385 153.1542
370.000000 99.370 152.5562
375.000000 99.352 151.9066
382.000000 99.323 151.0085
387.000000 99.294 150.4716
395.000000 99.251 149.6410
400.000000 99.224 149.0648
406.000000 99.198 148.3807
412.000000 99.168 147.6894
418.000000 99.130 146.8616
425.000000 99.080 146.0144
431.000000 99.044 145.2292
437.000000 99.011 144.4935
444.000000 98.964 143.6272
450.000000 98.919 142.8853
455.000000 98.881 142.2504
462.000000 98.820 141.3792
468.000000 98.764 140.6342
475.000000 98.702 139.8080
482.000000 98.632 138.9825
487.000000 98.575 138.3339
494.000000 98.494 137.4039
500.000000 98.424 136.4532
508.000000 98.299 135.0551
515.000000 98.153 133.8564
522.000000 97.959 132.9385
530.000000 97.717 131.9277
538.000000 97.449 131.3065
545.000000 97.216 131.6152
552.000000 97.063 132.3867
560.000000 96.996 133.0350
570.000000 97.001 133.2635
580.000000 97.001 132.8164
590.000000 96.971 132.0374
600.000000 96.913 130.9948
608.000000 96.843 130.1051
615.000000 96.751 129.3722
622.000000 96.631 128.8026
630.000000 96.510 128.4222
640.000000 96.391 127.7388
650.000000 96.245 126.6700
660.000000 96.071 126.0129
670.000000 95.915 125.5941
680.000000 95.754 125.1707
690.000000 95.610 124.8215
700.000000 95.461 124.4335
710.000000 95.296 124.0496
720.000000 95.116 123.6931
730.000000 94.951 123.2750
740.000000 94.791 122.9312
750.000000 94.632 122.6773
762.000000 94.459 122.4298
775.000000 94.251 122.2733
788.000000 94.031 122.0674
800.000000 93.834 121.9478
812.000000 93.647 121.9019
825.000000 93.453 121.8971
838.000000 93.266 121.9051
850.000000 93.104 122.0360
862.000000 92.942 122.2554
875.000000 92.756 122.3414
885.000000 92.614 122.3835
900.000000 92.416 122.5887
912.000000 92.265 122.7126
925.000000 92.107 122.8854
938.000000 91.962 123.2958
950.000000 91.839 123.6573
962.000000 91.708 123.6825
975.000000 91.565 123.8351
988.000000 91.435 124.1541
1000.000000 91.332 124.4272
1015.000000 91.212 124.5687
1030.000000 91.067 124.6242
1044.000000 90.944 124.8784
1060.000000 90.808 125.0424
1075.000000 90.692 125.0687
1090.000000 90.563 125.3559
1106.000000 90.415 125.4697
1120.000000 90.286 125.3695
1138.000000 90.131 125.3119
1150.000000 90.037 125.3047
1172.000000 89.864 125.3102
1180.000000 89.787 125.3328
1206.000000 89.541 125.3188
1220.000000 89.397 125.3334
1241.000000 89.200 125.3742
1250.000000 89.120 125.3379
1265.000000 88.982 125.3856
1280.000000 88.846 125.4326
1315.000000 88.464 125.3730
1320.000000 88.407 125.3785
1340.000000 88.211 125.5717
1360.000000 88.013 125.9558
1380.000000 87.776 126.1101
1400.000000 87.583 126.1522
1430.000000 87.261 126.3336
1450.000000 87.034 126.5567
1475.000000 86.741 126.9746
1500.000000 86.433 127.7025
1525.000000 86.151 128.2927
1550.000000 85.890 129.1852
1575.000000 85.606 130.1939
1600.000000 85.265 130.9405
1625.000000 84.972 131.6399
1650.000000 84.719 132.9767
1675.000000 84.439 134.5220
1700.000000 84.163 136.1097
1725.000000 83.890 137.8710
1750.000000 83.605 139.7069
1775.000000 83.306 141.1369
1800.000000 83.001 143.1206
1825.000000 82.668 145.7119
1850.000000 82.429 147.7048
1875.000000 82.388 150.2556
1900.000000 82.218 153.6604
1925.000000 81.888 156.9523
1950.000000 81.620 160.7709
1975.000000 81.533 164.5674
2000.000000 81.624 167.9825
2030.000000 81.737 172.3609
2060.000000 81.818 177.1779
2090.000000 82.071 -177.8035
2120.000000 82.458 -172.9801
2140.000000 82.778 -170.1537
2180.000000 83.558 -165.1289
2200.000000 84.011 -163.1632
2240.000000 85.017 -160.5431
2270.000000 85.789 -159.7365
2300.000000 86.453 -160.3311
2330.000000 86.911 -161.4835
2360.000000 87.288 -161.1126
2400.000000 88.167 -160.0789
2430.000000 88.924 -161.7114
2470.000000 89.699 -165.7400
2500.000000 90.075 -169.3177
2540.000000 90.351 -174.0799
2580.000000 90.446 -178.5060
2620.000000 90.404 177.6328
2650.000000 90.305 175.2256
2690.000000 90.123 172.5764
2720.000000 89.962 170.9953
2760.000000 89.734 169.3289
2800.000000 89.498 168.2097
2850.000000 89.211 167.3376
2900.000000 88.962 166.9352
2950.000000 88.699 166.8347
3000.000000 88.462 167.0813
3040.000000 88.312 167.5384
3070.000000 88.214 167.9707
3110.000000 88.102 168.6232
3150.000000 88.025 169.3887
3200.000000 87.967 170.5405
3250.000000 87.969 171.7372
3300.000000 88.022 172.7138
3350.000000 88.093 173.4376
3400.000000 88.177 174.0134
3450.000000 88.271 174.5448
3500.000000 88.387 175.0173
3550.000000 88.524 175.2931
3600.000000 88.669 175.3766
3650.000000 88.823 175.2758
3700.000000 88.978 174.9642
3750.000000 89.126 174.4597
3820.000000 89.318 173.4963
3870.000000 89.438 172.5657
3950.000000 89.585 170.7377
4000.000000 89.640 169.5415
4060.000000 89.663 168.0632
4120.000000 89.641 166.4042
4180.000000 89.576 164.7151
4250.000000 89.429 162.8074
4310.000000 89.254 161.3346
4370.000000 89.038 160.1423
4440.000000 88.750 159.1670
4500.000000 88.493 158.7434
4550.000000 88.287 158.6846
4620.000000 88.028 158.9718
4680.000000 87.844 159.4587
4750.000000 87.684 160.1771
4820.000000 87.581 160.9510
4870.000000 87.544 161.4819
4940.000000 87.535 162.0984
5000.000000 87.563 162.4820
5080.000000 87.642 162.7090
5150.000000 87.734 162.4667
5220.000000 87.834 161.7624
5300.000000 87.938 160.4044
5380.000000 87.994 158.5180
5450.000000 87.986 156.4602
5520.000000 87.903 154.1015
5600.000000 87.691 151.2000
5700.000000 87.217 147.8000
5800.000000 86.545 145.6420
5900.000000 85.853 145.1098
6000.000000 85.256 145.4991
6080.000000 84.837 146.0642
6150.000000 84.499 146.6600
6220.000000 84.178 147.3390
6300.000000 83.833 148.2516
6400.000000 83.456 149.4888
6500.000000 83.078 150.5790
6600.000000 82.642 152.2891
6700.000000 82.273 155.0532
6800.000000 82.046 158.2072
6900.000000 81.939 161.3445
7000.000000 81.936 164.3546
7100.000000 82.033 167.2097
7200.000000 82.233 169.8717
7300.000000 82.548 172.2249
7400.000000 82.993 174.0503
7500.000000 83.575 175.0318
7620.000000 84.446 174.5142
7750.000000 85.519 170.8090
7880.000000 86.469 162.7154
8000.000000 86.858 151.4815
8120.000000 86.455 138.5717
8250.000000 85.100 126.0632
8380.000000 83.102 117.6072
8500.000000 81.042 113.8519
8620.000000 79.002 113.2699
8750.000000 76.925 115.2899
8850.000000 75.433 118.2772
9000.000000 73.359 124.7443
9120.000000 71.843 131.6047
9250.000000 70.373 140.8837
9380.000000 69.166 152.2998
9500.000000 68.420 164.6118
9620.000000 68.186 177.7148
9750.000000 68.567 -169.1544
9880.000000 69.455 -159.3323
10000.000000 70.443 -154.1700
10150.000000 71.514 -152.2762
10300.000000 72.149 -153.4206
10440.000000 72.306 -155.1291
10600.000000 72.086 -156.1411
10750.000000 71.675 -155.5182
10900.000000 71.219 -153.3453
11060.000000 70.782 -149.7867
11200.000000 70.475 -145.9436
11380.000000 70.203 -140.4261
11500.000000 70.113 -136.5169
11720.000000 70.139 -129.3210
11800.000000 70.200 -126.8999
12060.000000 70.422 -119.9377
12200.000000 70.545 -115.5216
12410.000000 71.022 -108.0489
12500.000000 71.353 -104.8584
12650.000000 72.099 -99.7957
12800.000000 73.103 -95.5165
13150.000000 76.481 -92.0114
13200.000000 77.063 -92.7661
13400.000000 79.391 -100.6059
13600.000000 81.049 -116.7703
13800.000000 81.172 -137.5078
14000.000000 79.664 -155.2354
14300.000000 76.073 -167.5101
14500.000000 73.891 -168.0379
14750.000000 71.845 -165.0158
15000.000000 70.363 -161.7185
15250.000000 69.046 -158.6540
15500.000000 67.794 -154.6107
15750.000000 66.702 -149.6210
16000.000000 65.802 -144.5648
16250.000000 64.996 -140.8556
16500.000000 64.051 -139.0219
16750.000000 62.695 -137.6653
17000.000000 60.869 -134.3869
17250.000000 58.741 -126.3194
17500.000000 56.771 -109.2824
17750.000000 56.208 -84.8880
18000.000000 57.333 -66.9018
18250.000000 58.968 -59.4247
18500.000000 60.378 -59.3223
18750.000000 61.190 -63.1182
19000.000000 61.352 -66.7677
19250.000000 61.068 -68.1395
19500.000000 60.388 -67.4725
19750.000000 59.327 -64.9644
20000.000000 58.066 -61.1040
20300.000000 56.295 -56.5851
20600.000000 54.035 -52.6819
20900.000000 51.129 -48.8132
21200.000000 47.653 -45.5421
21400.000000 45.136 -44.7727
21800.000000 39.781 -49.9444
22000.000000 37.359 -57.6144
22400.000000 34.845 -74.3318
22700.000000 34.415 -67.4722
23000.000000 34.323 -27.3626
23300.000000 34.430 36.9324
23600.000000 34.735 17.3111
24000.000000 34.897 12.4457
24300.000000 34.811 8.9414
24700.000000 34.833 176.5082
25000.000000 34.833 171.6744
25400.000000 34.776 -156.7665
25800.000000 34.957 -144.1912
26200.000000 35.025 129.9925
26500.000000 35.132 131.5176
26900.000000 35.252 69.2517
27200.000000 35.244 -9.5307
27600.000000 35.239 154.9011
28000.000000 35.273 172.0123
28500.000000 35.215 -59.8137
29000.000000 35.390 -128.6122
29500.000000 35.552 -56.1003
30000.000000 35.587 -3.8050
30400.000000 35.645 108.5168
30700.000000 35.724 169.5149
31100.000000 35.853 -98.7726
31500.000000 35.910 -74.0749
32000.000000 35.897 -31.2366
