* Measurement data measured by REW V5.30.2
* Source: Headset (USB-C to 3.5mm Headphone Jack Adapter), MICROPHONE (Master Volume), L, volume: 0.250
* Format: 512k Log Swept Sine, 1 sweep at -12.0 dBFS with no timing reference
* Dated: Feb 6, 2024 2:07:03 PM
* REW Settings:
*  C-weighting compensation: Off
*  Target level: 75.0 dB
* Note: ; 
* Measurement: Binary Chopin L
* Smoothing: 1/24 octave
* Frequency Step: 1/48 octave
* Start Frequency: 20.300 Hz
*
* Freq(Hz) SPL(dB) Phase(degrees)
20.299999 97.419 -100.2424
20.600000 97.507 -101.0913
20.900000 97.586 -102.0929
21.200001 97.647 -103.2211
21.400000 97.685 -104.0361
21.799999 97.776 -105.7358
22.000000 97.841 -106.5675
22.400000 98.016 -108.0726
22.700001 98.175 -109.0171
23.000000 98.332 -109.8187
23.299999 98.463 -110.5318
23.600000 98.551 -111.2201
24.000000 98.606 -112.1868
24.299999 98.623 -112.9833
24.700001 98.664 -114.1541
25.000000 98.729 -115.1113
25.400000 98.858 -116.4832
25.799999 98.998 -117.9359
26.200001 99.101 -119.3987
26.500000 99.141 -120.4394
26.900000 99.156 -121.6782
27.200001 99.158 -122.4839
27.600000 99.178 -123.4570
28.000000 99.236 -124.4431
28.500000 99.356 -125.8350
29.000000 99.494 -127.3236
29.500000 99.612 -128.6566
30.000000 99.691 -129.7075
30.400000 99.734 -130.4251
30.700001 99.764 -130.9699
31.100000 99.811 -131.7725
31.500000 99.866 -132.6750
32.000000 99.926 -133.8823
32.500000 99.951 -135.0942
33.000000 99.950 -136.2525
33.500000 99.974 -137.3061
34.000000 100.056 -138.2273
34.500000 100.172 -139.0776
35.000000 100.262 -139.9888
35.500000 100.291 -141.0325
36.000000 100.269 -142.1401
36.500000 100.236 -143.1788
37.000000 100.220 -144.1095
37.500000 100.227 -145.0276
38.200001 100.269 -146.4496
38.700001 100.313 -147.4830
39.500000 100.387 -148.9072
40.000000 100.418 -149.7036
40.599998 100.434 -150.7213
41.200001 100.433 -151.8011
41.799999 100.436 -152.8029
42.500000 100.458 -153.8044
43.099998 100.484 -154.6301
43.700001 100.497 -155.5225
44.400002 100.501 -156.6414
45.000000 100.515 -157.6006
45.500000 100.532 -158.3626
46.200001 100.535 -159.3600
46.799999 100.518 -160.1736
47.500000 100.506 -161.1021
48.200001 100.513 -162.0114
48.700001 100.516 -162.6576
49.400002 100.505 -163.5864
50.000000 100.492 -164.4079
50.799999 100.484 -165.4696
51.500000 100.475 -166.3135
52.200001 100.462 -167.1230
53.000000 100.449 -168.0806
53.799999 100.434 -169.0030
54.500000 100.419 -169.7559
55.200001 100.408 -170.5802
56.000000 100.387 -171.6121
57.000000 100.329 -172.6944
58.000000 100.278 -173.6089
59.000000 100.254 -174.6688
60.000000 100.227 -175.7544
60.799999 100.210 -176.4913
61.500000 100.203 -177.0020
62.200001 100.191 -177.5031
63.000000 100.160 -178.1925
64.000000 100.103 -179.1304
65.000000 100.046 179.9230
66.000000 99.995 179.0179
67.000000 99.944 178.3058
68.000000 99.899 177.5305
69.000000 99.870 176.6150
70.000000 99.831 175.7799
71.000000 99.773 175.0683
72.000000 99.705 174.3822
73.000000 99.643 173.6265
74.000000 99.593 172.8867
75.000000 99.554 172.1837
76.199997 99.499 171.3023
77.500000 99.432 170.4267
78.800003 99.372 169.6643
80.000000 99.292 169.0122
81.199997 99.205 168.2724
82.500000 99.129 167.4566
83.800003 99.063 166.7519
85.000000 98.989 166.1641
86.199997 98.916 165.5248
87.500000 98.851 164.8186
88.500000 98.818 164.2458
90.000000 98.778 163.4463
91.199997 98.669 163.0095
92.500000 98.546 162.4926
93.800003 98.454 161.8599
95.000000 98.373 161.3283
96.199997 98.284 160.8712
97.500000 98.196 160.3641
98.800003 98.112 159.8115
100.000000 98.038 159.2952
101.500000 97.949 158.6947
103.000000 97.855 158.2198
104.400002 97.758 157.7369
106.000000 97.653 157.1845
107.500000 97.562 156.7380
109.000000 97.453 156.4703
110.599998 97.337 156.1116
112.000000 97.249 155.6329
113.800003 97.122 155.1967
115.000000 97.043 154.8459
117.199997 96.906 154.2976
118.000000 96.854 154.1845
120.599998 96.676 153.7515
122.000000 96.579 153.4662
124.099998 96.433 153.0842
125.000000 96.371 152.9325
126.500000 96.272 152.6829
128.000000 96.176 152.4688
131.500000 95.963 152.0033
132.000000 95.933 151.9470
134.000000 95.810 151.7469
136.000000 95.672 151.6074
138.000000 95.539 151.4639
140.000000 95.412 151.3778
143.000000 95.200 151.2525
145.000000 95.072 151.4209
147.500000 94.948 151.7380
150.000000 94.842 151.4265
152.500000 94.713 151.1808
155.000000 94.575 151.1577
157.500000 94.414 151.4650
160.000000 94.252 151.5830
162.500000 94.127 151.6074
165.000000 94.006 151.7843
167.500000 93.862 151.9845
170.000000 93.708 152.2307
172.500000 93.568 152.5182
175.000000 93.440 152.8526
177.500000 93.326 153.0954
180.000000 93.217 153.3588
182.500000 93.096 153.6570
185.000000 92.973 153.8104
187.500000 92.828 153.9557
190.000000 92.720 154.5391
192.500000 92.633 155.0366
195.000000 92.526 155.3633
197.500000 92.429 155.8476
200.000000 92.365 156.7187
203.000000 92.322 157.3752
206.000000 92.194 157.5720
209.000000 92.094 157.9627
212.000000 92.025 158.5472
214.000000 91.961 158.9528
218.000000 91.831 159.6359
220.000000 91.790 160.0732
224.000000 91.702 160.7224
227.000000 91.643 161.3058
230.000000 91.598 161.8747
233.000000 91.542 162.4255
236.000000 91.475 163.0965
240.000000 91.395 163.8170
243.000000 91.334 164.4642
247.000000 91.261 165.4231
250.000000 91.236 165.9095
254.000000 91.213 166.5999
258.000000 91.173 167.3227
262.000000 91.119 168.0463
265.000000 91.089 168.6060
269.000000 91.059 169.3113
272.000000 91.034 169.8420
276.000000 91.005 170.4859
280.000000 90.988 171.1214
285.000000 90.971 171.9058
290.000000 90.953 172.7343
295.000000 90.943 173.4996
300.000000 90.936 174.2184
304.000000 90.934 174.8141
307.000000 90.929 175.2531
311.000000 90.926 175.8435
315.000000 90.927 176.3889
320.000000 90.934 177.0327
325.000000 90.949 177.6328
330.000000 90.947 178.2058
335.000000 90.951 178.8541
340.000000 90.956 179.3713
345.000000 90.965 179.8924
350.000000 90.977 -179.5540
355.000000 90.992 -178.9812
360.000000 91.009 -178.4630
365.000000 91.025 -178.0004
370.000000 91.042 -177.5691
375.000000 91.059 -177.1261
382.000000 91.078 -176.5325
387.000000 91.094 -176.1050
395.000000 91.121 -175.4575
400.000000 91.137 -175.0938
406.000000 91.154 -174.6497
412.000000 91.168 -174.2199
418.000000 91.186 -173.7699
425.000000 91.212 -173.2687
431.000000 91.222 -172.8781
437.000000 91.227 -172.4595
444.000000 91.251 -171.9804
450.000000 91.277 -171.6343
455.000000 91.296 -171.3650
462.000000 91.319 -170.9847
468.000000 91.332 -170.6206
475.000000 91.347 -170.1958
482.000000 91.359 -169.7833
487.000000 91.370 -169.4939
494.000000 91.391 -169.0574
500.000000 91.407 -168.6758
508.000000 91.431 -168.2781
515.000000 91.453 -167.9757
522.000000 91.465 -167.6305
530.000000 91.474 -167.1246
538.000000 91.484 -166.7328
545.000000 91.498 -166.3946
552.000000 91.511 -166.0056
560.000000 91.526 -165.5687
570.000000 91.545 -165.0354
580.000000 91.565 -164.4850
590.000000 91.585 -163.9389
600.000000 91.605 -163.3930
608.000000 91.624 -162.9603
615.000000 91.644 -162.5796
622.000000 91.665 -162.2049
630.000000 91.687 -161.7827
640.000000 91.716 -161.2678
650.000000 91.746 -160.7881
660.000000 91.775 -160.3284
670.000000 91.802 -159.8636
680.000000 91.826 -159.3907
690.000000 91.847 -158.9178
700.000000 91.867 -158.4417
710.000000 91.889 -157.9544
720.000000 91.912 -157.4646
730.000000 91.936 -156.9559
740.000000 91.960 -156.4133
750.000000 91.979 -155.8264
762.000000 92.003 -155.1913
775.000000 92.043 -154.4964
788.000000 92.086 -153.7780
800.000000 92.124 -153.1010
812.000000 92.157 -152.4084
825.000000 92.198 -151.6571
838.000000 92.247 -150.9384
850.000000 92.296 -150.2742
862.000000 92.347 -149.5904
875.000000 92.405 -148.8650
885.000000 92.453 -148.3306
900.000000 92.528 -147.5352
912.000000 92.592 -146.9082
925.000000 92.666 -146.2412
938.000000 92.746 -145.6131
950.000000 92.825 -145.0714
962.000000 92.905 -144.5422
975.000000 92.992 -143.9702
988.000000 93.081 -143.4303
1000.000000 93.164 -142.9730
1015.000000 93.267 -142.4373
1030.000000 93.371 -141.9310
1044.000000 93.471 -141.5105
1060.000000 93.585 -141.0902
1075.000000 93.689 -140.7334
1090.000000 93.792 -140.4103
1106.000000 93.904 -140.1217
1120.000000 94.001 -139.9124
1138.000000 94.122 -139.6738
1150.000000 94.198 -139.5388
1172.000000 94.332 -139.3434
1180.000000 94.379 -139.2867
1206.000000 94.522 -139.1403
1220.000000 94.596 -139.0815
1241.000000 94.703 -139.0125
1250.000000 94.750 -138.9868
1265.000000 94.828 -138.9448
1280.000000 94.906 -138.9075
1315.000000 95.076 -138.8568
1320.000000 95.099 -138.8506
1340.000000 95.190 -138.8121
1360.000000 95.276 -138.7598
1380.000000 95.358 -138.7021
1400.000000 95.439 -138.6408
1430.000000 95.556 -138.5281
1450.000000 95.631 -138.4341
1475.000000 95.725 -138.3160
1500.000000 95.817 -138.1791
1525.000000 95.907 -138.0190
1550.000000 95.998 -137.8521
1575.000000 96.093 -137.6814
1600.000000 96.190 -137.5012
1625.000000 96.288 -137.3061
1650.000000 96.386 -137.1079
1675.000000 96.487 -136.9136
1700.000000 96.592 -136.7156
1725.000000 96.699 -136.5166
1750.000000 96.809 -136.3222
1775.000000 96.921 -136.1354
1800.000000 97.031 -135.9488
1825.000000 97.142 -135.7590
1850.000000 97.260 -135.5728
1875.000000 97.387 -135.3963
1900.000000 97.521 -135.2424
1925.000000 97.660 -135.1280
1950.000000 97.800 -135.0734
1975.000000 97.939 -135.0831
2000.000000 98.076 -135.1334
2030.000000 98.238 -135.2298
2060.000000 98.403 -135.3779
2090.000000 98.571 -135.5671
2120.000000 98.743 -135.7637
2140.000000 98.858 -135.9010
2180.000000 99.088 -136.2316
2200.000000 99.203 -136.4410
2240.000000 99.434 -136.9703
2270.000000 99.605 -137.4554
2300.000000 99.771 -137.9994
2330.000000 99.930 -138.5957
2360.000000 100.083 -139.2461
2400.000000 100.274 -140.1967
2430.000000 100.409 -140.9724
2470.000000 100.579 -142.0885
2500.000000 100.700 -142.9811
2540.000000 100.848 -144.2320
2580.000000 100.976 -145.5503
2620.000000 101.079 -146.9222
2650.000000 101.140 -147.9743
2690.000000 101.200 -149.3927
2720.000000 101.229 -150.4555
2760.000000 101.242 -151.8484
2800.000000 101.226 -153.1810
2850.000000 101.167 -154.6996
2900.000000 101.068 -155.9459
2950.000000 100.945 -156.7900
3000.000000 100.837 -157.1339
3040.000000 100.797 -157.1380
3070.000000 100.806 -157.1378
3110.000000 100.860 -157.3517
3150.000000 100.922 -157.9189
3200.000000 100.962 -158.9469
3250.000000 100.956 -160.0484
3300.000000 100.920 -161.1409
3350.000000 100.851 -162.2123
3400.000000 100.744 -163.1647
3450.000000 100.610 -163.9013
3500.000000 100.467 -164.3801
3550.000000 100.329 -164.6202
3600.000000 100.207 -164.6884
3650.000000 100.101 -164.6664
3700.000000 100.008 -164.6078
3750.000000 99.921 -164.5170
3820.000000 99.804 -164.2967
3870.000000 99.727 -164.0563
3950.000000 99.622 -163.5250
4000.000000 99.568 -163.1055
4060.000000 99.518 -162.5291
4120.000000 99.496 -161.9179
4180.000000 99.510 -161.3497
4250.000000 99.559 -160.8309
4310.000000 99.616 -160.5479
4370.000000 99.684 -160.4247
4440.000000 99.771 -160.4914
4500.000000 99.846 -160.7345
4550.000000 99.902 -161.0667
4620.000000 99.968 -161.7236
4680.000000 100.013 -162.4569
4750.000000 100.040 -163.4904
4820.000000 100.028 -164.6741
4870.000000 99.991 -165.5802
4940.000000 99.899 -166.8775
5000.000000 99.784 -167.9663
5080.000000 99.578 -169.3068
5150.000000 99.351 -170.3089
5220.000000 99.089 -171.0919
5300.000000 98.762 -171.6714
5380.000000 98.416 -171.8878
5450.000000 98.107 -171.7670
5520.000000 97.805 -171.3514
5600.000000 97.476 -170.5353
5700.000000 97.104 -169.0653
5800.000000 96.791 -167.1714
5900.000000 96.557 -164.9648
6000.000000 96.413 -162.5965
6080.000000 96.366 -160.6967
6150.000000 96.375 -159.1234
6220.000000 96.426 -157.6984
6300.000000 96.531 -156.3223
6400.000000 96.711 -155.0558
6500.000000 96.911 -154.2837
6600.000000 97.104 -153.9035
6700.000000 97.274 -153.7747
6800.000000 97.417 -153.7505
6900.000000 97.542 -153.7092
7000.000000 97.670 -153.6034
7100.000000 97.819 -153.4487
7200.000000 98.000 -153.3098
7300.000000 98.227 -153.2718
7400.000000 98.514 -153.4427
7500.000000 98.861 -154.0354
7620.000000 99.321 -155.6594
7750.000000 99.804 -158.7632
7880.000000 100.193 -163.2595
8000.000000 100.378 -168.4584
8120.000000 100.315 -174.2861
8250.000000 99.947 179.3334
8380.000000 99.306 173.5905
8500.000000 98.534 169.3027
8620.000000 97.655 166.1680
8750.000000 96.652 164.0513
8850.000000 95.884 163.2253
9000.000000 94.775 163.0222
9120.000000 93.938 163.5439
9250.000000 93.089 164.6195
9380.000000 92.303 166.0805
9500.000000 91.630 167.6762
9620.000000 91.007 169.4525
9750.000000 90.386 171.5192
9880.000000 89.822 173.6430
10000.000000 89.351 175.6013
10150.000000 88.827 178.0092
10300.000000 88.360 -179.6304
10440.000000 87.970 -177.4177
10600.000000 87.585 -174.8477
10750.000000 87.305 -172.3957
10900.000000 87.127 -170.0031
11060.000000 87.070 -167.7124
11200.000000 87.145 -166.1646
11380.000000 87.390 -165.1916
11500.000000 87.609 -165.3350
11720.000000 88.031 -167.0115
11800.000000 88.192 -167.8918
12060.000000 88.846 -172.0761
12200.000000 89.216 -175.7941
12410.000000 89.594 177.1378
12500.000000 89.682 173.9138
12650.000000 89.760 168.5921
12800.000000 89.784 163.4313
13150.000000 89.769 151.2264
13200.000000 89.752 149.3149
13400.000000 89.550 141.0156
13600.000000 88.938 132.3776
13800.000000 87.811 125.7604
14000.000000 86.454 123.5623
14300.000000 85.120 127.2537
14500.000000 84.989 130.1642
14750.000000 85.359 130.9695
15000.000000 85.973 128.2017
15250.000000 86.645 121.9080
15500.000000 87.234 111.9962
15750.000000 87.591 98.6355
16000.000000 87.583 82.3557
16250.000000 87.142 63.8954
16500.000000 86.368 43.9069
16750.000000 85.475 22.5065
17000.000000 84.650 -0.9821
17250.000000 83.810 -27.1016
17500.000000 82.653 -54.1004
17750.000000 81.256 -77.2117
18000.000000 81.449 -94.2136
18250.000000 83.470 -119.1631
18500.000000 84.317 -153.8755
18750.000000 83.952 171.2983
19000.000000 83.284 138.1846
19250.000000 82.718 104.7025
19500.000000 82.195 68.7898
19750.000000 81.587 29.9653
20000.000000 81.098 -2.8049
