* Measurement data measured by REW V5.30.2
* Source: Headset (USB-C to 3.5mm Headphone Jack Adapter), MICROPHONE (Master Volume), L, volume: 0.250
* Format: 512k Log Swept Sine, 1 sweep at -12.0 dBFS with no timing reference
* Dated: Feb 8, 2024 10:35:44 PM
* REW Settings:
*  C-weighting compensation: Off
*  Target level: 75.0 dB
* Note: ; 
* Measurement: Brownie Stella2 SSRFilter R
* Smoothing: 1/24 octave
* Frequency Step: 1/48 octave
* Start Frequency: 20.300 Hz
*
* Freq(Hz) SPL(dB) Phase(degrees)
20.299999 98.317 -136.4057
20.600000 98.338 -137.2458
20.900000 98.359 -138.1454
21.200001 98.379 -139.0501
21.400000 98.394 -139.6583
21.799999 98.425 -140.8854
22.000000 98.440 -141.4983
22.400000 98.467 -142.7001
22.700001 98.484 -143.5650
23.000000 98.499 -144.3938
23.299999 98.511 -145.1933
23.600000 98.521 -145.9762
24.000000 98.529 -147.0127
24.299999 98.533 -147.7866
24.700001 98.539 -148.7958
25.000000 98.545 -149.5188
25.400000 98.556 -150.4252
25.799999 98.563 -151.2811
26.200001 98.557 -152.1212
26.500000 98.544 -152.7571
26.900000 98.522 -153.6133
27.200001 98.510 -154.2515
27.600000 98.509 -155.0858
28.000000 98.524 -155.9085
28.500000 98.540 -156.9517
29.000000 98.529 -158.0014
29.500000 98.493 -158.9650
30.000000 98.456 -159.7697
30.400000 98.439 -160.3427
30.700001 98.434 -160.7872
31.100000 98.431 -161.4482
31.500000 98.425 -162.1765
32.000000 98.408 -163.0670
32.500000 98.376 -163.8346
33.000000 98.332 -164.5433
33.500000 98.292 -165.3378
34.000000 98.278 -166.2114
34.500000 98.290 -166.9832
35.000000 98.298 -167.5272
35.500000 98.274 -167.9311
36.000000 98.217 -168.3689
36.500000 98.159 -168.8883
37.000000 98.122 -169.3885
37.500000 98.095 -169.7844
38.200001 98.037 -170.2630
38.700001 97.984 -170.6886
39.500000 97.932 -171.6002
40.000000 97.917 -172.2791
40.599998 97.890 -173.1164
41.200001 97.847 -173.8190
41.799999 97.793 -174.2753
42.500000 97.730 -174.6499
43.099998 97.692 -175.1024
43.700001 97.678 -175.7510
44.400002 97.670 -176.5407
45.000000 97.644 -177.0437
45.500000 97.613 -177.3349
46.200001 97.566 -177.7093
46.799999 97.509 -178.1044
47.500000 97.430 -178.6249
48.200001 97.402 -179.1721
48.700001 97.410 -179.5859
49.400002 97.375 179.8787
50.000000 97.275 179.5728
50.799999 97.175 179.3438
51.500000 97.180 179.1008
52.200001 97.168 178.8269
53.000000 97.100 178.6787
53.799999 97.078 178.5713
54.500000 97.060 178.2270
55.200001 96.973 177.6241
56.000000 96.856 176.8835
57.000000 96.806 176.2733
58.000000 96.774 175.9957
59.000000 96.723 175.6953
60.000000 96.701 175.1943
60.799999 96.677 174.8007
61.500000 96.630 174.5697
62.200001 96.574 174.4623
63.000000 96.522 174.4540
64.000000 96.475 174.4194
65.000000 96.433 174.1888
66.000000 96.387 173.8721
67.000000 96.339 173.5468
68.000000 96.275 173.2214
69.000000 96.211 172.9084
70.000000 96.177 172.6502
71.000000 96.136 172.4871
72.000000 96.075 172.3382
73.000000 96.026 172.2205
74.000000 95.985 172.1314
75.000000 95.934 171.9568
76.199997 95.875 171.7643
77.500000 95.819 171.6299
78.800003 95.760 171.4669
80.000000 95.708 171.3237
81.199997 95.654 171.1630
82.500000 95.610 170.9799
83.800003 95.553 170.7886
85.000000 95.497 170.7446
86.199997 95.464 170.7108
87.500000 95.473 170.3916
88.500000 95.564 169.4622
90.000000 95.753 167.5110
91.199997 95.534 168.6494
92.500000 95.291 169.9355
93.800003 95.198 170.1001
95.000000 95.153 170.0459
96.199997 95.124 169.9984
97.500000 95.095 169.9692
98.800003 95.053 169.9797
100.000000 95.016 169.9511
101.500000 94.975 169.9099
103.000000 94.929 169.8695
104.400002 94.890 169.8523
106.000000 94.846 169.8396
107.500000 94.806 169.8395
109.000000 94.761 169.8562
110.599998 94.720 169.8537
112.000000 94.687 169.8343
113.800003 94.635 169.8048
115.000000 94.599 169.7930
117.199997 94.554 169.7601
118.000000 94.543 169.7916
120.599998 94.515 169.9753
122.000000 94.493 169.9035
124.099998 94.418 169.7103
125.000000 94.380 169.6489
126.500000 94.331 169.6310
128.000000 94.311 169.7784
131.500000 94.269 170.0273
132.000000 94.261 170.0471
134.000000 94.224 170.1279
136.000000 94.184 170.1949
138.000000 94.144 170.2169
140.000000 94.112 170.2770
143.000000 94.073 170.3676
145.000000 94.048 170.3918
147.500000 94.010 170.5067
150.000000 93.986 170.6700
152.500000 93.952 170.8016
155.000000 93.913 170.8443
157.500000 93.884 170.9370
160.000000 93.850 171.0489
162.500000 93.808 171.1335
165.000000 93.774 171.2451
167.500000 93.729 171.4105
170.000000 93.683 171.4763
172.500000 93.641 171.4769
175.000000 93.593 171.6892
177.500000 93.542 171.8686
180.000000 93.498 172.0374
182.500000 93.473 172.2049
185.000000 93.447 172.4039
187.500000 93.403 172.5382
190.000000 93.351 172.6439
192.500000 93.297 172.8358
195.000000 93.191 173.2584
197.500000 93.097 173.8135
200.000000 93.147 173.9274
203.000000 93.207 174.0844
206.000000 93.217 174.3927
209.000000 93.245 174.5851
212.000000 93.254 174.8324
214.000000 93.270 174.9948
218.000000 93.302 174.7863
220.000000 93.293 174.7045
224.000000 93.245 174.6615
227.000000 93.238 174.6306
230.000000 93.249 174.6908
233.000000 93.241 174.7955
236.000000 93.221 174.9252
240.000000 93.187 175.0044
243.000000 93.169 175.0303
247.000000 93.148 175.1336
250.000000 93.131 175.2307
254.000000 93.104 175.3499
258.000000 93.083 175.5823
262.000000 93.061 175.8121
265.000000 93.044 175.9521
269.000000 93.027 176.1302
272.000000 93.012 176.3092
276.000000 92.986 176.5121
280.000000 92.961 176.7041
285.000000 92.939 176.9575
290.000000 92.914 177.1606
295.000000 92.878 177.3862
300.000000 92.864 177.5864
304.000000 92.855 177.7577
307.000000 92.842 177.8999
311.000000 92.825 178.0757
315.000000 92.814 178.2465
320.000000 92.805 178.4873
325.000000 92.782 178.7416
330.000000 92.764 179.0009
335.000000 92.750 179.2087
340.000000 92.737 179.4398
345.000000 92.726 179.6916
350.000000 92.715 179.9161
355.000000 92.707 -179.8728
360.000000 92.700 -179.6572
365.000000 92.689 -179.4610
370.000000 92.679 -179.2850
375.000000 92.668 -179.1046
382.000000 92.655 -178.7927
387.000000 92.648 -178.5801
395.000000 92.634 -178.2637
400.000000 92.626 -178.0677
406.000000 92.614 -177.8296
412.000000 92.604 -177.5821
418.000000 92.596 -177.3270
425.000000 92.587 -177.0418
431.000000 92.579 -176.7967
437.000000 92.571 -176.5486
444.000000 92.562 -176.2607
450.000000 92.555 -176.0119
455.000000 92.549 -175.8086
462.000000 92.542 -175.5356
468.000000 92.537 -175.2958
475.000000 92.531 -175.0066
482.000000 92.525 -174.7239
487.000000 92.521 -174.5270
494.000000 92.516 -174.2537
500.000000 92.512 -174.0167
508.000000 92.508 -173.6974
515.000000 92.505 -173.4195
522.000000 92.502 -173.1433
530.000000 92.498 -172.8280
538.000000 92.497 -172.5021
545.000000 92.495 -172.2201
552.000000 92.493 -171.9405
560.000000 92.492 -171.6191
570.000000 92.493 -171.2271
580.000000 92.495 -170.8386
590.000000 92.497 -170.4429
600.000000 92.497 -170.0406
608.000000 92.498 -169.7191
615.000000 92.500 -169.4422
622.000000 92.503 -169.1644
630.000000 92.507 -168.8436
640.000000 92.513 -168.4306
650.000000 92.519 -168.0246
660.000000 92.526 -167.6162
670.000000 92.533 -167.2100
680.000000 92.541 -166.7939
690.000000 92.552 -166.3788
700.000000 92.563 -165.9629
710.000000 92.574 -165.5485
720.000000 92.587 -165.1301
730.000000 92.602 -164.7050
740.000000 92.617 -164.2793
750.000000 92.634 -163.8550
762.000000 92.655 -163.3471
775.000000 92.681 -162.7959
788.000000 92.709 -162.2332
800.000000 92.735 -161.7148
812.000000 92.760 -161.1967
825.000000 92.787 -160.6387
838.000000 92.818 -160.0885
850.000000 92.849 -159.5800
862.000000 92.883 -159.0779
875.000000 92.922 -158.5422
885.000000 92.955 -158.1320
900.000000 93.008 -157.5309
912.000000 93.053 -157.0597
925.000000 93.105 -156.5659
938.000000 93.161 -156.0914
950.000000 93.216 -155.6637
962.000000 93.274 -155.2571
975.000000 93.338 -154.8375
988.000000 93.405 -154.4385
1000.000000 93.466 -154.0946
1015.000000 93.541 -153.6920
1030.000000 93.616 -153.3289
1044.000000 93.686 -153.0231
1060.000000 93.769 -152.7102
1075.000000 93.847 -152.4563
1090.000000 93.925 -152.2392
1106.000000 94.008 -152.0497
1120.000000 94.080 -151.9142
1138.000000 94.171 -151.7767
1150.000000 94.230 -151.7106
1172.000000 94.335 -151.6371
1180.000000 94.372 -151.6205
1206.000000 94.487 -151.6172
1220.000000 94.547 -151.6440
1241.000000 94.635 -151.7099
1250.000000 94.674 -151.7461
1265.000000 94.739 -151.8191
1280.000000 94.804 -151.9083
1315.000000 94.949 -152.1535
1320.000000 94.969 -152.1922
1340.000000 95.044 -152.3591
1360.000000 95.115 -152.5402
1380.000000 95.183 -152.7296
1400.000000 95.245 -152.9282
1430.000000 95.332 -153.2305
1450.000000 95.387 -153.4356
1475.000000 95.449 -153.6997
1500.000000 95.507 -153.9643
1525.000000 95.560 -154.2285
1550.000000 95.609 -154.4982
1575.000000 95.654 -154.7708
1600.000000 95.697 -155.0430
1625.000000 95.737 -155.3151
1650.000000 95.774 -155.5865
1675.000000 95.809 -155.8517
1700.000000 95.840 -156.1142
1725.000000 95.868 -156.3755
1750.000000 95.892 -156.6353
1775.000000 95.913 -156.8929
1800.000000 95.932 -157.1411
1825.000000 95.947 -157.3833
1850.000000 95.960 -157.6228
1875.000000 95.970 -157.8602
1900.000000 95.978 -158.0887
1925.000000 95.983 -158.3093
1950.000000 95.985 -158.5225
1975.000000 95.985 -158.7272
2000.000000 95.983 -158.9249
2030.000000 95.979 -159.1496
2060.000000 95.972 -159.3577
2090.000000 95.964 -159.5554
2120.000000 95.954 -159.7404
2140.000000 95.945 -159.8534
2180.000000 95.924 -160.0602
2200.000000 95.911 -160.1521
2240.000000 95.884 -160.3123
2270.000000 95.861 -160.4146
2300.000000 95.837 -160.5011
2330.000000 95.811 -160.5726
2360.000000 95.783 -160.6237
2400.000000 95.745 -160.6614
2430.000000 95.715 -160.6699
2470.000000 95.675 -160.6558
2500.000000 95.645 -160.6250
2540.000000 95.608 -160.5606
2580.000000 95.572 -160.4641
2620.000000 95.536 -160.3372
2650.000000 95.509 -160.2261
2690.000000 95.474 -160.0576
2720.000000 95.448 -159.9121
2760.000000 95.413 -159.6927
2800.000000 95.380 -159.4492
2850.000000 95.340 -159.1114
2900.000000 95.303 -158.7356
2950.000000 95.268 -158.3258
3000.000000 95.237 -157.8842
3040.000000 95.215 -157.5124
3070.000000 95.200 -157.2201
3110.000000 95.182 -156.8151
3150.000000 95.166 -156.3963
3200.000000 95.148 -155.8496
3250.000000 95.134 -155.2793
3300.000000 95.125 -154.6916
3350.000000 95.122 -154.0908
3400.000000 95.125 -153.4795
3450.000000 95.133 -152.8624
3500.000000 95.146 -152.2374
3550.000000 95.164 -151.6034
3600.000000 95.188 -150.9563
3650.000000 95.218 -150.2944
3700.000000 95.257 -149.6232
3750.000000 95.306 -148.9531
3820.000000 95.392 -148.0609
3870.000000 95.460 -147.4691
3950.000000 95.575 -146.5755
4000.000000 95.647 -146.0198
4060.000000 95.735 -145.3236
4120.000000 95.833 -144.5701
4180.000000 95.953 -143.7469
4250.000000 96.135 -142.7232
4310.000000 96.345 -141.8637
4370.000000 96.618 -141.1627
4440.000000 97.015 -140.8468
4500.000000 97.396 -141.2787
4550.000000 97.706 -142.2226
4620.000000 98.072 -144.3187
4680.000000 98.294 -146.5772
4750.000000 98.443 -149.4104
4820.000000 98.491 -152.2154
4870.000000 98.477 -154.1329
4940.000000 98.404 -156.6693
5000.000000 98.297 -158.7028
5080.000000 98.100 -161.2097
5150.000000 97.881 -163.2008
5220.000000 97.626 -164.9881
5300.000000 97.298 -166.7504
5380.000000 96.938 -168.1870
5450.000000 96.602 -169.1644
5520.000000 96.254 -169.8696
5600.000000 95.852 -170.3391
5700.000000 95.359 -170.4402
5800.000000 94.900 -170.0766
5900.000000 94.499 -169.4641
6000.000000 94.145 -169.0108
6080.000000 93.843 -168.8875
6150.000000 93.534 -168.7407
6220.000000 93.190 -168.3051
6300.000000 92.796 -167.3333
6400.000000 92.356 -165.5780
6500.000000 91.981 -163.5007
6600.000000 91.654 -161.2363
6700.000000 91.366 -158.7988
6800.000000 91.118 -156.2161
6900.000000 90.911 -153.5213
7000.000000 90.742 -150.7241
7100.000000 90.612 -147.8176
7200.000000 90.525 -144.8081
7300.000000 90.485 -141.7051
7400.000000 90.496 -138.5335
7500.000000 90.564 -135.3155
7620.000000 90.727 -131.4187
7750.000000 91.022 -127.2152
7880.000000 91.455 -123.1757
8000.000000 91.983 -119.7726
8120.000000 92.641 -116.8921
8250.000000 93.533 -114.7731
8380.000000 94.620 -114.4199
8500.000000 95.702 -116.5480
8620.000000 96.631 -121.2654
8750.000000 97.355 -127.6586
8850.000000 97.888 -133.1898
9000.000000 98.405 -145.1204
9120.000000 98.067 -156.1625
9250.000000 96.963 -165.6605
9380.000000 95.510 -170.8636
9500.000000 94.193 -172.1856
9620.000000 93.067 -171.1504
9750.000000 92.123 -168.4026
9880.000000 91.464 -164.7420
10000.000000 91.095 -160.9965
10150.000000 90.928 -156.2674
10300.000000 91.042 -151.8659
10440.000000 91.365 -148.2473
10600.000000 91.971 -144.9420
10750.000000 92.737 -142.9338
10900.000000 93.671 -142.1175
11060.000000 94.845 -142.9108
11200.000000 95.969 -145.4606
11380.000000 97.428 -151.5341
11500.000000 98.381 -157.3326
11720.000000 99.948 -172.8443
11800.000000 100.297 179.6278
12060.000000 99.484 153.5139
12200.000000 97.817 146.0618
12410.000000 96.034 149.0395
12500.000000 96.070 150.5166
12650.000000 96.599 149.2166
12800.000000 97.216 144.7223
13150.000000 98.267 127.1843
13200.000000 98.352 124.1650
13400.000000 98.535 111.2504
13600.000000 98.481 97.0396
13800.000000 98.137 81.3854
14000.000000 97.318 64.4626
14300.000000 94.652 41.3522
14500.000000 92.186 32.1773
14750.000000 89.361 28.9923
15000.000000 87.777 27.3402
15250.000000 86.358 25.3517
15500.000000 85.960 27.2696
15750.000000 86.612 22.5941
16000.000000 87.281 12.5575
16250.000000 87.860 -0.0688
16500.000000 88.853 -15.5455
16750.000000 90.006 -37.3096
17000.000000 90.539 -65.0266
17250.000000 90.163 -94.5259
17500.000000 89.361 -125.3396
17750.000000 87.086 -152.5331
18000.000000 84.854 -169.6631
18250.000000 84.677 169.9839
18500.000000 85.752 142.3224
18750.000000 85.990 103.6625
19000.000000 83.522 65.7586
19250.000000 79.421 41.3196
19500.000000 77.433 23.0274
19750.000000 78.489 -6.1532
20000.000000 79.239 -37.0387
