* Measurement data measured by REW V5.30.2
* Source: Headset (USB-C to 3.5mm Headphone Jack Adapter), MICROPHONE (Master Volume), L, volume: 0.250
* Format: 512k Log Swept Sine, 1 sweep at -12.0 dBFS with no timing reference
* Dated: Jan 29, 2024 1:27:14 PM
* REW Settings:
*  C-weighting compensation: Off
*  Target level: 75.0 dB
* Note: ; 
* Measurement: Brownie Stella1 L
* Smoothing: 1/24 octave
* Frequency Step: 1/48 octave
* Start Frequency: 20.300 Hz
*
* Freq(Hz) SPL(dB) Phase(degrees)
20.299999 97.873 -128.5670
20.600000 97.936 -129.6397
20.900000 97.999 -130.9009
21.200001 98.049 -132.2157
21.400000 98.073 -133.0962
21.799999 98.102 -134.7995
22.000000 98.109 -135.5891
22.400000 98.116 -136.9799
22.700001 98.123 -137.8476
23.000000 98.134 -138.6035
23.299999 98.153 -139.3163
23.600000 98.180 -140.0557
24.000000 98.223 -141.1418
24.299999 98.256 -142.0090
24.700001 98.287 -143.1361
25.000000 98.294 -143.9024
25.400000 98.282 -144.8185
25.799999 98.256 -145.7114
26.200001 98.240 -146.6959
26.500000 98.244 -147.5051
26.900000 98.276 -148.5977
27.200001 98.311 -149.3543
27.600000 98.357 -150.2326
28.000000 98.388 -151.0263
28.500000 98.404 -152.1028
29.000000 98.405 -153.3726
29.500000 98.402 -154.6456
30.000000 98.392 -155.6562
30.400000 98.378 -156.2581
30.700001 98.365 -156.6675
31.100000 98.348 -157.2776
31.500000 98.334 -158.0332
32.000000 98.318 -159.1207
32.500000 98.301 -160.1582
33.000000 98.288 -160.9843
33.500000 98.278 -161.6327
34.000000 98.262 -162.2610
34.500000 98.226 -162.9763
35.000000 98.181 -163.7244
35.500000 98.157 -164.3600
36.000000 98.168 -164.8415
36.500000 98.182 -165.3415
37.000000 98.158 -166.1012
37.500000 98.097 -167.1624
38.200001 98.047 -168.6591
38.700001 98.066 -169.3847
39.500000 98.053 -170.1894
40.000000 97.968 -170.7966
40.599998 97.869 -171.5943
41.200001 97.860 -172.2263
41.799999 97.894 -172.7430
42.500000 97.866 -173.4774
43.099998 97.800 -174.1439
43.700001 97.756 -174.6651
44.400002 97.732 -175.2396
45.000000 97.705 -175.9427
45.500000 97.686 -176.6263
46.200001 97.678 -177.4107
46.799999 97.672 -177.8145
47.500000 97.661 -178.1960
48.200001 97.651 -178.6813
48.700001 97.614 -179.0598
49.400002 97.491 -179.5947
50.000000 97.367 179.8889
50.799999 97.286 179.2092
51.500000 97.268 178.8492
52.200001 97.235 178.5688
53.000000 97.192 177.9764
53.799999 97.165 177.3160
54.500000 97.128 176.9116
55.200001 97.075 176.5041
56.000000 97.024 175.9236
57.000000 96.995 175.2061
58.000000 96.943 174.5046
59.000000 96.866 173.6039
60.000000 96.851 172.8860
60.799999 96.807 172.9850
61.500000 96.720 173.2164
62.200001 96.649 173.0742
63.000000 96.612 172.5106
64.000000 96.571 171.9624
65.000000 96.518 171.8114
66.000000 96.425 171.5015
67.000000 96.333 170.9090
68.000000 96.285 170.5242
69.000000 96.227 170.2501
70.000000 96.167 169.8930
71.000000 96.111 169.5009
72.000000 96.055 169.1795
73.000000 96.001 168.9666
74.000000 95.930 168.7852
75.000000 95.851 168.5908
76.199997 95.796 168.2365
77.500000 95.750 167.8437
78.800003 95.686 167.6685
80.000000 95.622 167.3864
81.199997 95.551 167.1335
82.500000 95.503 166.8377
83.800003 95.448 166.5058
85.000000 95.379 166.2823
86.199997 95.323 166.1112
87.500000 95.277 165.7705
88.500000 95.240 165.1847
90.000000 95.181 164.0981
91.199997 95.104 164.5063
92.500000 95.023 164.9612
93.800003 94.960 164.9191
95.000000 94.904 164.7522
96.199997 94.851 164.6538
97.500000 94.792 164.6071
98.800003 94.746 164.6070
100.000000 94.717 164.4811
101.500000 94.660 164.4755
103.000000 94.590 164.3260
104.400002 94.540 164.2653
106.000000 94.467 164.1779
107.500000 94.408 164.2041
109.000000 94.340 163.9753
110.599998 94.261 163.7850
112.000000 94.207 163.7624
113.800003 94.140 163.6938
115.000000 94.077 163.5796
117.199997 94.010 163.7344
118.000000 94.002 163.8172
120.599998 93.966 163.8376
122.000000 93.830 163.3974
124.099998 93.674 163.3332
125.000000 93.655 163.5282
126.500000 93.670 163.8407
128.000000 93.681 163.8824
131.500000 93.620 163.8741
132.000000 93.624 163.8303
134.000000 93.636 163.5000
136.000000 93.592 163.1157
138.000000 93.445 163.3110
140.000000 93.361 164.3288
143.000000 93.252 165.3610
145.000000 93.285 165.4592
147.500000 93.270 164.6195
150.000000 93.262 165.2628
152.500000 93.276 164.6896
155.000000 93.149 163.9954
157.500000 92.933 164.1158
160.000000 92.789 165.1261
162.500000 92.794 166.4594
165.000000 92.842 166.9409
167.500000 92.800 166.9973
170.000000 92.671 166.7435
172.500000 92.582 166.0692
175.000000 92.562 165.1306
177.500000 92.612 164.6653
180.000000 92.622 164.8419
182.500000 92.530 165.1893
185.000000 92.476 165.3339
187.500000 92.471 165.5313
190.000000 92.444 165.6447
192.500000 92.413 165.6308
195.000000 92.353 165.8224
197.500000 92.315 166.0155
200.000000 92.274 166.0334
203.000000 92.217 166.1304
206.000000 92.179 166.5136
209.000000 92.128 166.8389
212.000000 92.094 166.9324
214.000000 92.067 166.8806
218.000000 92.004 167.1082
220.000000 91.975 167.2417
224.000000 91.921 167.3497
227.000000 91.874 167.4669
230.000000 91.839 167.6906
233.000000 91.811 167.9230
236.000000 91.784 168.0745
240.000000 91.748 168.2555
243.000000 91.724 168.4186
247.000000 91.683 168.6773
250.000000 91.644 168.8705
254.000000 91.601 169.0906
258.000000 91.560 169.3496
262.000000 91.516 169.5832
265.000000 91.486 169.7653
269.000000 91.447 170.0201
272.000000 91.419 170.2094
276.000000 91.382 170.4573
280.000000 91.345 170.7074
285.000000 91.304 171.0147
290.000000 91.261 171.3139
295.000000 91.218 171.6399
300.000000 91.180 171.9717
304.000000 91.150 172.2214
307.000000 91.127 172.3979
311.000000 91.097 172.6295
315.000000 91.071 172.8617
320.000000 91.041 173.1676
325.000000 91.008 173.4944
330.000000 90.975 173.8038
335.000000 90.946 174.1151
340.000000 90.918 174.4247
345.000000 90.890 174.7385
350.000000 90.862 175.0514
355.000000 90.836 175.3854
360.000000 90.812 175.7092
365.000000 90.790 176.0387
370.000000 90.771 176.3732
375.000000 90.754 176.7038
382.000000 90.731 177.1324
387.000000 90.719 177.4124
395.000000 90.699 177.8510
400.000000 90.685 178.1104
406.000000 90.666 178.4113
412.000000 90.646 178.7198
418.000000 90.626 179.0454
425.000000 90.605 179.4471
431.000000 90.588 179.7898
437.000000 90.574 -179.8826
444.000000 90.557 -179.5057
450.000000 90.541 -179.1869
455.000000 90.528 -178.9269
462.000000 90.513 -178.5627
468.000000 90.501 -178.2432
475.000000 90.487 -177.8621
482.000000 90.473 -177.4825
487.000000 90.464 -177.2140
494.000000 90.452 -176.8412
500.000000 90.443 -176.5191
508.000000 90.431 -176.0868
515.000000 90.421 -175.7121
522.000000 90.412 -175.3392
530.000000 90.404 -174.9224
538.000000 90.396 -174.5165
545.000000 90.391 -174.1587
552.000000 90.385 -173.7957
560.000000 90.380 -173.3844
570.000000 90.376 -172.8741
580.000000 90.373 -172.3572
590.000000 90.369 -171.8474
600.000000 90.368 -171.3401
608.000000 90.367 -170.9373
615.000000 90.367 -170.5824
622.000000 90.369 -170.2279
630.000000 90.371 -169.8195
640.000000 90.375 -169.3055
650.000000 90.380 -168.7999
660.000000 90.386 -168.2925
670.000000 90.393 -167.7827
680.000000 90.401 -167.2759
690.000000 90.411 -166.7697
700.000000 90.423 -166.2630
710.000000 90.436 -165.7561
720.000000 90.451 -165.2532
730.000000 90.466 -164.7535
740.000000 90.483 -164.2525
750.000000 90.502 -163.7460
762.000000 90.527 -163.1452
775.000000 90.556 -162.4953
788.000000 90.588 -161.8468
800.000000 90.617 -161.2509
812.000000 90.645 -160.6589
825.000000 90.676 -160.0219
838.000000 90.710 -159.3847
850.000000 90.744 -158.8095
862.000000 90.783 -158.2446
875.000000 90.827 -157.6405
885.000000 90.862 -157.1853
900.000000 90.921 -156.5288
912.000000 90.971 -156.0178
925.000000 91.028 -155.4716
938.000000 91.088 -154.9409
950.000000 91.147 -154.4728
962.000000 91.209 -154.0261
975.000000 91.277 -153.5666
988.000000 91.347 -153.1329
1000.000000 91.412 -152.7553
1015.000000 91.491 -152.3159
1030.000000 91.571 -151.9173
1044.000000 91.647 -151.5810
1060.000000 91.732 -151.2325
1075.000000 91.813 -150.9454
1090.000000 91.893 -150.6982
1106.000000 91.978 -150.4714
1120.000000 92.051 -150.2972
1138.000000 92.142 -150.1165
1150.000000 92.202 -150.0223
1172.000000 92.309 -149.8897
1180.000000 92.347 -149.8554
1206.000000 92.465 -149.7904
1220.000000 92.527 -149.7793
1241.000000 92.617 -149.7953
1250.000000 92.656 -149.8115
1265.000000 92.724 -149.8464
1280.000000 92.793 -149.8966
1315.000000 92.945 -150.0632
1320.000000 92.966 -150.0911
1340.000000 93.046 -150.2156
1360.000000 93.121 -150.3421
1380.000000 93.192 -150.4731
1400.000000 93.260 -150.6236
1430.000000 93.357 -150.8712
1450.000000 93.418 -151.0393
1475.000000 93.490 -151.2581
1500.000000 93.557 -151.4876
1525.000000 93.619 -151.7392
1550.000000 93.677 -151.9940
1575.000000 93.733 -152.2222
1600.000000 93.783 -152.4633
1625.000000 93.832 -152.7266
1650.000000 93.879 -152.9968
1675.000000 93.923 -153.2743
1700.000000 93.963 -153.5507
1725.000000 93.998 -153.8231
1750.000000 94.029 -154.0952
1775.000000 94.057 -154.3748
1800.000000 94.083 -154.6575
1825.000000 94.104 -154.9379
1850.000000 94.122 -155.2182
1875.000000 94.137 -155.4955
1900.000000 94.148 -155.7640
1925.000000 94.156 -156.0259
1950.000000 94.161 -156.2846
1975.000000 94.164 -156.5425
2000.000000 94.164 -156.7940
2030.000000 94.162 -157.0822
2060.000000 94.156 -157.3565
2090.000000 94.146 -157.6202
2120.000000 94.132 -157.8710
2140.000000 94.120 -158.0301
2180.000000 94.093 -158.3289
2200.000000 94.078 -158.4662
2240.000000 94.042 -158.7146
2270.000000 94.011 -158.8757
2300.000000 93.978 -159.0112
2330.000000 93.941 -159.1213
2360.000000 93.903 -159.2125
2400.000000 93.844 -159.3216
2430.000000 93.791 -159.3571
2470.000000 93.725 -159.3802
2500.000000 93.683 -159.3680
2540.000000 93.628 -159.3033
2580.000000 93.580 -159.2141
2620.000000 93.531 -159.0861
2650.000000 93.492 -158.9583
2690.000000 93.441 -158.7597
2720.000000 93.404 -158.5892
2760.000000 93.354 -158.3297
2800.000000 93.307 -158.0399
2850.000000 93.261 -157.6512
2900.000000 93.221 -157.2127
2950.000000 93.173 -156.7186
3000.000000 93.126 -156.1872
3040.000000 93.091 -155.7379
3070.000000 93.066 -155.3890
3110.000000 93.037 -154.9089
3150.000000 93.009 -154.4084
3200.000000 92.977 -153.7525
3250.000000 92.949 -153.0669
3300.000000 92.925 -152.3575
3350.000000 92.908 -151.6271
3400.000000 92.895 -150.8690
3450.000000 92.888 -150.0861
3500.000000 92.888 -149.2698
3550.000000 92.895 -148.4197
3600.000000 92.912 -147.5496
3650.000000 92.941 -146.6793
3700.000000 92.981 -145.8305
3750.000000 93.026 -145.0085
3820.000000 93.094 -143.8736
3870.000000 93.144 -143.0522
3950.000000 93.230 -141.6651
4000.000000 93.292 -140.7309
4060.000000 93.379 -139.5199
4120.000000 93.490 -138.2122
4180.000000 93.639 -136.8452
4250.000000 93.877 -135.2524
4310.000000 94.147 -134.0319
4370.000000 94.475 -133.1171
4440.000000 94.907 -132.6399
4500.000000 95.287 -132.8380
4550.000000 95.588 -133.4203
4620.000000 95.959 -134.7249
4680.000000 96.222 -136.1470
4750.000000 96.471 -138.0230
4820.000000 96.663 -140.0667
4870.000000 96.764 -141.6066
4940.000000 96.856 -143.8314
5000.000000 96.885 -145.7542
5080.000000 96.855 -148.2673
5150.000000 96.772 -150.3634
5220.000000 96.640 -152.3097
5300.000000 96.437 -154.2909
5380.000000 96.187 -155.9536
5450.000000 95.939 -157.1049
5520.000000 95.673 -157.9447
5600.000000 95.364 -158.4974
5700.000000 95.003 -158.6012
5800.000000 94.715 -158.3094
5900.000000 94.502 -158.1640
6000.000000 94.279 -158.4247
6080.000000 94.041 -158.6240
6150.000000 93.798 -158.5291
6220.000000 93.548 -158.0979
6300.000000 93.286 -157.2312
6400.000000 93.021 -155.7689
6500.000000 92.818 -154.0472
6600.000000 92.663 -152.0628
6700.000000 92.571 -149.8025
6800.000000 92.563 -147.3646
6900.000000 92.648 -144.8710
7000.000000 92.831 -142.4165
7100.000000 93.123 -140.0962
7200.000000 93.533 -138.0526
7300.000000 94.070 -136.4789
7400.000000 94.737 -135.5740
7500.000000 95.541 -135.6053
7620.000000 96.678 -137.5098
7750.000000 98.015 -143.1205
7880.000000 99.135 -153.8882
8000.000000 99.535 -168.2111
8120.000000 99.034 176.2415
8250.000000 97.558 162.4896
8380.000000 95.510 154.1257
8500.000000 93.479 150.6341
8620.000000 91.470 150.1866
8750.000000 89.356 153.5192
8850.000000 87.989 158.4133
9000.000000 86.566 165.8978
9120.000000 85.661 171.7162
9250.000000 84.858 178.8472
9380.000000 84.345 -173.7143
9500.000000 84.101 -167.1428
9620.000000 84.020 -160.9730
9750.000000 84.082 -154.7128
9880.000000 84.282 -148.8962
10000.000000 84.583 -143.9150
10150.000000 85.123 -138.1898
10300.000000 85.843 -133.1347
10440.000000 86.667 -129.1776
10600.000000 87.779 -125.7293
10750.000000 88.975 -123.7870
10900.000000 90.287 -123.4586
11060.000000 91.726 -125.2759
11200.000000 92.935 -128.5820
11380.000000 94.469 -134.5987
11500.000000 95.510 -140.2785
11720.000000 97.010 -157.0253
11800.000000 97.207 -165.1418
12060.000000 95.702 173.9037
12200.000000 94.338 174.1328
12410.000000 94.333 179.0399
12500.000000 94.866 178.6647
12650.000000 95.760 174.3823
12800.000000 96.384 167.1949
13150.000000 96.961 150.6641
13200.000000 97.072 148.5135
13400.000000 97.614 138.5917
13600.000000 98.033 125.8404
13800.000000 98.022 111.4124
14000.000000 97.655 98.1373
14300.000000 96.952 78.2257
14500.000000 96.040 66.8632
14750.000000 95.299 58.1346
15000.000000 95.844 45.6019
15250.000000 95.982 23.9849
15500.000000 95.189 2.6332
15750.000000 94.339 -17.3230
16000.000000 93.302 -38.7919
16250.000000 91.723 -58.4443
16500.000000 90.169 -74.9143
16750.000000 89.077 -92.9680
17000.000000 87.820 -112.1167
17250.000000 86.753 -129.2129
17500.000000 86.465 -151.3051
17750.000000 85.981 177.2990
18000.000000 84.474 140.5958
18250.000000 81.185 114.6983
18500.000000 76.407 119.6182
18750.000000 75.599 127.8624
19000.000000 78.204 110.3618
19250.000000 79.341 68.5607
19500.000000 78.315 23.4566
19750.000000 76.315 -10.0338
20000.000000 75.030 -27.3135
