* Measurement data measured by REW V5.30.2
* Source: Headset (USB-C to 3.5mm Headphone Jack Adapter), MICROPHONE (Master Volume), L, volume: 0.250
* Format: 512k Log Swept Sine, 1 sweep at -6.0 dBFS with no timing reference
* Dated: Jan 12, 2024 8:12:42 PM
* REW Settings:
*  C-weighting compensation: Off
*  Target level: 75.0 dB
* Note: ; 
* Measurement: Aurvana Ace 2 R
* Smoothing: 1/24 octave
* Frequency Step: 1/48 octave
* Start Frequency: 1.000 Hz
*
* Freq(Hz) SPL(dB) Phase(degrees)
1.000000 49.309 119.4863
1.015000 49.099 117.1348
1.030000 48.905 114.6972
1.044000 48.738 112.3470
1.060000 48.569 109.5763
1.075000 48.431 106.9009
1.090000 48.316 104.1521
1.106000 48.216 101.1229
1.120000 48.145 98.3524
1.138000 48.072 94.5917
1.150000 48.034 91.9554
1.172000 47.986 86.8555
1.180000 47.975 84.9182
1.206000 47.962 78.3455
1.220000 47.969 74.6557
1.241000 47.997 68.9796
1.250000 48.015 66.5130
1.265000 48.053 62.3842
1.280000 48.100 58.2653
1.315000 48.242 48.8898
1.320000 48.265 47.5948
1.340000 48.368 42.5659
1.360000 48.482 37.8123
1.380000 48.608 33.3645
1.400000 48.742 29.2367
1.430000 48.959 23.6424
1.450000 49.113 20.2906
1.475000 49.321 16.4549
1.500000 49.566 12.8855
1.525000 49.851 9.5281
1.550000 50.171 6.3772
1.575000 50.520 3.4294
1.600000 50.889 0.6787
1.625000 51.273 -1.8835
1.650000 51.664 -4.2670
1.675000 52.055 -6.4825
1.700000 52.440 -8.5412
1.725000 52.811 -10.4538
1.750000 53.162 -12.2309
1.775000 53.486 -13.8827
1.800000 53.777 -15.4197
1.825000 54.030 -16.8600
1.850000 54.252 -18.2511
1.875000 54.455 -19.6454
1.900000 54.642 -21.0507
1.925000 54.816 -22.4565
1.950000 54.974 -23.8502
1.975000 55.117 -25.2205
2.000000 55.244 -26.5568
2.030000 55.375 -28.1017
2.060000 55.482 -29.5683
2.090000 55.565 -30.9423
2.120000 55.622 -32.2101
2.140000 55.646 -32.9901
2.180000 55.660 -34.3841
2.200000 55.650 -35.0108
2.240000 55.610 -36.2380
2.270000 55.564 -37.1856
2.300000 55.499 -38.1483
2.330000 55.413 -39.1056
2.360000 55.300 -40.0347
2.400000 55.101 -41.1855
2.430000 54.909 -41.9450
2.470000 54.588 -42.7554
2.500000 54.293 -43.1591
2.540000 53.812 -43.3395
2.580000 53.183 -43.0669
2.620000 52.304 -42.4174
2.650000 51.483 -41.6605
2.690000 50.239 -40.1297
2.720000 49.249 -38.4156
2.760000 47.939 -34.9786
2.800000 46.741 -29.5336
2.850000 45.580 -18.1858
2.900000 45.012 0.1236
2.950000 45.248 23.0843
3.000000 46.302 43.3125
3.040000 47.605 54.7918
3.070000 48.769 60.9000
3.110000 50.474 66.5846
3.150000 52.251 70.2766
3.200000 54.407 73.0238
3.250000 56.318 74.3727
3.300000 57.873 74.8035
3.350000 59.153 74.7275
3.400000 60.281 74.3878
3.450000 61.296 73.8534
3.500000 62.222 73.1516
3.550000 63.081 72.2986
3.600000 63.894 71.3039
3.650000 64.675 70.1776
3.700000 65.417 68.9493
3.750000 66.102 67.6656
3.820000 66.968 65.8249
3.870000 67.532 64.4933
3.950000 68.369 62.3392
4.000000 68.866 60.9724
4.060000 69.437 59.2964
4.120000 69.971 57.5768
4.180000 70.465 55.8383
4.250000 70.997 53.8221
4.310000 71.422 52.1231
4.370000 71.823 50.4536
4.440000 72.263 48.5105
4.500000 72.611 46.8185
4.550000 72.881 45.4024
4.620000 73.231 43.4463
4.680000 73.507 41.8205
4.750000 73.805 39.9961
4.820000 74.076 38.2068
4.870000 74.251 36.9233
4.940000 74.473 35.1394
5.000000 74.643 33.6568
5.080000 74.842 31.7972
5.150000 74.992 30.2869
5.220000 75.117 28.8306
5.300000 75.230 27.2207
5.380000 75.316 25.7302
5.450000 75.373 24.5798
5.520000 75.412 23.5920
5.600000 75.431 22.6170
5.700000 75.424 21.6236
5.800000 75.403 20.9683
5.900000 75.378 20.7419
6.000000 75.340 20.9414
6.080000 75.314 21.3811
6.150000 75.310 21.9562
6.220000 75.335 22.7042
6.300000 75.399 23.7852
6.400000 75.525 25.4323
6.500000 75.712 27.2093
6.600000 75.978 28.9137
6.700000 76.330 30.5227
6.800000 76.755 31.9661
6.900000 77.221 33.0427
7.000000 77.713 33.6589
7.100000 78.235 33.8962
7.200000 78.771 33.7799
7.300000 79.295 33.2814
7.400000 79.795 32.4141
7.500000 80.276 31.2576
7.620000 80.818 29.5965
7.750000 81.347 27.5123
7.880000 81.816 25.1637
8.000000 82.197 22.9147
8.120000 82.527 20.6668
8.250000 82.829 18.2073
8.380000 83.081 15.8625
8.500000 83.275 13.8901
8.620000 83.434 12.0745
8.750000 83.583 10.3557
8.850000 83.689 9.2639
9.000000 83.840 7.9718
9.120000 83.972 7.2035
9.250000 84.143 6.6420
9.380000 84.346 6.3108
9.500000 84.570 6.0829
9.620000 84.836 5.8741
9.750000 85.165 5.6258
9.880000 85.520 5.2175
10.000000 85.863 4.6491
10.150000 86.302 3.6947
10.300000 86.730 2.4236
10.440000 87.110 0.9691
10.600000 87.508 -0.9030
10.750000 87.835 -2.8149
10.900000 88.116 -4.7970
11.060000 88.361 -6.8477
11.200000 88.530 -8.5578
11.380000 88.700 -10.4917
11.500000 88.788 -11.5693
11.720000 88.925 -13.0619
11.800000 88.975 -13.4277
12.060000 89.168 -14.0580
12.200000 89.314 -14.1226
12.410000 89.604 -14.0459
12.500000 89.757 -14.0262
12.650000 90.051 -14.0591
12.800000 90.375 -14.2575
13.150000 91.177 -15.5920
13.200000 91.289 -15.8815
13.400000 91.719 -17.2547
13.600000 92.106 -18.8688
13.800000 92.441 -20.6194
14.000000 92.727 -22.3701
14.300000 93.082 -24.8151
14.500000 93.290 -26.2352
14.750000 93.544 -27.7774
15.000000 93.814 -29.1351
15.250000 94.111 -30.4542
15.500000 94.429 -31.8789
15.750000 94.755 -33.4957
16.000000 95.069 -35.3268
16.250000 95.357 -37.3140
16.500000 95.612 -39.3696
16.750000 95.833 -41.3940
17.000000 96.032 -43.3140
17.250000 96.221 -45.1048
17.500000 96.414 -46.7859
17.750000 96.618 -48.4203
18.000000 96.835 -50.0790
18.250000 97.057 -51.8195
18.500000 97.273 -53.6647
18.750000 97.475 -55.5947
19.000000 97.653 -57.5632
19.250000 97.808 -59.5037
19.500000 97.944 -61.3601
19.750000 98.068 -63.0982
20.000000 98.191 -64.7138
20.299999 98.348 -66.5358
20.600000 98.521 -68.3152
20.900000 98.704 -70.1429
21.200001 98.885 -72.0725
21.400000 98.997 -73.4144
21.799999 99.186 -76.1587
22.000000 99.260 -77.5116
22.400000 99.376 -80.0607
22.700001 99.447 -81.7824
23.000000 99.521 -83.3481
23.299999 99.606 -84.8157
23.600000 99.705 -86.2650
24.000000 99.845 -88.2814
24.299999 99.942 -89.8806
24.700001 100.043 -92.0625
25.000000 100.094 -93.6520
25.400000 100.139 -95.6006
25.799999 100.181 -97.3271
26.200001 100.238 -98.9183
26.500000 100.290 -100.1063
26.900000 100.361 -101.7531
27.200001 100.402 -103.0271
27.600000 100.434 -104.6951
28.000000 100.443 -106.2211
28.500000 100.452 -107.8630
29.000000 100.489 -109.3400
29.500000 100.552 -110.8887
30.000000 100.612 -112.6197
30.400000 100.639 -114.0857
30.700001 100.646 -115.1794
31.100000 100.643 -116.5785
31.500000 100.634 -117.8901
32.000000 100.629 -119.4404
32.500000 100.632 -120.9622
33.000000 100.640 -122.4978
33.500000 100.645 -124.0331
34.000000 100.648 -125.5293
34.500000 100.651 -126.9622
35.000000 100.660 -128.3330
35.500000 100.675 -129.6613
36.000000 100.696 -130.9816
36.500000 100.715 -132.3263
37.000000 100.720 -133.6836
37.500000 100.703 -134.9723
38.200001 100.658 -136.4958
38.700001 100.638 -137.4131
39.500000 100.635 -138.9251
40.000000 100.626 -139.9840
40.599998 100.594 -141.2666
41.200001 100.554 -142.4819
41.799999 100.517 -143.6742
42.500000 100.473 -145.1030
43.099998 100.429 -146.3366
43.700001 100.377 -147.5243
44.400002 100.313 -148.7664
45.000000 100.270 -149.7101
45.500000 100.247 -150.5005
46.200001 100.205 -151.6776
46.799999 100.142 -152.5877
47.500000 100.076 -153.4106
48.200001 100.040 -154.3244
48.700001 99.997 -155.1633
49.400002 99.872 -156.2862
50.000000 99.741 -156.8943
50.799999 99.624 -157.4082
51.500000 99.569 -158.0124
52.200001 99.517 -158.7867
53.000000 99.461 -159.7439
53.799999 99.403 -160.7536
54.500000 99.338 -161.5940
55.200001 99.261 -162.2968
56.000000 99.162 -162.8215
57.000000 99.065 -163.0917
58.000000 98.992 -163.4363
59.000000 98.881 -163.7253
60.000000 98.798 -163.8867
60.799999 98.745 -164.2320
61.500000 98.698 -164.5912
62.200001 98.672 -165.0496
63.000000 98.641 -165.8763
64.000000 98.527 -166.9448
65.000000 98.376 -167.3978
66.000000 98.265 -167.1092
67.000000 98.269 -166.6580
68.000000 98.293 -166.8321
69.000000 98.248 -167.1278
70.000000 98.198 -167.4008
71.000000 98.121 -167.8432
72.000000 98.026 -168.1072
73.000000 97.970 -168.2571
74.000000 97.937 -168.5211
75.000000 97.902 -168.6704
76.199997 97.897 -168.6844
77.500000 97.890 -168.8559
78.800003 97.833 -169.0013
80.000000 97.743 -168.8744
81.199997 97.682 -168.7346
82.500000 97.593 -168.8593
83.800003 97.553 -168.8125
85.000000 97.573 -169.4648
86.199997 97.524 -170.3639
87.500000 97.451 -170.6782
88.500000 97.448 -170.4974
90.000000 97.501 -170.5228
91.199997 97.470 -170.7409
92.500000 97.371 -170.8098
93.800003 97.274 -170.6174
95.000000 97.283 -170.9462
96.199997 97.249 -172.2514
97.500000 97.135 -173.1401
98.800003 97.108 -173.2510
100.000000 97.116 -173.2729
101.500000 97.064 -172.6768
103.000000 97.022 -171.4537
104.400002 97.001 -170.7994
106.000000 96.914 -170.6852
107.500000 96.828 -170.6129
109.000000 96.784 -170.2292
110.599998 96.865 -169.4931
112.000000 96.941 -169.6413
113.800003 96.880 -169.9016
115.000000 96.828 -169.8913
117.199997 96.778 -170.5050
118.000000 96.758 -170.8444
120.599998 96.702 -170.9072
122.000000 96.771 -170.6523
124.099998 96.806 -171.0916
125.000000 96.753 -171.2765
126.500000 96.621 -171.0581
128.000000 96.543 -170.4070
131.500000 96.515 -170.1295
132.000000 96.513 -170.1521
134.000000 96.507 -170.1357
136.000000 96.520 -169.8592
138.000000 96.532 -169.6659
140.000000 96.498 -169.5816
143.000000 96.432 -169.7594
145.000000 96.410 -170.0216
147.500000 96.391 -170.2750
150.000000 96.341 -170.2457
152.500000 96.255 -170.1683
155.000000 96.140 -170.2384
157.500000 95.976 -170.4693
160.000000 95.794 -170.2736
162.500000 95.707 -169.5227
165.000000 95.735 -168.1116
167.500000 95.835 -166.2336
170.000000 95.903 -164.7258
172.500000 95.971 -164.0442
175.000000 96.086 -164.4431
177.500000 96.168 -164.9850
180.000000 96.178 -165.2189
182.500000 96.147 -165.1209
185.000000 96.146 -165.0028
187.500000 96.139 -164.9428
190.000000 96.126 -165.0198
192.500000 96.115 -165.5050
195.000000 96.112 -165.8937
197.500000 96.109 -165.8160
200.000000 96.092 -165.5662
203.000000 96.042 -165.5211
206.000000 95.984 -165.5026
209.000000 95.968 -165.2826
212.000000 95.991 -165.4164
214.000000 95.981 -165.5718
218.000000 95.926 -165.6111
220.000000 95.895 -165.6116
224.000000 95.857 -165.4672
227.000000 95.850 -165.3282
230.000000 95.827 -165.3335
233.000000 95.786 -165.3487
236.000000 95.760 -165.1414
240.000000 95.734 -164.9173
243.000000 95.698 -164.7680
247.000000 95.640 -164.6859
250.000000 95.597 -164.6479
254.000000 95.571 -164.5616
258.000000 95.540 -164.3463
262.000000 95.495 -163.9656
265.000000 95.476 -163.8563
269.000000 95.436 -163.7103
272.000000 95.394 -163.4376
276.000000 95.349 -163.1009
280.000000 95.328 -162.8436
285.000000 95.274 -162.4545
290.000000 95.188 -162.4255
295.000000 95.154 -162.0296
300.000000 95.131 -161.5770
304.000000 95.107 -161.4511
307.000000 95.069 -161.2418
311.000000 95.010 -160.7661
315.000000 94.962 -160.5070
320.000000 94.872 -159.9528
325.000000 94.843 -159.1026
330.000000 94.877 -159.1005
335.000000 94.819 -159.0660
340.000000 94.779 -158.8208
345.000000 94.749 -158.2975
350.000000 94.721 -157.6507
355.000000 94.677 -157.2115
360.000000 94.625 -157.1496
365.000000 94.606 -157.0795
370.000000 94.578 -156.6853
375.000000 94.536 -156.3648
382.000000 94.524 -155.8879
387.000000 94.507 -155.5913
395.000000 94.438 -155.2722
400.000000 94.408 -154.8893
406.000000 94.348 -154.1976
412.000000 94.298 -153.8512
418.000000 94.278 -153.2453
425.000000 94.230 -152.9216
431.000000 94.195 -152.7002
437.000000 94.150 -152.2748
444.000000 94.104 -151.7563
450.000000 94.073 -151.2744
455.000000 94.050 -150.8412
462.000000 94.019 -150.2558
468.000000 93.982 -149.7208
475.000000 93.942 -149.2572
482.000000 93.914 -148.8178
487.000000 93.878 -148.4878
494.000000 93.819 -148.1003
500.000000 93.784 -147.5917
508.000000 93.752 -146.8847
515.000000 93.722 -146.3923
522.000000 93.696 -145.8632
530.000000 93.655 -145.2986
538.000000 93.604 -144.7292
545.000000 93.566 -144.2399
552.000000 93.527 -143.7753
560.000000 93.482 -143.1243
570.000000 93.457 -142.1019
580.000000 93.439 -141.2100
590.000000 93.388 -140.4626
600.000000 93.324 -139.5903
608.000000 93.280 -138.9018
615.000000 93.245 -138.3156
622.000000 93.214 -137.7960
630.000000 93.189 -137.1753
640.000000 93.148 -136.3354
650.000000 93.100 -135.4270
660.000000 93.057 -134.4922
670.000000 93.023 -133.4746
680.000000 92.989 -132.5233
690.000000 92.947 -131.6922
700.000000 92.914 -130.8683
710.000000 92.883 -129.7641
720.000000 92.850 -128.6757
730.000000 92.814 -127.6495
740.000000 92.783 -126.6199
750.000000 92.755 -125.6669
762.000000 92.739 -124.5929
775.000000 92.723 -123.2999
788.000000 92.703 -122.1108
800.000000 92.678 -120.8807
812.000000 92.649 -119.6877
825.000000 92.622 -118.6031
838.000000 92.628 -117.4660
850.000000 92.632 -115.8624
862.000000 92.631 -114.2382
875.000000 92.615 -112.6730
885.000000 92.608 -111.7262
900.000000 92.605 -110.4269
912.000000 92.611 -109.2291
925.000000 92.651 -108.0175
938.000000 92.706 -106.7785
950.000000 92.749 -105.5003
962.000000 92.781 -104.2213
975.000000 92.813 -102.9342
988.000000 92.859 -101.7474
1000.000000 92.898 -100.7669
1015.000000 92.938 -99.4960
1030.000000 92.981 -98.1827
1044.000000 93.025 -96.9501
1060.000000 93.081 -95.6990
1075.000000 93.147 -94.6036
1090.000000 93.213 -93.5115
1106.000000 93.279 -92.3422
1120.000000 93.335 -91.4070
1138.000000 93.404 -90.2575
1150.000000 93.449 -89.4805
1172.000000 93.529 -88.0805
1180.000000 93.556 -87.5885
1206.000000 93.629 -86.1056
1220.000000 93.668 -85.3545
1241.000000 93.729 -84.2646
1250.000000 93.754 -83.7821
1265.000000 93.796 -82.9620
1280.000000 93.840 -82.1419
1315.000000 93.933 -80.2764
1320.000000 93.945 -80.0196
1340.000000 93.993 -78.9992
1360.000000 94.041 -77.9675
1380.000000 94.094 -76.9367
1400.000000 94.148 -75.9360
1430.000000 94.191 -74.3584
1450.000000 94.216 -73.1750
1475.000000 94.259 -71.7904
1500.000000 94.303 -70.4045
1525.000000 94.347 -68.9984
1550.000000 94.393 -67.5638
1575.000000 94.444 -66.1057
1600.000000 94.494 -64.6376
1625.000000 94.551 -63.1735
1650.000000 94.617 -61.6894
1675.000000 94.686 -60.2100
1700.000000 94.758 -58.7425
1725.000000 94.835 -57.2747
1750.000000 94.918 -55.8132
1775.000000 95.006 -54.3763
1800.000000 95.096 -52.9548
1825.000000 95.191 -51.5306
1850.000000 95.291 -50.1270
1875.000000 95.396 -48.7465
1900.000000 95.506 -47.3766
1925.000000 95.622 -46.0097
1950.000000 95.745 -44.6478
1975.000000 95.881 -43.2992
2000.000000 96.032 -41.9949
2030.000000 96.230 -40.5625
2060.000000 96.435 -39.3239
2090.000000 96.636 -38.2565
2120.000000 96.825 -37.3413
2140.000000 96.945 -36.7976
2180.000000 97.178 -35.8229
2200.000000 97.291 -35.3728
2240.000000 97.512 -34.5391
2270.000000 97.674 -33.9896
2300.000000 97.829 -33.5066
2330.000000 97.977 -33.0861
2360.000000 98.118 -32.7218
2400.000000 98.298 -32.3301
2430.000000 98.423 -32.1015
2470.000000 98.576 -31.8831
2500.000000 98.680 -31.7586
2540.000000 98.807 -31.6353
2580.000000 98.916 -31.5433
2620.000000 99.009 -31.4580
2650.000000 99.070 -31.3912
2690.000000 99.143 -31.3097
2720.000000 99.192 -31.2780
2760.000000 99.246 -31.3100
2800.000000 99.278 -31.3955
2850.000000 99.280 -31.4874
2900.000000 99.244 -31.4826
2950.000000 99.181 -31.3443
3000.000000 99.099 -31.0632
3040.000000 99.022 -30.7276
3070.000000 98.959 -30.4091
3110.000000 98.868 -29.8880
3150.000000 98.772 -29.2540
3200.000000 98.651 -28.3183
3250.000000 98.532 -27.2407
3300.000000 98.418 -26.0146
3350.000000 98.315 -24.6382
3400.000000 98.232 -23.1557
3450.000000 98.176 -21.6457
3500.000000 98.151 -20.1782
3550.000000 98.144 -18.8199
3600.000000 98.140 -17.5673
3650.000000 98.135 -16.3516
3700.000000 98.129 -15.1211
3750.000000 98.128 -13.8596
3820.000000 98.137 -12.0425
3870.000000 98.155 -10.7274
3950.000000 98.207 -8.6166
4000.000000 98.256 -7.3052
4060.000000 98.330 -5.7625
4120.000000 98.427 -4.2721
4180.000000 98.552 -2.8770
4250.000000 98.733 -1.4257
4310.000000 98.917 -0.3922
4370.000000 99.128 0.3729
4440.000000 99.398 0.8209
4500.000000 99.633 0.7317
4550.000000 99.817 0.2876
4620.000000 100.025 -0.8873
4680.000000 100.133 -2.3171
4750.000000 100.152 -4.2871
4820.000000 100.045 -6.3324
4870.000000 99.889 -7.6786
4940.000000 99.558 -9.1547
5000.000000 99.180 -9.7193
5080.000000 98.659 -8.6858
5150.000000 98.439 -6.6455
5220.000000 98.397 -5.8684
5300.000000 98.222 -6.0590
5380.000000 97.917 -5.8848
5450.000000 97.619 -5.2301
5520.000000 97.326 -4.1391
5600.000000 97.034 -2.4066
5700.000000 96.804 0.0135
5800.000000 96.631 1.6560
5900.000000 96.378 3.2468
6000.000000 96.112 5.2844
6080.000000 95.914 7.1837
6150.000000 95.758 9.0288
6220.000000 95.623 11.0381
6300.000000 95.506 13.5352
6400.000000 95.433 16.9593
6500.000000 95.455 20.6336
6600.000000 95.578 24.4281
6700.000000 95.813 28.2094
6800.000000 96.173 31.8644
6900.000000 96.663 35.2537
7000.000000 97.286 38.2426
7100.000000 98.053 40.7086
7200.000000 98.987 42.3641
7300.000000 100.102 42.7660
7400.000000 101.374 41.4088
7500.000000 102.745 37.5840
7620.000000 104.331 28.9287
7750.000000 105.560 14.5627
7880.000000 105.820 -3.1076
8000.000000 105.067 -19.0362
8120.000000 103.572 -31.8140
8250.000000 101.534 -41.1103
8380.000000 99.416 -46.3678
8500.000000 97.554 -48.5519
8620.000000 95.826 -48.9324
8750.000000 94.109 -47.8979
8850.000000 92.892 -46.3226
9000.000000 91.212 -43.0051
9120.000000 89.987 -39.6889
9250.000000 88.780 -35.5157
9380.000000 87.699 -30.8457
9500.000000 86.826 -26.2135
9620.000000 86.074 -21.4491
9750.000000 85.389 -16.3428
9880.000000 84.823 -11.4823
10000.000000 84.387 -7.3203
10150.000000 83.931 -2.5814
10300.000000 83.544 1.6120
10440.000000 83.206 5.0846
10600.000000 82.816 8.6201
10750.000000 82.433 11.6747
10900.000000 82.023 14.6431
11060.000000 81.562 17.8706
11200.000000 81.153 20.8621
11380.000000 80.647 25.0286
11500.000000 80.336 28.0040
11720.000000 79.838 33.9216
11800.000000 79.683 36.2196
12060.000000 79.298 44.0192
12200.000000 79.155 48.0868
12410.000000 78.994 53.5041
12500.000000 78.945 55.7493
12650.000000 78.920 59.6375
12800.000000 78.983 63.5126
13150.000000 79.427 72.3297
13200.000000 79.528 73.5118
13400.000000 80.019 77.8245
13600.000000 80.646 81.4636
13800.000000 81.402 84.5435
14000.000000 82.371 87.2098
14300.000000 84.467 89.0572
14500.000000 86.257 86.4738
14750.000000 88.532 77.3444
15000.000000 90.415 61.3058
15250.000000 91.322 39.7717
15500.000000 90.864 17.0693
15750.000000 89.385 -0.9721
16000.000000 87.793 -15.5984
16250.000000 85.713 -28.1040
16500.000000 83.539 -36.9403
16750.000000 81.635 -43.5461
17000.000000 80.009 -48.8062
17250.000000 78.549 -52.9505
17500.000000 77.317 -56.8302
17750.000000 76.417 -60.5751
18000.000000 75.873 -64.6696
18250.000000 75.600 -70.1493
18500.000000 75.588 -78.8093
18750.000000 75.868 -90.4047
19000.000000 76.083 -105.8366
19250.000000 75.748 -123.1686
19500.000000 75.515 -137.8674
19750.000000 76.204 -156.8159
20000.000000 76.598 -177.7676
