* Measurement data measured by REW V5.30.9
* Source: Headset (JA3 HIFI AUDIO(CX31993)), MICROPHONE (Master Volume), L, volume: 0.250
* Format: 512k Log Swept Sine, 1 sweep at -13.0 dBFS with no timing reference
* Dated: Feb 24, 2024 1:36:42 PM
* REW Settings:
*  C-weighting compensation: Off
*  Target level: 75.0 dB
* Note: ; 
* Measurement: FATfreq Scarlet Mini L
* Smoothing: 1/12 octave
* Frequency Step: 1/48 octave
* Start Frequency: 1.000 Hz
*
* Freq(Hz) SPL(dB) Phase(degrees)
1.000000 83.893 -146.0470
1.015000 84.115 -147.3685
1.030000 84.335 -148.6697
1.044000 84.537 -149.8687
1.060000 84.765 -151.2238
1.075000 84.974 -152.4825
1.090000 85.180 -153.7324
1.106000 85.397 -155.0571
1.120000 85.584 -156.2090
1.138000 85.823 -157.6779
1.150000 85.981 -158.6486
1.172000 86.269 -160.4069
1.180000 86.374 -161.0389
1.206000 86.710 -163.0635
1.220000 86.889 -164.1340
1.241000 87.156 -165.7130
1.250000 87.269 -166.3797
1.265000 87.457 -167.4774
1.280000 87.644 -168.5583
1.315000 88.074 -171.0159
1.320000 88.134 -171.3598
1.340000 88.375 -172.7179
1.360000 88.613 -174.0489
1.380000 88.848 -175.3542
1.400000 89.080 -176.6351
1.430000 89.422 -178.5148
1.450000 89.646 -179.7426
1.475000 89.921 178.7480
1.500000 90.191 177.2647
1.525000 90.455 175.8069
1.550000 90.715 174.3743
1.575000 90.970 172.9666
1.600000 91.221 171.5827
1.625000 91.467 170.2213
1.650000 91.709 168.8803
1.675000 91.946 167.5579
1.700000 92.180 166.2516
1.725000 92.410 164.9590
1.750000 92.636 163.6772
1.775000 92.858 162.4034
1.800000 93.077 161.1346
1.825000 93.292 159.8674
1.850000 93.504 158.5993
1.875000 93.711 157.3297
1.900000 93.914 156.0601
1.925000 94.114 154.7936
1.950000 94.309 153.5332
1.975000 94.500 152.2817
2.000000 94.688 151.0412
2.030000 94.909 149.5695
2.060000 95.125 148.1180
2.090000 95.336 146.6875
2.120000 95.543 145.2781
2.140000 95.678 144.3493
2.180000 95.944 142.5133
2.200000 96.074 141.6025
2.240000 96.327 139.7861
2.270000 96.512 138.4249
2.300000 96.692 137.0662
2.330000 96.867 135.7134
2.360000 97.038 134.3702
2.400000 97.259 132.6001
2.430000 97.421 131.2915
2.470000 97.630 129.5754
2.500000 97.783 128.3105
2.540000 97.981 126.6507
2.580000 98.173 125.0121
2.620000 98.358 123.3822
2.650000 98.493 122.1620
2.690000 98.666 120.5402
2.720000 98.792 119.3309
2.760000 98.954 117.7340
2.800000 99.111 116.1608
2.850000 99.299 114.2349
2.900000 99.479 112.3565
2.950000 99.651 110.5159
3.000000 99.815 108.6953
3.040000 99.940 107.2477
3.070000 100.030 106.1684
3.110000 100.146 104.7419
3.150000 100.258 103.3349
3.200000 100.391 101.6115
3.250000 100.518 99.9332
3.300000 100.640 98.2983
3.350000 100.755 96.6962
3.400000 100.863 95.1173
3.450000 100.966 93.5601
3.500000 101.063 92.0287
3.550000 101.155 90.5293
3.600000 101.243 89.0671
3.650000 101.327 87.6437
3.700000 101.407 86.2555
3.750000 101.483 84.8960
3.820000 101.582 83.0349
3.870000 101.649 81.7363
3.950000 101.750 79.7183
4.000000 101.810 78.4972
4.060000 101.880 77.0724
4.120000 101.946 75.6873
4.180000 102.009 74.3371
4.250000 102.079 72.8026
4.310000 102.136 71.5214
4.370000 102.193 70.2713
4.440000 102.256 68.8510
4.500000 102.310 67.6642
4.550000 102.353 66.6947
4.620000 102.412 65.3645
4.680000 102.461 64.2472
4.750000 102.517 62.9680
4.820000 102.572 61.7132
4.870000 102.611 60.8312
4.940000 102.663 59.6149
5.000000 102.707 58.5883
5.080000 102.764 57.2399
5.150000 102.811 56.0772
5.220000 102.857 54.9292
5.300000 102.907 53.6346
5.380000 102.955 52.3591
5.450000 102.994 51.2590
5.520000 103.031 50.1732
5.600000 103.070 48.9484
5.700000 103.116 47.4423
5.800000 103.156 45.9669
5.900000 103.193 44.5243
6.000000 103.225 43.1130
6.080000 103.248 42.0064
6.150000 103.266 41.0553
6.220000 103.282 40.1207
6.300000 103.299 39.0726
6.400000 103.318 37.7910
6.500000 103.334 36.5392
6.600000 103.349 35.3162
6.700000 103.362 34.1203
6.800000 103.373 32.9494
6.900000 103.383 31.8007
7.000000 103.391 30.6718
7.100000 103.398 29.5611
7.200000 103.403 28.4677
7.300000 103.406 27.3901
7.400000 103.407 26.3275
7.500000 103.406 25.2798
7.620000 103.401 24.0438
7.750000 103.392 22.7332
7.880000 103.378 21.4542
8.000000 103.361 20.3052
8.120000 103.340 19.1902
8.250000 103.315 18.0226
8.380000 103.288 16.8983
8.500000 103.261 15.9001
8.620000 103.233 14.9390
8.750000 103.203 13.9360
8.850000 103.181 13.1892
9.000000 103.150 12.1039
9.120000 103.126 11.2593
9.250000 103.102 10.3615
9.380000 103.080 9.4765
9.500000 103.061 8.6663
9.620000 103.041 7.8593
9.750000 103.017 6.9874
9.880000 102.989 6.1180
10.000000 102.956 5.3190
10.150000 102.906 4.3282
10.300000 102.848 3.3530
10.440000 102.787 2.4623
10.600000 102.713 1.4746
10.750000 102.640 0.5834
10.900000 102.566 -0.2717
11.060000 102.486 -1.1437
11.200000 102.418 -1.8748
11.380000 102.332 -2.7781
11.500000 102.277 -3.3621
11.720000 102.180 -4.4081
11.800000 102.146 -4.7838
12.060000 102.039 -5.9985
12.200000 101.982 -6.6520
12.410000 101.901 -7.6313
12.500000 101.868 -8.0494
12.650000 101.814 -8.7415
12.800000 101.761 -9.4240
13.150000 101.637 -10.9589
13.200000 101.618 -11.1700
13.400000 101.545 -11.9926
13.600000 101.471 -12.7808
13.800000 101.398 -13.5383
14.000000 101.325 -14.2709
14.300000 101.218 -15.3350
14.500000 101.148 -16.0267
14.750000 101.059 -16.8737
15.000000 100.969 -17.6998
15.250000 100.879 -18.5031
15.500000 100.789 -19.2835
15.750000 100.700 -20.0441
16.000000 100.613 -20.7896
16.250000 100.527 -21.5243
16.500000 100.441 -22.2484
16.750000 100.354 -22.9567
17.000000 100.264 -23.6400
17.250000 100.172 -24.2876
17.500000 100.080 -24.8916
17.750000 99.991 -25.4506
18.000000 99.906 -25.9716
18.250000 99.828 -26.4686
18.500000 99.757 -26.9600
18.750000 99.692 -27.4628
19.000000 99.629 -27.9873
19.250000 99.567 -28.5344
19.500000 99.503 -29.0938
19.750000 99.434 -29.6471
20.000000 99.361 -30.1740
20.299999 99.272 -30.7491
20.600000 99.187 -31.2585
20.900000 99.112 -31.7274
21.200001 99.047 -32.2026
21.400000 99.008 -32.5463
21.799999 98.927 -33.3234
22.000000 98.879 -33.7438
22.400000 98.758 -34.5596
22.700001 98.649 -35.0635
23.000000 98.536 -35.4304
23.299999 98.434 -35.6877
23.600000 98.351 -35.9240
24.000000 98.255 -36.3820
24.299999 98.170 -36.8788
24.700001 97.998 -37.5802
25.000000 97.817 -37.8909
25.400000 97.545 -37.6439
25.799999 97.336 -36.5506
26.200001 97.292 -35.1194
26.500000 97.374 -34.3671
26.900000 97.558 -34.3238
27.200001 97.677 -35.0455
27.600000 97.733 -36.6579
28.000000 97.648 -38.4351
28.500000 97.404 -40.1428
29.000000 97.130 -41.0554
29.500000 96.904 -41.5381
30.000000 96.711 -41.9380
30.400000 96.560 -42.1823
30.700001 96.455 -42.2712
31.100000 96.343 -42.2910
31.500000 96.277 -42.3453
32.000000 96.236 -42.7419
32.500000 96.186 -43.5822
33.000000 96.082 -44.6360
33.500000 95.927 -45.5983
34.000000 95.755 -46.3448
34.500000 95.591 -46.9564
35.000000 95.434 -47.5492
35.500000 95.266 -48.1069
36.000000 95.087 -48.4825
36.500000 94.921 -48.5632
37.000000 94.806 -48.4386
37.500000 94.754 -48.3740
38.200001 94.725 -48.7182
38.700001 94.682 -49.1356
39.500000 94.580 -49.5093
40.000000 94.536 -49.5090
40.599998 94.519 -49.5261
41.200001 94.500 -49.7318
41.799999 94.436 -50.0176
42.500000 94.293 -50.0590
43.099998 94.155 -49.6047
43.700001 94.061 -48.8420
44.400002 94.028 -48.1537
45.000000 94.012 -48.0667
45.500000 93.970 -48.2837
46.200001 93.864 -48.7876
46.799999 93.740 -49.3484
47.500000 93.546 -50.1072
48.200001 93.288 -50.6589
48.700001 93.091 -50.7280
49.400002 92.859 -50.4039
50.000000 92.725 -49.9789
50.799999 92.623 -49.5394
51.500000 92.574 -49.3964
52.200001 92.526 -49.5121
53.000000 92.424 -49.7581
53.799999 92.280 -49.6483
54.500000 92.195 -49.2050
55.200001 92.184 -49.0394
56.000000 92.151 -49.7542
57.000000 91.875 -50.8828
58.000000 91.499 -50.2924
59.000000 91.367 -48.8976
60.000000 91.406 -48.5632
60.799999 91.427 -48.9854
61.500000 91.407 -49.5238
62.200001 91.355 -50.0283
63.000000 91.267 -50.4338
64.000000 91.143 -50.6619
65.000000 91.015 -50.7023
66.000000 90.882 -50.6638
67.000000 90.741 -50.5952
68.000000 90.594 -50.5026
69.000000 90.454 -50.3898
70.000000 90.327 -50.3062
71.000000 90.208 -50.2440
72.000000 90.099 -50.1288
73.000000 90.003 -49.9717
74.000000 89.912 -49.8176
75.000000 89.817 -49.6570
76.199997 89.696 -49.4821
77.500000 89.553 -49.4028
78.800003 89.398 -49.3894
80.000000 89.258 -49.3263
81.199997 89.144 -49.1664
82.500000 89.049 -49.0552
83.800003 88.938 -49.0316
85.000000 88.805 -49.0107
86.199997 88.641 -49.0428
87.500000 88.435 -49.1799
88.500000 88.253 -49.3353
90.000000 87.986 -49.0361
91.199997 87.887 -48.3804
92.500000 87.893 -47.8809
93.800003 87.915 -47.6323
95.000000 87.913 -47.4193
96.199997 87.871 -47.2578
97.500000 87.777 -47.0741
98.800003 87.658 -46.9124
100.000000 87.544 -46.7657
101.500000 87.432 -46.5756
103.000000 87.333 -46.5064
104.400002 87.227 -46.1837
106.000000 87.134 -45.6359
107.500000 87.030 -45.2897
109.000000 86.911 -44.7651
110.599998 86.839 -44.3226
112.000000 86.759 -44.4926
113.800003 86.535 -44.4474
115.000000 86.389 -43.8015
117.199997 86.278 -42.6923
118.000000 86.257 -42.6991
120.599998 86.050 -43.6246
122.000000 85.855 -43.8679
124.099998 85.579 -43.2358
125.000000 85.494 -42.7374
126.500000 85.387 -41.8695
128.000000 85.305 -41.0986
131.500000 85.180 -40.1039
132.000000 85.171 -40.0560
134.000000 85.146 -39.9464
136.000000 85.115 -39.6584
138.000000 85.049 -39.0287
140.000000 84.943 -38.2325
143.000000 84.754 -37.3682
145.000000 84.638 -37.0767
147.500000 84.509 -36.7263
150.000000 84.380 -36.1949
152.500000 84.251 -35.4435
155.000000 84.146 -34.5704
157.500000 84.054 -33.7339
160.000000 83.951 -33.0474
162.500000 83.836 -32.6027
165.000000 83.722 -32.2225
167.500000 83.614 -31.6979
170.000000 83.498 -31.0264
172.500000 83.367 -30.3080
175.000000 83.242 -29.4952
177.500000 83.166 -28.6552
180.000000 83.135 -28.0600
182.500000 83.106 -27.7906
185.000000 83.019 -27.6668
187.500000 82.849 -27.1337
190.000000 82.644 -25.9700
192.500000 82.465 -24.5283
195.000000 82.330 -23.3299
197.500000 82.226 -22.6694
200.000000 82.128 -22.4603
203.000000 82.010 -22.2994
206.000000 81.896 -21.8549
209.000000 81.803 -21.1948
212.000000 81.735 -20.3536
214.000000 81.715 -19.6021
218.000000 81.726 -17.9231
220.000000 81.736 -17.1234
224.000000 81.728 -15.8511
227.000000 81.698 -15.3731
230.000000 81.660 -15.0817
233.000000 81.638 -14.5320
236.000000 81.624 -13.6288
240.000000 81.561 -12.2256
243.000000 81.497 -11.3174
247.000000 81.430 -10.7623
250.000000 81.373 -10.7090
254.000000 81.296 -10.4978
258.000000 81.218 -9.7008
262.000000 81.128 -8.4715
265.000000 81.083 -7.6516
269.000000 81.055 -6.8849
272.000000 81.022 -6.4453
276.000000 80.942 -5.7944
280.000000 80.863 -4.8970
285.000000 80.801 -3.5883
290.000000 80.743 -2.2478
295.000000 80.685 -1.0720
300.000000 80.640 -0.2969
304.000000 80.596 0.2751
307.000000 80.555 0.7396
311.000000 80.499 1.3801
315.000000 80.455 2.0054
320.000000 80.419 2.8884
325.000000 80.379 4.0457
330.000000 80.331 5.2181
335.000000 80.291 6.2384
340.000000 80.259 7.1072
345.000000 80.234 7.9352
350.000000 80.212 8.8092
355.000000 80.190 9.7192
360.000000 80.166 10.6378
365.000000 80.139 11.5447
370.000000 80.105 12.4252
375.000000 80.069 13.2494
382.000000 80.025 14.3780
387.000000 79.990 15.2487
395.000000 79.935 16.6952
400.000000 79.910 17.4758
406.000000 79.894 18.2477
412.000000 79.884 19.0378
418.000000 79.871 19.9279
425.000000 79.845 20.9442
431.000000 79.822 21.7732
437.000000 79.797 22.6042
444.000000 79.770 23.5920
450.000000 79.749 24.4346
455.000000 79.732 25.1234
462.000000 79.708 26.0775
468.000000 79.689 26.9014
475.000000 79.671 27.8713
482.000000 79.652 28.8257
487.000000 79.637 29.4879
494.000000 79.615 30.3898
500.000000 79.600 31.1554
508.000000 79.580 32.1535
515.000000 79.559 32.9913
522.000000 79.537 33.8467
530.000000 79.510 34.8901
538.000000 79.481 35.9627
545.000000 79.456 36.9101
552.000000 79.433 37.8548
560.000000 79.409 38.9119
570.000000 79.379 40.2107
580.000000 79.355 41.5409
590.000000 79.341 42.8411
600.000000 79.329 44.0529
608.000000 79.319 44.9942
615.000000 79.305 45.8491
622.000000 79.283 46.7562
630.000000 79.252 47.8294
640.000000 79.218 49.1464
650.000000 79.200 50.4124
660.000000 79.187 51.6335
670.000000 79.175 52.8258
680.000000 79.167 54.0345
690.000000 79.165 55.2685
700.000000 79.168 56.5181
710.000000 79.169 57.7702
720.000000 79.161 58.9977
730.000000 79.151 60.2297
740.000000 79.148 61.5110
750.000000 79.151 62.8073
762.000000 79.144 64.3242
775.000000 79.136 65.8237
788.000000 79.157 67.3213
800.000000 79.178 68.8874
812.000000 79.187 70.4789
825.000000 79.197 72.0521
838.000000 79.214 73.5424
850.000000 79.233 74.9273
862.000000 79.256 76.3156
875.000000 79.286 77.8218
885.000000 79.312 79.0002
900.000000 79.357 80.7948
912.000000 79.396 82.2097
925.000000 79.439 83.7026
938.000000 79.487 85.1673
950.000000 79.537 86.4859
962.000000 79.593 87.7686
975.000000 79.657 89.1186
988.000000 79.724 90.4202
1000.000000 79.786 91.5938
1015.000000 79.864 93.0359
1030.000000 79.948 94.4284
1044.000000 80.030 95.6325
1060.000000 80.114 96.9335
1075.000000 80.188 98.1797
1090.000000 80.264 99.4238
1106.000000 80.348 100.6824
1120.000000 80.420 101.7306
1138.000000 80.508 103.0089
1150.000000 80.564 103.8171
1172.000000 80.664 105.2370
1180.000000 80.701 105.7386
1206.000000 80.818 107.3383
1220.000000 80.875 108.1785
1241.000000 80.952 109.4057
1250.000000 80.985 109.9255
1265.000000 81.040 110.7873
1280.000000 81.097 111.6374
1315.000000 81.224 113.5833
1320.000000 81.240 113.8615
1340.000000 81.303 114.9752
1360.000000 81.363 116.0832
1380.000000 81.420 117.1943
1400.000000 81.474 118.3221
1430.000000 81.553 120.0244
1450.000000 81.605 121.1589
1475.000000 81.672 122.5647
1500.000000 81.735 123.9473
1525.000000 81.795 125.3619
1550.000000 81.861 126.8605
1575.000000 81.930 128.4122
1600.000000 82.001 129.9392
1625.000000 82.077 131.4428
1650.000000 82.156 132.9419
1675.000000 82.238 134.4386
1700.000000 82.324 135.9349
1725.000000 82.415 137.4252
1750.000000 82.508 138.9061
1775.000000 82.606 140.3751
1800.000000 82.708 141.8301
1825.000000 82.814 143.2714
1850.000000 82.925 144.7006
1875.000000 83.041 146.1180
1900.000000 83.161 147.5162
1925.000000 83.286 148.8885
1950.000000 83.415 150.2316
1975.000000 83.549 151.5461
2000.000000 83.688 152.8316
2030.000000 83.862 154.3304
2060.000000 84.043 155.7817
2090.000000 84.230 157.1875
2120.000000 84.421 158.5412
2140.000000 84.552 159.4102
2180.000000 84.821 161.0630
2200.000000 84.958 161.8455
2240.000000 85.239 163.3242
2270.000000 85.455 164.3515
2300.000000 85.676 165.2957
2330.000000 85.898 166.1494
2360.000000 86.122 166.9075
2400.000000 86.419 167.7698
2430.000000 86.641 168.3080
2470.000000 86.934 168.8808
2500.000000 87.148 169.1980
2540.000000 87.425 169.4704
2580.000000 87.689 169.5829
2620.000000 87.934 169.5569
2650.000000 88.104 169.4589
2690.000000 88.310 169.2424
2720.000000 88.447 169.0316
2760.000000 88.606 168.7107
2800.000000 88.736 168.3760
2850.000000 88.862 168.0016
2900.000000 88.951 167.7585
2950.000000 89.010 167.7068
3000.000000 89.050 167.9013
3040.000000 89.078 168.2635
3070.000000 89.102 168.6642
3110.000000 89.145 169.3739
3150.000000 89.208 170.2775
3200.000000 89.332 171.6472
3250.000000 89.525 173.2028
3300.000000 89.805 174.8074
3350.000000 90.187 176.2719
3400.000000 90.677 177.3583
3450.000000 91.265 177.7834
3500.000000 91.924 177.2427
3550.000000 92.600 175.4946
3600.000000 93.222 172.4484
3650.000000 93.712 168.2301
3700.000000 94.007 163.1975
3750.000000 94.074 157.8754
3820.000000 93.803 150.9812
3870.000000 93.412 147.0155
3950.000000 92.617 142.8447
4000.000000 92.105 141.5587
4060.000000 91.547 141.1026
4120.000000 91.091 141.5013
4180.000000 90.761 142.3965
4250.000000 90.539 143.6269
4310.000000 90.476 144.5218
4370.000000 90.510 145.0250
4440.000000 90.637 144.8729
4500.000000 90.781 143.9565
4550.000000 90.894 142.5817
4620.000000 90.984 139.7545
4680.000000 90.944 136.6663
4750.000000 90.708 132.7175
4820.000000 90.246 129.0321
4870.000000 89.793 126.9351
4940.000000 89.040 125.1186
5000.000000 88.349 124.7182
5080.000000 87.463 125.6562
5150.000000 86.783 127.4488
5220.000000 86.214 129.7252
5300.000000 85.688 132.5543
5380.000000 85.265 135.4146
5450.000000 84.957 137.8854
5520.000000 84.691 140.3283
5600.000000 84.431 143.1103
5700.000000 84.162 146.6140
5800.000000 83.947 150.1821
5900.000000 83.788 153.8144
6000.000000 83.686 157.4807
6080.000000 83.647 160.4237
6150.000000 83.643 163.0027
6220.000000 83.668 165.5828
6300.000000 83.737 168.5195
6400.000000 83.884 172.1351
6500.000000 84.099 175.6600
6600.000000 84.378 179.0663
6700.000000 84.721 -177.6919
6800.000000 85.128 -174.7020
6900.000000 85.597 -172.0726
7000.000000 86.123 -169.9032
7100.000000 86.695 -168.2879
7200.000000 87.295 -167.3066
7300.000000 87.907 -167.0560
7400.000000 88.505 -167.6297
7500.000000 89.055 -169.0288
7620.000000 89.603 -171.6598
7750.000000 90.003 -175.3574
7880.000000 90.168 -179.4406
8000.000000 90.105 176.9401
8120.000000 89.862 173.8701
8250.000000 89.454 171.4636
8380.000000 88.970 170.1322
8500.000000 88.516 169.8031
8620.000000 88.098 170.1803
8750.000000 87.718 171.1331
8850.000000 87.488 172.0522
9000.000000 87.242 173.3543
9120.000000 87.109 174.0461
9250.000000 86.984 174.2410
9380.000000 86.822 173.8661
9500.000000 86.591 173.1904
9620.000000 86.252 172.5133
9750.000000 85.763 172.2212
9880.000000 85.190 172.8057
10000.000000 84.651 174.3195
10150.000000 84.065 177.3869
10300.000000 83.655 -178.8011
10440.000000 83.448 -175.2189
10600.000000 83.376 -171.7200
10750.000000 83.398 -169.3070
10900.000000 83.443 -167.7588
11060.000000 83.456 -166.9092
11200.000000 83.409 -166.6229
11380.000000 83.255 -166.4975
11500.000000 83.110 -166.3924
11720.000000 82.806 -166.1105
11800.000000 82.688 -166.0248
12060.000000 82.270 -165.8488
12200.000000 82.024 -165.8112
12410.000000 81.630 -165.8601
12500.000000 81.453 -165.9248
12650.000000 81.146 -166.0980
12800.000000 80.817 -166.3523
13150.000000 79.918 -167.1384
13200.000000 79.770 -167.2459
13400.000000 79.118 -167.5510
13600.000000 78.375 -167.4823
13800.000000 77.556 -166.8200
14000.000000 76.692 -165.4066
14300.000000 75.389 -161.7608
14500.000000 74.560 -158.3431
14750.000000 73.620 -153.0389
15000.000000 72.838 -146.7953
15250.000000 72.254 -139.9393
15500.000000 71.892 -132.4872
15750.000000 71.858 -124.1012
16000.000000 72.351 -115.9499
16250.000000 73.280 -111.3080
16500.000000 74.261 -111.2764
16750.000000 75.048 -114.5961
17000.000000 75.564 -120.0307
17250.000000 75.780 -126.7276
17500.000000 75.690 -133.8656
17750.000000 75.344 -140.6410
18000.000000 74.844 -146.5067
18250.000000 74.330 -151.3739
18500.000000 73.937 -155.6114
18750.000000 73.763 -159.8955
19000.000000 73.836 -165.0341
19250.000000 74.097 -171.7697
19500.000000 74.425 179.3960
19750.000000 74.675 168.3082
20000.000000 74.705 155.2009
20300.000000 74.301 137.6054
20600.000000 73.339 119.0780
20900.000000 71.835 100.5491
21200.000000 69.878 82.4242
21400.000000 68.369 70.5681
21800.000000 64.939 47.2913
22000.000000 63.029 35.8499
22400.000000 58.866 13.0208
22700.000000 55.549 -4.7277
23000.000000 52.401 -23.4362
23300.000000 50.465 -42.5586
23600.000000 50.756 -60.1079
24000.000000 52.030 -75.6307
