* Measurement data measured by REW V5.30.9
* Source: Headset (JA3 HIFI AUDIO(CX31993)), MICROPHONE (Master Volume), L, volume: 0.250
* Format: 512k Log Swept Sine, 1 sweep at -13.0 dBFS with no timing reference
* Dated: Feb 24, 2024 12:55:22 PM
* REW Settings:
*  C-weighting compensation: Off
*  Target level: 75.0 dB
* Note: ; 
* Measurement: FitEar CIEM L
* Smoothing: None
* Frequency Step: 1/48 octave
* Start Frequency: 1.000 Hz
*
* Freq(Hz) SPL(dB) Phase(degrees)
1.000000 60.228 16.3053
1.015000 60.248 16.4738
1.030000 60.269 16.6503
1.044000 60.289 16.8230
1.060000 60.312 17.0307
1.075000 60.335 17.2366
1.090000 60.359 17.4539
1.106000 60.386 17.6992
1.120000 60.408 17.9237
1.138000 60.436 18.2245
1.150000 60.454 18.4321
1.172000 60.485 18.8267
1.180000 60.497 18.9744
1.206000 60.533 19.4680
1.220000 60.553 19.7418
1.241000 60.584 20.1617
1.250000 60.597 20.3447
1.265000 60.620 20.6533
1.280000 60.644 20.9659
1.315000 60.704 21.7076
1.320000 60.713 21.8147
1.340000 60.752 22.2447
1.360000 60.794 22.6768
1.380000 60.840 23.1094
1.400000 60.891 23.5412
1.430000 60.976 24.1845
1.450000 61.039 24.6084
1.475000 61.126 25.1341
1.500000 61.221 25.6860
1.525000 61.322 26.2655
1.550000 61.428 26.8654
1.575000 61.541 27.4786
1.600000 61.659 28.0980
1.625000 61.782 28.7164
1.650000 61.911 29.3267
1.675000 62.044 29.9218
1.700000 62.182 30.4945
1.725000 62.324 31.0376
1.750000 62.470 31.5441
1.775000 62.619 32.0068
1.800000 62.773 32.4185
1.825000 62.930 32.7721
1.850000 63.091 33.0717
1.875000 63.260 33.3402
1.900000 63.436 33.5781
1.925000 63.618 33.7849
1.950000 63.806 33.9602
1.975000 63.998 34.1035
2.000000 64.193 34.2142
2.030000 64.431 34.3035
2.060000 64.670 34.3443
2.090000 64.910 34.3360
2.120000 65.149 34.2775
2.140000 65.306 34.2103
2.180000 65.616 34.0069
2.200000 65.767 33.8702
2.240000 66.069 33.5096
2.270000 66.297 33.1636
2.300000 66.526 32.7589
2.330000 66.755 32.3010
2.360000 66.984 31.7954
2.400000 67.286 31.0564
2.430000 67.510 30.4608
2.470000 67.805 29.6219
2.500000 68.021 28.9662
2.540000 68.302 28.0671
2.580000 68.574 27.1452
2.620000 68.840 26.1588
2.650000 69.036 25.3750
2.690000 69.292 24.2797
2.720000 69.481 23.4266
2.760000 69.727 22.2556
2.800000 69.967 21.0560
2.850000 70.259 19.5329
2.900000 70.542 18.0032
2.950000 70.815 16.4809
3.000000 71.077 14.9213
3.040000 71.280 13.6455
3.070000 71.428 12.6766
3.110000 71.620 11.3743
3.150000 71.807 10.0663
3.200000 72.033 8.4338
3.250000 72.252 6.8165
3.300000 72.466 5.2277
3.350000 72.671 3.6502
3.400000 72.867 2.0708
3.450000 73.055 0.4970
3.500000 73.237 -1.0638
3.550000 73.412 -2.6042
3.600000 73.584 -4.1167
3.650000 73.751 -5.5938
3.700000 73.915 -7.0351
3.750000 74.072 -8.4525
3.820000 74.283 -10.3944
3.870000 74.429 -11.7483
3.950000 74.656 -13.8522
4.000000 74.797 -15.1250
4.060000 74.965 -16.6061
4.120000 75.128 -18.0354
4.180000 75.288 -19.4174
4.250000 75.471 -20.9766
4.310000 75.627 -22.2735
4.370000 75.784 -23.5393
4.440000 75.968 -24.9758
4.500000 76.126 -26.1599
4.550000 76.257 -27.1183
4.620000 76.441 -28.4264
4.680000 76.598 -29.5255
4.750000 76.781 -30.7936
4.820000 76.965 -32.0455
4.870000 77.097 -32.9210
4.940000 77.282 -34.1258
5.000000 77.440 -35.1441
5.080000 77.648 -36.4898
5.150000 77.826 -37.6632
5.220000 78.003 -38.8308
5.300000 78.203 -40.1532
5.380000 78.399 -41.4589
5.450000 78.566 -42.5848
5.520000 78.727 -43.6938
5.600000 78.905 -44.9512
5.700000 79.119 -46.4968
5.800000 79.324 -47.9909
5.900000 79.519 -49.4141
6.000000 79.702 -50.7822
6.080000 79.842 -51.8319
6.150000 79.961 -52.7103
6.220000 80.078 -53.5450
6.300000 80.208 -54.4428
6.400000 80.364 -55.4890
6.500000 80.518 -56.4587
6.600000 80.674 -57.3604
6.700000 80.832 -58.1780
6.800000 80.990 -58.9205
6.900000 81.152 -59.6221
7.000000 81.321 -60.3093
7.100000 81.495 -60.9534
7.200000 81.673 -61.5760
7.300000 81.855 -62.2138
7.400000 82.039 -62.8840
7.500000 82.227 -63.5653
7.620000 82.453 -64.4151
7.750000 82.691 -65.4003
7.880000 82.925 -66.4529
8.000000 83.133 -67.4626
8.120000 83.327 -68.4961
8.250000 83.526 -69.6592
8.380000 83.710 -70.8253
8.500000 83.866 -71.8754
8.620000 84.008 -72.9183
8.750000 84.151 -74.0078
8.850000 84.253 -74.7978
9.000000 84.394 -75.9209
9.120000 84.500 -76.7617
9.250000 84.614 -77.6046
9.380000 84.723 -78.3800
9.500000 84.823 -79.0585
9.620000 84.929 -79.7060
9.750000 85.045 -80.3666
9.880000 85.158 -81.0229
10.000000 85.256 -81.6348
10.150000 85.375 -82.4004
10.300000 85.489 -83.2019
10.440000 85.593 -83.9849
10.600000 85.705 -84.9142
10.750000 85.804 -85.8242
10.900000 85.896 -86.7640
11.060000 85.984 -87.7708
11.200000 86.051 -88.6623
11.380000 86.126 -89.7815
11.500000 86.169 -90.5060
11.720000 86.234 -91.7728
11.800000 86.255 -92.2045
12.060000 86.315 -93.5118
12.200000 86.346 -94.1486
12.410000 86.394 -95.0249
12.500000 86.422 -95.3814
12.650000 86.479 -95.9420
12.800000 86.543 -96.4859
13.150000 86.711 -97.7448
13.200000 86.736 -97.9308
13.400000 86.842 -98.6916
13.600000 86.948 -99.4922
13.800000 87.053 -100.3408
14.000000 87.153 -101.2214
14.300000 87.292 -102.5878
14.500000 87.374 -103.5015
14.750000 87.466 -104.6190
15.000000 87.550 -105.6957
15.250000 87.627 -106.7190
15.500000 87.700 -107.6937
15.750000 87.770 -108.6218
16.000000 87.839 -109.5078
16.250000 87.909 -110.3461
16.500000 87.979 -111.1330
16.750000 88.049 -111.8614
17.000000 88.123 -112.5412
17.250000 88.203 -113.1901
17.500000 88.290 -113.8333
17.750000 88.382 -114.5127
18.000000 88.474 -115.2394
18.250000 88.561 -116.0251
18.500000 88.635 -116.8424
18.750000 88.697 -117.6544
19.000000 88.743 -118.4265
19.250000 88.781 -119.1104
19.500000 88.815 -119.7056
19.750000 88.852 -120.2143
20.000000 88.897 -120.6778
20.299999 88.961 -121.2361
20.600000 89.031 -121.8446
20.900000 89.097 -122.5233
21.200001 89.150 -123.2441
21.400000 89.177 -123.7116
21.799999 89.216 -124.5634
22.000000 89.234 -124.9356
22.400000 89.279 -125.5995
22.700001 89.325 -126.0984
23.000000 89.377 -126.6687
23.299999 89.426 -127.3281
23.600000 89.465 -128.0458
24.000000 89.496 -129.0020
24.299999 89.512 -129.6508
24.700001 89.540 -130.4184
25.000000 89.577 -130.9976
25.400000 89.641 -131.9234
25.799999 89.691 -133.1117
26.200001 89.688 -134.4260
26.500000 89.644 -135.2840
26.900000 89.548 -135.9756
27.200001 89.487 -136.0562
27.600000 89.478 -135.7064
28.000000 89.583 -135.3040
28.500000 89.823 -135.4682
29.000000 90.045 -136.5312
29.500000 90.165 -137.9502
30.000000 90.198 -139.1041
30.400000 90.205 -139.7065
30.700001 90.213 -140.0187
31.100000 90.231 -140.3320
31.500000 90.258 -140.5712
32.000000 90.305 -140.8251
32.500000 90.367 -141.1761
33.000000 90.413 -141.7304
33.500000 90.412 -142.3106
34.000000 90.384 -142.5900
34.500000 90.397 -142.5928
35.000000 90.473 -142.7728
35.500000 90.550 -143.4549
36.000000 90.563 -144.3445
36.500000 90.528 -144.9126
37.000000 90.535 -145.0932
37.500000 90.619 -145.4099
38.200001 90.732 -146.7280
38.700001 90.715 -147.8265
39.500000 90.616 -148.4549
40.000000 90.629 -148.3336
40.599998 90.728 -148.4189
41.200001 90.829 -148.9900
41.799999 90.879 -149.7510
42.500000 90.879 -150.5060
43.099998 90.856 -150.9026
43.700001 90.844 -151.1018
44.400002 90.857 -151.3354
45.000000 90.868 -151.6749
45.500000 90.866 -151.9780
46.200001 90.859 -152.3330
46.799999 90.861 -152.6417
47.500000 90.861 -153.0131
48.200001 90.875 -153.2687
48.700001 90.913 -153.4861
49.400002 90.976 -154.1127
50.000000 90.987 -154.8091
50.799999 90.955 -155.3202
51.500000 90.976 -155.4026
52.200001 91.045 -155.7241
53.000000 91.082 -156.3936
53.799999 91.072 -156.7733
54.500000 91.091 -156.8843
55.200001 91.132 -157.1249
56.000000 91.161 -157.5808
57.000000 91.161 -158.0991
58.000000 91.156 -158.4607
59.000000 91.170 -158.8433
60.000000 91.175 -159.3371
60.799999 91.177 -159.6449
61.500000 91.192 -159.9324
62.200001 91.202 -160.2811
63.000000 91.204 -160.5833
64.000000 91.231 -160.9169
65.000000 91.245 -161.3127
66.000000 91.269 -161.5892
67.000000 91.284 -162.0776
68.000000 91.261 -162.2906
69.000000 91.295 -162.4281
70.000000 91.313 -162.8956
71.000000 91.303 -163.1928
72.000000 91.313 -163.4416
73.000000 91.325 -163.8074
74.000000 91.305 -164.1686
75.000000 91.295 -164.2031
76.199997 91.337 -164.5128
77.500000 91.332 -164.9316
78.800003 91.345 -165.2698
80.000000 91.358 -165.5927
81.199997 91.358 -165.9702
82.500000 91.370 -166.0008
83.800003 91.413 -166.4518
85.000000 91.388 -166.6427
86.199997 91.381 -166.8701
87.500000 91.380 -166.8446
88.500000 91.385 -167.5396
90.000000 91.270 -167.0504
91.199997 91.428 -167.6443
92.500000 91.348 -168.2029
93.800003 91.415 -168.4097
95.000000 91.406 -168.7113
96.199997 91.430 -168.8801
97.500000 91.427 -169.0279
98.800003 91.437 -169.2387
100.000000 91.431 -169.4062
101.500000 91.435 -169.7065
103.000000 91.437 -169.9501
104.400002 91.435 -170.2172
106.000000 91.434 -170.4032
107.500000 91.432 -170.5923
109.000000 91.432 -170.8970
110.599998 91.431 -171.1237
112.000000 91.439 -171.5114
113.800003 91.430 -171.6705
115.000000 91.453 -171.7622
117.199997 91.470 -172.0568
118.000000 91.473 -172.1598
120.599998 91.497 -172.3918
122.000000 91.447 -172.6778
124.099998 91.444 -172.8628
125.000000 91.430 -172.9245
126.500000 91.433 -173.1010
128.000000 91.449 -173.2252
131.500000 91.448 -173.6709
132.000000 91.447 -173.6655
134.000000 91.466 -173.8587
136.000000 91.459 -174.2108
138.000000 91.462 -174.3702
140.000000 91.455 -174.4856
143.000000 91.470 -174.7094
145.000000 91.460 -174.9044
147.500000 91.467 -175.1581
150.000000 91.473 -175.2671
152.500000 91.475 -175.5717
155.000000 91.469 -175.7010
157.500000 91.472 -175.9670
160.000000 91.462 -176.1535
162.500000 91.452 -176.3153
165.000000 91.446 -176.4999
167.500000 91.432 -176.6397
170.000000 91.411 -176.8393
172.500000 91.397 -177.0101
175.000000 91.382 -177.1369
177.500000 91.357 -177.2985
180.000000 91.356 -177.4404
182.500000 91.341 -177.6172
185.000000 91.330 -177.7305
187.500000 91.322 -177.7997
190.000000 91.295 -177.9792
192.500000 91.289 -178.1461
195.000000 91.265 -178.2757
197.500000 91.243 -178.3981
200.000000 91.249 -178.5497
203.000000 91.242 -178.6850
206.000000 91.234 -178.8162
209.000000 91.233 -178.8957
212.000000 91.222 -179.0260
214.000000 91.226 -179.1483
218.000000 91.224 -179.3066
220.000000 91.215 -179.3849
224.000000 91.210 -179.4891
227.000000 91.205 -179.6462
230.000000 91.196 -179.7552
233.000000 91.186 -179.8435
236.000000 91.184 -179.9926
240.000000 91.172 179.9020
243.000000 91.171 179.8187
247.000000 91.157 179.6995
250.000000 91.147 179.6010
254.000000 91.139 179.4727
258.000000 91.132 179.4688
262.000000 91.114 179.2820
265.000000 91.096 179.2296
269.000000 91.086 179.1140
272.000000 91.072 179.0594
276.000000 91.053 179.0081
280.000000 91.040 178.8903
285.000000 91.020 178.7942
290.000000 91.004 178.6921
295.000000 90.984 178.6385
300.000000 90.965 178.5445
304.000000 90.950 178.5117
307.000000 90.935 178.5127
311.000000 90.922 178.4014
315.000000 90.899 178.3762
320.000000 90.883 178.3046
325.000000 90.879 178.2513
330.000000 90.847 178.1947
335.000000 90.826 178.2193
340.000000 90.804 178.1705
345.000000 90.798 178.1086
350.000000 90.775 178.1150
355.000000 90.757 178.0761
360.000000 90.736 178.0562
365.000000 90.721 178.0128
370.000000 90.708 178.0331
375.000000 90.683 178.0941
382.000000 90.663 178.0474
387.000000 90.637 178.0544
395.000000 90.610 178.0653
400.000000 90.594 178.0846
406.000000 90.572 178.1149
412.000000 90.553 178.1404
418.000000 90.533 178.1757
425.000000 90.505 178.1994
431.000000 90.490 178.3091
437.000000 90.473 178.3303
444.000000 90.449 178.4360
450.000000 90.435 178.4279
455.000000 90.413 178.5396
462.000000 90.393 178.6173
468.000000 90.355 178.6343
475.000000 90.352 178.9025
482.000000 90.327 178.9396
487.000000 90.316 179.0013
494.000000 90.293 179.2036
500.000000 90.270 179.1432
508.000000 90.226 179.5074
515.000000 90.244 179.6567
522.000000 90.170 179.4777
530.000000 90.186 179.6256
538.000000 90.192 179.9756
545.000000 90.166 -179.8371
552.000000 90.146 -179.7149
560.000000 90.133 -179.4440
570.000000 90.112 -179.2700
580.000000 90.100 -178.9506
590.000000 90.088 -178.6571
600.000000 90.075 -178.3563
608.000000 90.053 -178.3654
615.000000 90.068 -177.7538
622.000000 90.025 -177.8286
630.000000 90.016 -177.5980
640.000000 90.006 -177.2440
650.000000 89.995 -176.7454
660.000000 90.002 -176.3972
670.000000 89.994 -176.0996
680.000000 89.986 -175.6809
690.000000 89.993 -175.3616
700.000000 89.998 -174.9492
710.000000 89.998 -174.6302
720.000000 90.000 -174.1651
730.000000 90.009 -173.7524
740.000000 90.029 -173.3283
750.000000 90.043 -172.9228
762.000000 90.048 -172.3525
775.000000 90.062 -171.8996
788.000000 90.101 -171.2378
800.000000 90.142 -170.7425
812.000000 90.165 -170.1344
825.000000 90.190 -169.5623
838.000000 90.240 -168.9605
850.000000 90.276 -168.3921
862.000000 90.322 -167.8096
875.000000 90.374 -167.2952
885.000000 90.415 -166.8163
900.000000 90.499 -166.1883
912.000000 90.564 -165.7164
925.000000 90.624 -165.1690
938.000000 90.702 -164.5966
950.000000 90.786 -164.2250
962.000000 90.880 -163.8049
975.000000 90.961 -163.3734
988.000000 91.060 -162.9994
1000.000000 91.144 -162.6298
1015.000000 91.249 -162.2308
1030.000000 91.351 -161.8943
1044.000000 91.452 -161.6248
1060.000000 91.580 -161.3859
1075.000000 91.720 -160.9619
1090.000000 91.808 -161.0842
1106.000000 91.946 -160.6958
1120.000000 92.047 -160.6082
1138.000000 92.177 -160.4796
1150.000000 92.261 -160.3712
1172.000000 92.441 -160.4074
1180.000000 92.494 -160.4159
1206.000000 92.683 -160.5368
1220.000000 92.781 -160.6066
1241.000000 92.934 -160.6515
1250.000000 92.997 -160.6280
1265.000000 93.101 -160.8474
1280.000000 93.226 -160.9287
1315.000000 93.494 -161.3060
1320.000000 93.516 -161.3274
1340.000000 93.658 -161.5170
1360.000000 93.799 -161.8442
1380.000000 93.943 -162.1102
1400.000000 94.089 -162.3886
1430.000000 94.284 -162.8418
1450.000000 94.415 -163.2509
1475.000000 94.560 -163.6342
1500.000000 94.706 -164.1328
1525.000000 94.839 -164.5196
1550.000000 94.982 -164.9922
1575.000000 95.125 -165.3220
1600.000000 95.280 -165.6143
1625.000000 95.461 -165.9128
1650.000000 95.644 -166.4124
1675.000000 95.819 -167.0264
1700.000000 95.986 -167.6921
1725.000000 96.157 -168.4493
1750.000000 96.319 -169.3633
1775.000000 96.449 -170.2157
1800.000000 96.566 -171.0516
1825.000000 96.671 -171.8601
1850.000000 96.790 -172.6877
1875.000000 96.906 -173.3439
1900.000000 97.016 -174.3287
1925.000000 97.127 -175.1765
1950.000000 97.224 -176.1806
1975.000000 97.327 -177.2017
2000.000000 97.400 -178.2030
2030.000000 97.475 -179.2987
2060.000000 97.542 179.5582
2090.000000 97.604 178.4840
2120.000000 97.658 177.2952
2140.000000 97.687 176.5835
2180.000000 97.718 174.9835
2200.000000 97.720 174.2979
2240.000000 97.722 173.0383
2270.000000 97.708 172.0345
2300.000000 97.689 171.1208
2330.000000 97.654 170.2679
2360.000000 97.610 169.4813
2400.000000 97.521 168.5298
2430.000000 97.471 167.9583
2470.000000 97.373 167.2716
2500.000000 97.301 166.8889
2540.000000 97.211 166.4758
2580.000000 97.095 166.2346
2620.000000 97.007 166.1766
2650.000000 96.954 166.1544
2690.000000 96.867 166.3649
2720.000000 96.800 166.5737
2760.000000 96.730 166.9628
2800.000000 96.676 167.4258
2850.000000 96.608 168.0414
2900.000000 96.554 168.9395
2950.000000 96.545 169.9678
3000.000000 96.553 170.9638
3040.000000 96.592 171.8708
3070.000000 96.614 172.4467
3110.000000 96.669 173.2640
3150.000000 96.733 174.1255
3200.000000 96.808 175.2143
3250.000000 96.917 176.4094
3300.000000 97.068 177.6831
3350.000000 97.301 178.6608
3400.000000 97.450 179.2961
3450.000000 97.649 -179.7138
3500.000000 97.913 -178.8454
3550.000000 98.200 -178.3017
3600.000000 98.516 -178.0201
3650.000000 98.844 -178.1386
3700.000000 99.171 -178.5990
3750.000000 99.479 -179.5537
3820.000000 99.857 178.5879
3870.000000 100.042 176.8128
3950.000000 100.194 173.6988
4000.000000 100.191 171.8701
4060.000000 100.052 170.1351
4120.000000 99.859 168.8456
4180.000000 99.663 168.2072
4250.000000 99.420 168.0306
4310.000000 99.240 168.4060
4370.000000 99.087 169.0795
4440.000000 98.954 170.1993
4500.000000 98.892 171.3301
4550.000000 98.861 172.3097
4620.000000 98.885 173.8052
4680.000000 98.941 175.0409
4750.000000 99.054 176.3557
4820.000000 99.192 177.5104
4870.000000 99.314 178.1834
4940.000000 99.497 178.9559
5000.000000 99.664 179.4294
5080.000000 99.876 -179.9348
5150.000000 100.089 -179.7715
5220.000000 100.289 -179.6454
5300.000000 100.548 -179.8501
5380.000000 100.774 179.6737
5450.000000 100.965 179.0557
5520.000000 101.148 178.2507
5600.000000 101.329 176.9705
5700.000000 101.444 175.0476
5800.000000 101.494 174.3901
5900.000000 101.851 172.3563
6000.000000 101.874 167.9832
6080.000000 101.446 164.9874
6150.000000 100.845 166.1820
6220.000000 101.047 169.6540
6300.000000 101.616 169.0382
6400.000000 102.075 165.0152
6500.000000 102.226 159.7013
6600.000000 102.058 153.7965
6700.000000 101.560 148.0934
6800.000000 100.808 143.6458
6900.000000 99.883 140.9280
7000.000000 98.953 140.1384
7100.000000 98.150 140.5315
7200.000000 97.544 141.8041
7300.000000 97.129 142.6720
7400.000000 96.819 142.3870
7500.000000 96.443 140.7552
7620.000000 95.731 137.7039
7750.000000 94.549 134.8340
7880.000000 93.080 133.8098
8000.000000 91.648 134.7819
8120.000000 90.189 138.1435
8250.000000 88.682 142.6556
8380.000000 87.351 148.6572
8500.000000 86.271 154.4326
8620.000000 85.259 160.8243
8750.000000 84.193 168.5086
8850.000000 83.532 174.2179
9000.000000 82.623 -176.8228
9120.000000 82.044 -169.1360
9250.000000 81.450 -160.9374
9380.000000 81.019 -152.8458
9500.000000 80.610 -145.5287
9620.000000 80.439 -137.6945
9750.000000 80.148 -129.7260
9880.000000 80.045 -122.0219
10000.000000 80.241 -116.4020
10150.000000 80.251 -111.3700
10300.000000 79.642 -107.7368
10440.000000 78.060 -98.4574
10600.000000 77.866 -80.8029
10750.000000 78.622 -66.4214
10900.000000 79.451 -55.7976
11060.000000 80.565 -46.4552
11200.000000 81.672 -39.3706
11380.000000 83.294 -32.7218
11500.000000 84.626 -30.2407
11720.000000 87.200 -33.4868
11800.000000 87.914 -37.6073
12060.000000 88.288 -58.3761
12200.000000 86.973 -65.7472
12410.000000 84.942 -67.2997
12500.000000 84.068 -66.0653
12650.000000 82.955 -61.5644
12800.000000 82.183 -55.4863
13150.000000 81.257 -39.6889
13200.000000 81.247 -36.9985
13400.000000 81.474 -29.4348
13600.000000 82.105 -22.1193
13800.000000 83.277 -19.4938
14000.000000 84.515 -23.4585
14300.000000 84.568 -43.4241
14500.000000 82.509 -52.5526
14750.000000 79.661 -54.3372
15000.000000 77.126 -48.6451
15250.000000 76.077 -38.1244
15500.000000 75.635 -33.9324
15750.000000 75.621 -42.5511
16000.000000 73.218 -59.8736
16250.000000 68.146 -65.3673
16500.000000 62.630 -56.7732
16750.000000 58.558 -33.3419
17000.000000 55.516 -27.2286
17250.000000 49.224 -2.6159
17500.000000 47.849 14.5915
17750.000000 39.599 54.8062
18000.000000 45.307 79.5676
18250.000000 51.925 122.8118
18500.000000 43.579 117.3589
18750.000000 44.824 -172.4175
19000.000000 45.736 -169.9639
19250.000000 43.686 -122.1514
19500.000000 30.382 -34.6357
19750.000000 39.103 -103.7422
20000.000000 41.671 -29.1602
20300.000000 40.728 -44.2051
20600.000000 45.620 -86.7539
20900.000000 38.968 -13.3633
21200.000000 40.071 -20.6094
21400.000000 42.900 7.1289
21800.000000 34.379 45.1562
22000.000000 43.296 155.7070
22400.000000 42.143 86.8828
22700.000000 34.977 -74.5859
23000.000000 39.203 -9.6094
23300.000000 35.138 13.6562
23600.000000 47.483 -72.5000
