* Measurement data measured by REW V5.30.9
* Source: Headset (JA3 HIFI AUDIO(CX31993)), MICROPHONE (Master Volume), L, volume: 0.250
* Format: 512k Log Swept Sine, 1 sweep at -13.0 dBFS with no timing reference
* Dated: Feb 24, 2024 12:04:33 PM
* REW Settings:
*  C-weighting compensation: Off
*  Target level: 75.0 dB
* Note: ; 
* Measurement: FitEar SP-IEM7 L
* Smoothing: 1/12 octave
* Frequency Step: 1/48 octave
* Start Frequency: 1.000 Hz
*
* Freq(Hz) SPL(dB) Phase(degrees)
1.000000 71.501 -174.5707
1.015000 71.754 -175.3877
1.030000 72.004 -176.1997
1.044000 72.235 -176.9548
1.060000 72.496 -177.8163
1.075000 72.738 -178.6237
1.090000 72.977 -179.4310
1.106000 73.229 179.7094
1.120000 73.446 178.9610
1.138000 73.720 178.0073
1.150000 73.900 177.3779
1.172000 74.223 176.2390
1.180000 74.338 175.8299
1.206000 74.706 174.5189
1.220000 74.900 173.8249
1.241000 75.186 172.7996
1.250000 75.306 172.3657
1.265000 75.505 171.6500
1.280000 75.701 170.9433
1.315000 76.147 169.3276
1.320000 76.210 169.1004
1.340000 76.458 168.2000
1.360000 76.703 167.3124
1.380000 76.944 166.4367
1.400000 77.183 165.5719
1.430000 77.535 164.2929
1.450000 77.767 163.4515
1.475000 78.053 162.4126
1.500000 78.333 161.3893
1.525000 78.607 160.3825
1.550000 78.874 159.3918
1.575000 79.135 158.4160
1.600000 79.390 157.4536
1.625000 79.640 156.5029
1.650000 79.885 155.5623
1.675000 80.125 154.6300
1.700000 80.360 153.7041
1.725000 80.591 152.7828
1.750000 80.818 151.8644
1.775000 81.042 150.9469
1.800000 81.262 150.0287
1.825000 81.479 149.1085
1.850000 81.692 148.1855
1.875000 81.901 147.2605
1.900000 82.105 146.3350
1.925000 82.305 145.4111
1.950000 82.501 144.4905
1.975000 82.693 143.5750
2.000000 82.880 142.6656
2.030000 83.101 141.5839
2.060000 83.317 140.5136
2.090000 83.527 139.4552
2.120000 83.734 138.4088
2.140000 83.869 137.7173
2.180000 84.134 136.3463
2.200000 84.264 135.6648
2.240000 84.517 134.3041
2.270000 84.702 133.2839
2.300000 84.881 132.2652
2.330000 85.056 131.2505
2.360000 85.227 130.2421
2.400000 85.448 128.9116
2.430000 85.609 127.9266
2.470000 85.818 126.6330
2.500000 85.970 125.6782
2.540000 86.169 124.4240
2.580000 86.361 123.1853
2.620000 86.546 121.9537
2.650000 86.681 121.0324
2.690000 86.854 119.8088
2.720000 86.980 118.8972
2.760000 87.143 117.6943
2.800000 87.300 116.5102
2.850000 87.490 115.0623
2.900000 87.671 113.6525
2.950000 87.845 112.2744
3.000000 88.011 110.9156
3.040000 88.138 109.8387
3.070000 88.229 109.0378
3.110000 88.347 107.9821
3.150000 88.461 106.9440
3.200000 88.598 105.6774
3.250000 88.729 104.4500
3.300000 88.855 103.2611
3.350000 88.974 102.1040
3.400000 89.088 100.9720
3.450000 89.197 99.8636
3.500000 89.300 98.7814
3.550000 89.400 97.7293
3.600000 89.496 96.7112
3.650000 89.588 95.7284
3.700000 89.678 94.7792
3.750000 89.765 93.8597
3.820000 89.880 92.6172
3.870000 89.960 91.7603
3.950000 90.083 90.4433
4.000000 90.159 89.6548
4.060000 90.249 88.7443
4.120000 90.337 87.8709
4.180000 90.424 87.0306
4.250000 90.524 86.0853
4.310000 90.609 85.3003
4.370000 90.694 84.5359
4.440000 90.795 83.6692
4.500000 90.881 82.9476
4.550000 90.953 82.3594
4.620000 91.054 81.5507
4.680000 91.140 80.8662
4.750000 91.241 80.0730
4.820000 91.342 79.2843
4.870000 91.414 78.7238
4.940000 91.514 77.9423
5.000000 91.599 77.2733
5.080000 91.711 76.3788
5.150000 91.807 75.5908
5.220000 91.900 74.7973
5.300000 92.005 73.8856
5.380000 92.105 72.9714
5.450000 92.189 72.1708
5.520000 92.269 71.3692
5.600000 92.356 70.4515
5.700000 92.458 69.3073
5.800000 92.551 68.1765
5.900000 92.635 67.0662
6.000000 92.711 65.9773
6.080000 92.765 65.1252
6.150000 92.809 64.3979
6.220000 92.850 63.6905
6.300000 92.892 62.9073
6.400000 92.939 61.9659
6.500000 92.982 61.0686
6.600000 93.021 60.2189
6.700000 93.057 59.4174
6.800000 93.091 58.6614
6.900000 93.125 57.9472
7.000000 93.159 57.2722
7.100000 93.193 56.6337
7.200000 93.229 56.0258
7.300000 93.266 55.4422
7.400000 93.305 54.8781
7.500000 93.345 54.3300
7.620000 93.396 53.6864
7.750000 93.452 52.9979
7.880000 93.510 52.3137
8.000000 93.564 51.6830
8.120000 93.617 51.0509
8.250000 93.672 50.3643
8.380000 93.726 49.6779
8.500000 93.774 49.0460
8.620000 93.819 48.4176
8.750000 93.865 47.7433
8.850000 93.899 47.2307
9.000000 93.946 46.4738
9.120000 93.982 45.8794
9.250000 94.019 45.2479
9.380000 94.053 44.6294
9.500000 94.083 44.0702
9.620000 94.111 43.5222
9.750000 94.138 42.9413
9.880000 94.159 42.3742
10.000000 94.173 41.8633
10.150000 94.183 41.2425
10.300000 94.186 40.6428
10.440000 94.185 40.1028
10.600000 94.181 39.5093
10.750000 94.177 38.9753
10.900000 94.173 38.4609
11.060000 94.169 37.9305
11.200000 94.167 37.4787
11.380000 94.166 36.9088
11.500000 94.166 36.5328
11.720000 94.165 35.8470
11.800000 94.165 35.5981
12.060000 94.161 34.7929
12.200000 94.157 34.3658
12.410000 94.152 33.7429
12.500000 94.151 33.4856
12.650000 94.149 33.0735
12.800000 94.150 32.6860
13.150000 94.154 31.8890
13.200000 94.155 31.7872
13.400000 94.162 31.4059
13.600000 94.174 31.0562
13.800000 94.192 30.7229
14.000000 94.214 30.3895
14.300000 94.255 29.8589
14.500000 94.284 29.4714
14.750000 94.319 28.9439
15.000000 94.348 28.3745
15.250000 94.368 27.7793
15.500000 94.378 27.1814
15.750000 94.379 26.6067
16.000000 94.373 26.0796
16.250000 94.365 25.6160
16.500000 94.358 25.2187
16.750000 94.358 24.8729
17.000000 94.367 24.5492
17.250000 94.384 24.2123
17.500000 94.407 23.8347
17.750000 94.428 23.4086
18.000000 94.444 22.9515
18.250000 94.450 22.5008
18.500000 94.449 22.0979
18.750000 94.447 21.7697
19.000000 94.452 21.5135
19.250000 94.470 21.2938
19.500000 94.503 21.0555
19.750000 94.544 20.7524
20.000000 94.585 20.3694
20.299999 94.617 19.8475
20.600000 94.626 19.3650
20.900000 94.620 19.0345
21.200001 94.622 18.8899
21.400000 94.638 18.8578
21.799999 94.712 18.7260
22.000000 94.760 18.5350
22.400000 94.831 17.8584
22.700001 94.829 17.2577
23.000000 94.776 16.8293
23.299999 94.703 16.7471
23.600000 94.658 16.9907
24.000000 94.693 17.3420
24.299999 94.770 17.1722
24.700001 94.816 16.1234
25.000000 94.724 15.0496
25.400000 94.392 14.3113
25.799999 93.960 15.6628
26.200001 93.776 19.3234
26.500000 93.971 22.3389
26.900000 94.581 24.3758
27.200001 95.086 23.7797
27.600000 95.555 20.8064
28.000000 95.670 16.8138
28.500000 95.377 12.6816
29.000000 94.912 11.0587
29.500000 94.664 11.4225
30.000000 94.710 11.7499
30.400000 94.812 11.2758
30.700001 94.857 10.6525
31.100000 94.861 9.8844
31.500000 94.842 9.5032
32.000000 94.866 9.5510
32.500000 94.968 9.7328
33.000000 95.103 9.6909
33.500000 95.220 9.4218
34.000000 95.299 9.0549
34.500000 95.338 8.6626
35.000000 95.332 8.2799
35.500000 95.278 7.9763
36.000000 95.187 7.8292
36.500000 95.080 7.8301
37.000000 94.970 7.8743
37.500000 94.849 7.9015
38.200001 94.648 8.1832
38.700001 94.532 8.8221
39.500000 94.571 10.0365
40.000000 94.729 10.0717
40.599998 94.909 9.0464
41.200001 94.968 7.5204
41.799999 94.926 6.3799
42.500000 94.882 5.9196
43.099998 94.912 5.8994
43.700001 94.980 5.8672
44.400002 95.060 5.7526
45.000000 95.117 5.6516
45.500000 95.155 5.5577
46.200001 95.187 5.3711
46.799999 95.188 5.1742
47.500000 95.163 4.9658
48.200001 95.126 4.8248
48.700001 95.105 4.7476
49.400002 95.095 4.5690
50.000000 95.097 4.2600
50.799999 95.086 3.6987
51.500000 95.066 3.2815
52.200001 95.064 2.9482
53.000000 95.078 2.4640
53.799999 95.065 1.9336
54.500000 95.034 1.6475
55.200001 95.010 1.5396
56.000000 94.997 1.4817
57.000000 94.983 1.4506
58.000000 94.985 1.5988
59.000000 95.041 1.7083
60.000000 95.105 1.4062
60.799999 95.117 1.0371
61.500000 95.106 0.7950
62.200001 95.087 0.6293
63.000000 95.058 0.5122
64.000000 95.029 0.4794
65.000000 95.029 0.3821
66.000000 95.038 0.0031
67.000000 95.027 -0.5211
68.000000 95.009 -0.9113
69.000000 95.020 -1.1680
70.000000 95.054 -1.4879
71.000000 95.073 -1.8590
72.000000 95.067 -2.1234
73.000000 95.045 -2.2373
74.000000 95.021 -2.2841
75.000000 94.994 -2.3679
76.199997 94.963 -2.5447
77.500000 94.953 -2.8103
78.800003 94.977 -3.2155
80.000000 95.012 -3.6538
81.199997 95.040 -3.9979
82.500000 95.055 -4.1696
83.800003 95.047 -4.1835
85.000000 95.017 -4.1799
86.199997 94.969 -4.3021
87.500000 94.896 -4.6859
88.500000 94.824 -5.0531
90.000000 94.743 -5.3672
91.199997 94.755 -5.5482
92.500000 94.810 -5.9297
93.800003 94.860 -6.3322
95.000000 94.892 -6.5974
96.199997 94.908 -6.7656
97.500000 94.912 -6.9080
98.800003 94.904 -7.0604
100.000000 94.891 -7.2236
101.500000 94.876 -7.4498
103.000000 94.865 -7.6833
104.400002 94.860 -7.9091
106.000000 94.854 -8.1749
107.500000 94.847 -8.4137
109.000000 94.840 -8.6315
110.599998 94.834 -8.8519
112.000000 94.827 -9.0471
113.800003 94.815 -9.3112
115.000000 94.806 -9.4970
117.199997 94.789 -9.8469
118.000000 94.783 -9.9720
120.599998 94.766 -10.3544
122.000000 94.755 -10.5381
124.099998 94.737 -10.7882
125.000000 94.730 -10.8929
126.500000 94.720 -11.0723
128.000000 94.711 -11.2551
131.500000 94.682 -11.6564
132.000000 94.677 -11.7122
134.000000 94.658 -11.9471
136.000000 94.639 -12.2043
138.000000 94.622 -12.4595
140.000000 94.612 -12.7058
143.000000 94.600 -13.0844
145.000000 94.586 -13.3326
147.500000 94.562 -13.6141
150.000000 94.536 -13.8868
152.500000 94.515 -14.1768
155.000000 94.496 -14.4502
157.500000 94.475 -14.6780
160.000000 94.449 -14.9069
162.500000 94.421 -15.1516
165.000000 94.392 -15.4132
167.500000 94.352 -15.6495
170.000000 94.303 -15.8656
172.500000 94.251 -16.1518
175.000000 94.189 -16.4799
177.500000 94.118 -16.7270
180.000000 94.058 -16.8948
182.500000 94.021 -17.0865
185.000000 93.999 -17.3153
187.500000 93.982 -17.5596
190.000000 93.977 -17.8649
192.500000 93.990 -18.1561
195.000000 94.006 -18.2538
197.500000 93.999 -18.1860
200.000000 93.965 -18.1776
203.000000 93.927 -18.3778
206.000000 93.913 -18.6104
209.000000 93.901 -18.7823
212.000000 93.877 -19.0428
214.000000 93.859 -19.2560
218.000000 93.824 -19.6509
220.000000 93.799 -19.8325
224.000000 93.734 -20.1310
227.000000 93.689 -20.2549
230.000000 93.655 -20.3533
233.000000 93.630 -20.5027
236.000000 93.609 -20.7127
240.000000 93.581 -21.0546
243.000000 93.555 -21.3014
247.000000 93.511 -21.5104
250.000000 93.473 -21.6184
254.000000 93.427 -21.7977
258.000000 93.387 -22.0410
262.000000 93.339 -22.3101
265.000000 93.293 -22.4631
269.000000 93.231 -22.5833
272.000000 93.194 -22.6498
276.000000 93.156 -22.7769
280.000000 93.113 -22.9888
285.000000 93.046 -23.3211
290.000000 92.983 -23.6312
295.000000 92.930 -23.8647
300.000000 92.872 -24.0493
304.000000 92.825 -24.2037
307.000000 92.791 -24.3169
311.000000 92.746 -24.4515
315.000000 92.699 -24.5669
320.000000 92.639 -24.6971
325.000000 92.580 -24.8396
330.000000 92.529 -24.9952
335.000000 92.482 -25.1315
340.000000 92.436 -25.2366
345.000000 92.389 -25.3331
350.000000 92.343 -25.4404
355.000000 92.295 -25.5654
360.000000 92.249 -25.7029
365.000000 92.206 -25.8428
370.000000 92.162 -25.9791
375.000000 92.115 -26.0961
382.000000 92.044 -26.1985
387.000000 91.990 -26.2453
395.000000 91.908 -26.3220
400.000000 91.860 -26.4095
406.000000 91.795 -26.5382
412.000000 91.727 -26.6659
418.000000 91.667 -26.7788
425.000000 91.603 -26.8893
431.000000 91.543 -26.9608
437.000000 91.476 -27.0114
444.000000 91.392 -27.0584
450.000000 91.321 -27.0644
455.000000 91.270 -27.0652
462.000000 91.215 -27.1158
468.000000 91.175 -27.1748
475.000000 91.128 -27.1996
482.000000 91.074 -27.1958
487.000000 91.032 -27.1893
494.000000 90.973 -27.1749
500.000000 90.923 -27.1707
508.000000 90.855 -27.1815
515.000000 90.791 -27.1744
522.000000 90.727 -27.1375
530.000000 90.659 -27.0752
538.000000 90.594 -26.9868
545.000000 90.540 -26.9129
552.000000 90.486 -26.8731
560.000000 90.423 -26.8154
570.000000 90.341 -26.6925
580.000000 90.260 -26.5693
590.000000 90.184 -26.4479
600.000000 90.111 -26.3072
608.000000 90.056 -26.1768
615.000000 90.009 -26.0484
622.000000 89.962 -25.9146
630.000000 89.904 -25.7671
640.000000 89.832 -25.5814
650.000000 89.767 -25.3795
660.000000 89.706 -25.1715
670.000000 89.647 -24.9567
680.000000 89.591 -24.7253
690.000000 89.535 -24.4844
700.000000 89.478 -24.2294
710.000000 89.422 -23.9601
720.000000 89.370 -23.6831
730.000000 89.322 -23.4020
740.000000 89.276 -23.1105
750.000000 89.230 -22.7997
762.000000 89.179 -22.4114
775.000000 89.126 -21.9914
788.000000 89.077 -21.5813
800.000000 89.034 -21.1948
812.000000 88.992 -20.7899
825.000000 88.949 -20.3353
838.000000 88.909 -19.8765
850.000000 88.876 -19.4597
862.000000 88.847 -19.0486
875.000000 88.821 -18.6019
885.000000 88.806 -18.2571
900.000000 88.787 -17.7434
912.000000 88.776 -17.3415
925.000000 88.769 -16.9236
938.000000 88.768 -16.5292
950.000000 88.771 -16.1844
962.000000 88.778 -15.8514
975.000000 88.788 -15.5057
988.000000 88.798 -15.1896
1000.000000 88.808 -14.9297
1015.000000 88.821 -14.6369
1030.000000 88.836 -14.3723
1044.000000 88.850 -14.1602
1060.000000 88.867 -13.9624
1075.000000 88.883 -13.8103
1090.000000 88.899 -13.6868
1106.000000 88.915 -13.5859
1120.000000 88.929 -13.5266
1138.000000 88.944 -13.4823
1150.000000 88.953 -13.4692
1172.000000 88.964 -13.4745
1180.000000 88.966 -13.4855
1206.000000 88.970 -13.5519
1220.000000 88.970 -13.6038
1241.000000 88.968 -13.6934
1250.000000 88.967 -13.7308
1265.000000 88.966 -13.7911
1280.000000 88.965 -13.8478
1315.000000 88.962 -13.9633
1320.000000 88.960 -13.9780
1340.000000 88.952 -14.0298
1360.000000 88.943 -14.0615
1380.000000 88.932 -14.0665
1400.000000 88.920 -14.0550
1430.000000 88.899 -14.0187
1450.000000 88.884 -13.9742
1475.000000 88.867 -13.8953
1500.000000 88.850 -13.7982
1525.000000 88.833 -13.6824
1550.000000 88.817 -13.5465
1575.000000 88.803 -13.3914
1600.000000 88.790 -13.2225
1625.000000 88.778 -13.0249
1650.000000 88.771 -12.7815
1675.000000 88.769 -12.5142
1700.000000 88.771 -12.2411
1725.000000 88.776 -11.9508
1750.000000 88.784 -11.6365
1775.000000 88.796 -11.3089
1800.000000 88.813 -10.9820
1825.000000 88.836 -10.6683
1850.000000 88.863 -10.3710
1875.000000 88.893 -10.0901
1900.000000 88.925 -9.8242
1925.000000 88.958 -9.5692
1950.000000 88.993 -9.3171
1975.000000 89.030 -9.0571
2000.000000 89.068 -8.7876
2030.000000 89.113 -8.4603
2060.000000 89.160 -8.1372
2090.000000 89.209 -7.8228
2120.000000 89.262 -7.5145
2140.000000 89.300 -7.3105
2180.000000 89.378 -6.9020
2200.000000 89.419 -6.6978
2240.000000 89.502 -6.2966
2270.000000 89.567 -5.9982
2300.000000 89.633 -5.7012
2330.000000 89.701 -5.4072
2360.000000 89.771 -5.1166
2400.000000 89.867 -4.7288
2430.000000 89.941 -4.4353
2470.000000 90.042 -4.0455
2500.000000 90.121 -3.7557
2540.000000 90.231 -3.3757
2580.000000 90.345 -2.9946
2620.000000 90.463 -2.5994
2650.000000 90.553 -2.2932
2690.000000 90.676 -1.8793
2720.000000 90.771 -1.5693
2760.000000 90.900 -1.1545
2800.000000 91.034 -0.7294
2850.000000 91.210 -0.1733
2900.000000 91.395 0.4165
2950.000000 91.590 1.0352
3000.000000 91.801 1.6722
3040.000000 91.983 2.1863
3070.000000 92.129 2.5687
3110.000000 92.335 3.0608
3150.000000 92.553 3.5157
3200.000000 92.839 4.0198
3250.000000 93.140 4.4575
3300.000000 93.456 4.8427
3350.000000 93.792 5.1812
3400.000000 94.152 5.4674
3450.000000 94.540 5.6752
3500.000000 94.960 5.7679
3550.000000 95.412 5.7054
3600.000000 95.899 5.4417
3650.000000 96.422 4.9291
3700.000000 96.981 4.1060
3750.000000 97.575 2.8857
3820.000000 98.455 0.3279
3870.000000 99.102 -2.2342
3950.000000 100.115 -7.8440
4000.000000 100.687 -12.3649
4060.000000 101.253 -18.7739
4120.000000 101.632 -26.0551
4180.000000 101.784 -33.8470
4250.000000 101.655 -42.9698
4310.000000 101.300 -50.3104
4370.000000 100.762 -56.8479
4440.000000 99.975 -63.2178
4500.000000 99.221 -67.5621
4550.000000 98.571 -70.4491
4620.000000 97.664 -73.5192
4680.000000 96.912 -75.3963
4750.000000 96.076 -76.8854
4820.000000 95.288 -77.7778
4870.000000 94.754 -78.1227
4940.000000 94.043 -78.2709
5000.000000 93.462 -78.1326
5080.000000 92.723 -77.6236
5150.000000 92.106 -76.9116
5220.000000 91.516 -75.9719
5300.000000 90.874 -74.6325
5380.000000 90.264 -73.0224
5450.000000 89.756 -71.4015
5520.000000 89.270 -69.5831
5600.000000 88.745 -67.2636
5700.000000 88.135 -64.0182
5800.000000 87.581 -60.4176
5900.000000 87.089 -56.4990
6000.000000 86.664 -52.2959
6080.000000 86.376 -48.7477
6150.000000 86.163 -45.5219
6220.000000 85.990 -42.2030
6300.000000 85.844 -38.3319
6400.000000 85.745 -33.4276
6500.000000 85.739 -28.4954
6600.000000 85.825 -23.6031
6700.000000 86.002 -18.8368
6800.000000 86.267 -14.2693
6900.000000 86.620 -9.9879
7000.000000 87.060 -6.1096
7100.000000 87.580 -2.7661
7200.000000 88.168 -0.0893
7300.000000 88.805 1.7915
7400.000000 89.463 2.7581
7500.000000 90.107 2.7469
7620.000000 90.806 1.4848
7750.000000 91.404 -1.2040
7880.000000 91.771 -4.8700
8000.000000 91.865 -8.6084
8120.000000 91.725 -12.1488
8250.000000 91.355 -15.2614
8380.000000 90.830 -17.2979
8500.000000 90.272 -18.1094
8620.000000 89.698 -17.9297
8750.000000 89.103 -16.7664
8850.000000 88.685 -15.3143
9000.000000 88.142 -12.4644
9120.000000 87.788 -9.7833
9250.000000 87.485 -6.6414
9380.000000 87.263 -3.3796
9500.000000 87.124 -0.3585
9620.000000 87.045 2.5940
9750.000000 87.021 5.6414
9880.000000 87.056 8.4648
10000.000000 87.136 10.8204
10150.000000 87.287 13.3567
10300.000000 87.477 15.3759
10440.000000 87.670 16.7521
10600.000000 87.884 17.6902
10750.000000 88.044 17.9879
10900.000000 88.140 17.8496
11060.000000 88.154 17.4177
11200.000000 88.089 16.9785
11380.000000 87.909 16.5770
11500.000000 87.741 16.5260
11720.000000 87.381 16.9951
11800.000000 87.244 17.3297
12060.000000 86.795 18.9716
12200.000000 86.570 20.3423
12410.000000 86.340 23.0361
12500.000000 86.306 24.2744
12650.000000 86.348 26.1552
12800.000000 86.503 27.4821
13150.000000 87.078 26.5773
13200.000000 87.149 25.8838
13400.000000 87.279 21.7683
13600.000000 87.027 16.2333
13800.000000 86.294 10.8093
14000.000000 85.132 7.1721
14300.000000 83.017 6.8944
14500.000000 81.667 9.5552
14750.000000 80.206 14.5190
15000.000000 78.990 20.4557
15250.000000 78.013 26.7019
15500.000000 77.252 32.4481
15750.000000 76.643 36.8816
16000.000000 76.041 39.3081
16250.000000 75.222 39.8654
16500.000000 73.998 39.9677
16750.000000 72.341 41.6360
17000.000000 70.386 46.4890
17250.000000 68.356 55.2101
17500.000000 66.490 67.4875
17750.000000 64.986 82.0338
18000.000000 63.938 97.1635
18250.000000 63.338 111.6318
18500.000000 63.131 124.5319
18750.000000 63.220 135.0583
19000.000000 63.478 142.6012
19250.000000 63.739 146.7841
19500.000000 63.787 147.7968
19750.000000 63.437 146.4729
20000.000000 62.591 143.8559
20300.000000 60.905 140.1091
20600.000000 58.536 136.1686
20900.000000 55.595 131.5524
21200.000000 52.265 124.6881
21400.000000 49.959 117.6374
21800.000000 45.660 95.1509
22000.000000 43.969 80.7664
22400.000000 42.360 55.7092
22700.000000 43.318 48.8499
23000.000000 45.940 65.4672
23300.000000 49.178 161.9325
23600.000000 52.048 -179.7337
24000.000000 54.117 179.6744
