* Measurement data measured by REW V5.30.9
* Source: Headset (JA3 HIFI AUDIO(CX31993)), MICROPHONE (Master Volume), L, volume: 0.250
* Format: 512k Log Swept Sine, 1 sweep at -13.0 dBFS with no timing reference
* Dated: Feb 24, 2024 2:44:38 PM
* REW Settings:
*  C-weighting compensation: Off
*  Target level: 75.0 dB
* Note: ; 
* Measurement: DZ4 L
* Smoothing: 1/12 octave
* Frequency Step: 1/48 octave
* Start Frequency: 1.000 Hz
*
* Freq(Hz) SPL(dB) Phase(degrees)
1.000000 52.807 50.8885
1.015000 53.063 49.7171
1.030000 53.316 48.5596
1.044000 53.549 47.4897
1.060000 53.811 46.2769
1.075000 54.053 45.1481
1.090000 54.290 44.0273
1.106000 54.540 42.8437
1.120000 54.756 41.8221
1.138000 55.032 40.5328
1.150000 55.214 39.6897
1.172000 55.547 38.1786
1.180000 55.668 37.6402
1.206000 56.056 35.9290
1.220000 56.264 35.0312
1.241000 56.573 33.7136
1.250000 56.704 33.1591
1.265000 56.922 32.2477
1.280000 57.139 31.3514
1.315000 57.637 29.3132
1.320000 57.708 29.0276
1.340000 57.988 27.8974
1.360000 58.264 26.7854
1.380000 58.537 25.6893
1.400000 58.807 24.6070
1.430000 59.205 23.0058
1.450000 59.465 21.9522
1.475000 59.786 20.6530
1.500000 60.100 19.3793
1.525000 60.409 18.1348
1.550000 60.713 16.9191
1.575000 61.011 15.7302
1.600000 61.304 14.5651
1.625000 61.593 13.4206
1.650000 61.876 12.2934
1.675000 62.155 11.1803
1.700000 62.429 10.0779
1.725000 62.698 8.9832
1.750000 62.964 7.8929
1.775000 63.225 6.8042
1.800000 63.482 5.7146
1.825000 63.735 4.6227
1.850000 63.983 3.5286
1.875000 64.227 2.4344
1.900000 64.466 1.3434
1.925000 64.701 0.2583
1.950000 64.931 -0.8184
1.975000 65.157 -1.8848
2.000000 65.378 -2.9396
2.030000 65.639 -4.1889
2.060000 65.893 -5.4199
2.090000 66.142 -6.6326
2.120000 66.386 -7.8282
2.140000 66.546 -8.6167
2.180000 66.858 -10.1780
2.200000 67.011 -10.9536
2.240000 67.309 -12.5020
2.270000 67.527 -13.6622
2.300000 67.738 -14.8188
2.330000 67.944 -15.9680
2.360000 68.145 -17.1057
2.400000 68.405 -18.5989
2.430000 68.594 -19.6974
2.470000 68.839 -21.1304
2.500000 69.017 -22.1808
2.540000 69.248 -23.5518
2.580000 69.470 -24.8994
2.620000 69.684 -26.2367
2.650000 69.839 -27.2358
2.690000 70.038 -28.5595
2.720000 70.182 -29.5412
2.760000 70.368 -30.8276
2.800000 70.546 -32.0803
2.850000 70.758 -33.5880
2.900000 70.961 -35.0268
2.950000 71.153 -36.4071
3.000000 71.334 -37.7498
3.040000 71.471 -38.8030
3.070000 71.569 -39.5787
3.110000 71.694 -40.5886
3.150000 71.814 -41.5633
3.200000 71.958 -42.7203
3.250000 72.095 -43.7992
3.300000 72.225 -44.7987
3.350000 72.349 -45.7289
3.400000 72.464 -46.6010
3.450000 72.574 -47.4178
3.500000 72.678 -48.1757
3.550000 72.781 -48.8679
3.600000 72.883 -49.4875
3.650000 72.985 -50.0297
3.700000 73.088 -50.4942
3.750000 73.190 -50.8858
3.820000 73.332 -51.3263
3.870000 73.436 -51.5751
3.950000 73.613 -51.8770
4.000000 73.732 -52.0102
4.060000 73.885 -52.1122
4.120000 74.048 -52.1512
4.180000 74.220 -52.1416
4.250000 74.434 -52.1040
4.310000 74.627 -52.0795
4.370000 74.831 -52.0797
4.440000 75.083 -52.1125
4.500000 75.311 -52.1644
4.550000 75.508 -52.2300
4.620000 75.790 -52.3765
4.680000 76.036 -52.5724
4.750000 76.326 -52.8975
4.820000 76.617 -53.3229
4.870000 76.826 -53.6812
4.940000 77.118 -54.2534
5.000000 77.365 -54.8102
5.080000 77.685 -55.6527
5.150000 77.956 -56.4853
5.220000 78.216 -57.4003
5.300000 78.501 -58.5289
5.380000 78.770 -59.7238
5.450000 78.990 -60.8126
5.520000 79.195 -61.9396
5.600000 79.411 -63.2724
5.700000 79.654 -64.9790
5.800000 79.865 -66.6832
5.900000 80.045 -68.3573
6.000000 80.194 -69.9982
6.080000 80.292 -71.2693
6.150000 80.363 -72.3303
6.220000 80.422 -73.3304
6.300000 80.475 -74.3948
6.400000 80.521 -75.6040
6.500000 80.550 -76.6577
6.600000 80.568 -77.5269
6.700000 80.578 -78.1992
6.800000 80.585 -78.6801
6.900000 80.599 -78.9762
7.000000 80.625 -79.0923
7.100000 80.668 -79.0436
7.200000 80.733 -78.8687
7.300000 80.824 -78.6158
7.400000 80.946 -78.3233
7.500000 81.096 -78.0297
7.620000 81.312 -77.7501
7.750000 81.582 -77.6222
7.880000 81.884 -77.7253
8.000000 82.176 -78.0599
8.120000 82.472 -78.6449
8.250000 82.787 -79.5492
8.380000 83.087 -80.7062
8.500000 83.341 -81.9737
8.620000 83.571 -83.4000
8.750000 83.786 -85.0744
8.850000 83.927 -86.4256
9.000000 84.095 -88.5097
9.120000 84.193 -90.1760
9.250000 84.264 -91.9332
9.380000 84.299 -93.6025
9.500000 84.305 -95.0245
9.620000 84.287 -96.2994
9.750000 84.246 -97.4894
9.880000 84.189 -98.4549
10.000000 84.126 -99.1318
10.150000 84.048 -99.6909
10.300000 83.985 -99.9558
10.440000 83.951 -99.9803
10.600000 83.954 -99.8346
10.750000 84.003 -99.6287
10.900000 84.095 -99.4545
11.060000 84.232 -99.4062
11.200000 84.375 -99.5355
11.380000 84.572 -99.9791
11.500000 84.701 -100.4501
11.720000 84.910 -101.6223
11.800000 84.972 -102.1256
12.060000 85.111 -103.9018
12.200000 85.142 -104.8591
12.410000 85.137 -106.1534
12.500000 85.119 -106.6192
12.650000 85.072 -107.2362
12.800000 85.013 -107.6203
13.150000 84.878 -107.5194
13.200000 84.865 -107.3970
13.400000 84.842 -106.6959
13.600000 84.877 -105.7746
13.800000 84.975 -104.8079
14.000000 85.125 -103.9601
14.300000 85.414 -103.1487
14.500000 85.620 -102.9759
14.750000 85.862 -103.1461
15.000000 86.068 -103.6573
15.250000 86.228 -104.4011
15.500000 86.337 -105.2775
15.750000 86.394 -106.1976
16.000000 86.402 -107.0732
16.250000 86.363 -107.8041
16.500000 86.286 -108.2782
16.750000 86.193 -108.3951
17.000000 86.114 -108.1136
17.250000 86.091 -107.5121
17.500000 86.157 -106.8196
17.750000 86.322 -106.3768
18.000000 86.566 -106.5204
18.250000 86.841 -107.4634
18.500000 87.091 -109.2376
18.750000 87.264 -111.7091
19.000000 87.323 -114.6304
19.250000 87.250 -117.6831
19.500000 87.043 -120.5183
19.750000 86.724 -122.7877
20.000000 86.336 -124.1874
20.299999 85.880 -124.4730
20.600000 85.567 -123.3766
20.900000 85.503 -121.5858
21.200001 85.690 -120.0512
21.400000 85.912 -119.5272
21.799999 86.431 -119.9351
22.000000 86.674 -120.7613
22.400000 87.054 -123.1599
22.700001 87.230 -125.2046
23.000000 87.316 -127.1373
23.299999 87.330 -128.7244
23.600000 87.297 -129.7836
24.000000 87.251 -130.2141
24.299999 87.278 -129.8900
24.700001 87.460 -129.1376
25.000000 87.703 -128.8515
25.400000 88.078 -129.4047
25.799999 88.378 -131.0574
26.200001 88.500 -133.2813
26.500000 88.461 -134.8538
26.900000 88.280 -136.2675
27.200001 88.108 -136.6222
27.600000 87.924 -136.2550
28.000000 87.850 -135.3969
28.500000 87.897 -134.4193
29.000000 88.029 -133.9509
29.500000 88.199 -134.0644
30.000000 88.364 -134.8127
30.400000 88.448 -135.7732
30.700001 88.464 -136.5307
31.100000 88.435 -137.3155
31.500000 88.394 -137.6646
32.000000 88.417 -137.7012
32.500000 88.527 -137.9342
33.000000 88.631 -138.6384
33.500000 88.669 -139.3860
34.000000 88.705 -139.8073
34.500000 88.820 -140.2854
35.000000 88.957 -141.4808
35.500000 88.972 -143.2871
36.000000 88.803 -144.7375
36.500000 88.573 -144.9443
37.000000 88.483 -144.1460
37.500000 88.589 -143.5754
38.200001 88.785 -144.3954
38.700001 88.794 -145.4112
39.500000 88.677 -145.8695
40.000000 88.656 -145.2743
40.599998 88.752 -144.1359
41.200001 88.992 -143.1327
41.799999 89.318 -142.9411
42.500000 89.636 -143.9754
43.099998 89.764 -145.3228
43.700001 89.795 -146.5714
44.400002 89.767 -147.9394
45.000000 89.663 -149.0423
45.500000 89.516 -149.6316
46.200001 89.313 -149.6383
46.799999 89.229 -149.1828
47.500000 89.243 -148.7265
48.200001 89.325 -148.5375
48.700001 89.408 -148.5409
49.400002 89.538 -148.7162
50.000000 89.641 -148.9767
50.799999 89.738 -149.3787
51.500000 89.762 -149.6712
52.200001 89.718 -149.6835
53.000000 89.631 -149.1483
53.799999 89.582 -148.3344
54.500000 89.585 -147.9326
55.200001 89.593 -148.1441
56.000000 89.552 -149.1496
57.000000 89.344 -150.8074
58.000000 89.064 -151.2573
59.000000 89.044 -150.7610
60.000000 89.204 -151.2143
60.799999 89.291 -151.8590
61.500000 89.349 -152.1712
62.200001 89.404 -152.2905
63.000000 89.455 -152.2382
64.000000 89.518 -152.0518
65.000000 89.559 -152.0898
66.000000 89.555 -152.2230
67.000000 89.555 -152.3337
68.000000 89.589 -152.5500
69.000000 89.653 -152.9746
70.000000 89.716 -153.5325
71.000000 89.768 -153.9886
72.000000 89.819 -154.3334
73.000000 89.855 -154.5586
74.000000 89.892 -154.6309
75.000000 89.941 -154.7425
76.199997 89.983 -155.0447
77.500000 89.974 -155.3372
78.800003 89.950 -155.0904
80.000000 89.990 -154.7699
81.199997 90.052 -154.8106
82.500000 90.121 -155.3129
83.800003 90.136 -156.3250
85.000000 90.083 -157.0498
86.199997 90.042 -157.2227
87.500000 90.044 -156.9885
88.500000 90.069 -156.5712
90.000000 90.160 -155.7210
91.199997 90.276 -155.5463
92.500000 90.336 -156.2638
93.800003 90.298 -157.2293
95.000000 90.264 -157.9235
96.199997 90.295 -158.5135
97.500000 90.410 -159.1668
98.800003 90.560 -159.9574
100.000000 90.654 -160.6244
101.500000 90.678 -160.8354
103.000000 90.628 -160.2411
104.400002 90.543 -159.1617
106.000000 90.437 -157.8725
107.500000 90.330 -157.0116
109.000000 90.255 -156.4049
110.599998 90.291 -156.2163
112.000000 90.391 -156.7610
113.800003 90.480 -157.8994
115.000000 90.498 -158.4594
117.199997 90.477 -159.0146
118.000000 90.453 -159.1457
120.599998 90.379 -159.2391
122.000000 90.404 -159.1423
124.099998 90.513 -158.8200
125.000000 90.569 -158.5840
126.500000 90.640 -158.2097
128.000000 90.655 -157.9951
131.500000 90.591 -158.5236
132.000000 90.594 -158.6942
134.000000 90.677 -159.2966
136.000000 90.829 -159.6454
138.000000 90.938 -159.7980
140.000000 90.954 -160.0198
143.000000 90.928 -160.2462
145.000000 90.973 -160.2882
147.500000 91.011 -160.2812
150.000000 90.948 -160.1325
152.500000 90.882 -159.6808
155.000000 90.869 -159.3051
157.500000 90.832 -159.1249
160.000000 90.795 -159.0414
162.500000 90.835 -159.1699
165.000000 90.892 -159.4094
167.500000 90.868 -159.4912
170.000000 90.777 -159.2049
172.500000 90.707 -158.7115
175.000000 90.703 -158.3280
177.500000 90.742 -158.4195
180.000000 90.788 -158.9081
182.500000 90.819 -159.3676
185.000000 90.858 -159.1209
187.500000 90.950 -158.3786
190.000000 91.039 -157.9080
192.500000 91.053 -157.9736
195.000000 90.946 -158.0615
197.500000 90.757 -157.5214
200.000000 90.589 -156.5011
203.000000 90.558 -155.5908
206.000000 90.734 -155.6684
209.000000 90.986 -156.5922
212.000000 91.181 -157.7749
214.000000 91.272 -158.3716
218.000000 91.419 -159.0441
220.000000 91.484 -159.2591
224.000000 91.599 -159.4405
227.000000 91.706 -159.5654
230.000000 91.869 -160.1872
233.000000 91.993 -161.3240
236.000000 91.977 -162.2036
240.000000 91.947 -162.4962
243.000000 92.079 -162.4227
247.000000 92.249 -162.1324
250.000000 92.274 -161.3763
254.000000 92.300 -160.0812
258.000000 92.414 -159.0926
262.000000 92.581 -158.4905
265.000000 92.656 -158.3935
269.000000 92.654 -158.6456
272.000000 92.589 -158.8564
276.000000 92.448 -159.1519
280.000000 92.322 -159.7665
285.000000 92.265 -160.4363
290.000000 92.268 -160.2260
295.000000 92.234 -160.5889
300.000000 92.237 -161.6107
304.000000 92.297 -162.1046
307.000000 92.343 -162.2372
311.000000 92.366 -162.1199
315.000000 92.347 -161.7874
320.000000 92.279 -161.7172
325.000000 92.227 -162.2337
330.000000 92.270 -162.4542
335.000000 92.361 -162.0898
340.000000 92.415 -162.1295
345.000000 92.463 -163.1796
350.000000 92.535 -164.6878
355.000000 92.577 -166.0051
360.000000 92.607 -166.6232
365.000000 92.687 -166.2856
370.000000 92.810 -165.6314
375.000000 92.897 -165.3872
382.000000 92.842 -164.8385
387.000000 92.734 -164.5601
395.000000 92.583 -164.9617
400.000000 92.488 -164.9788
406.000000 92.395 -164.7011
412.000000 92.334 -164.6118
418.000000 92.300 -164.7012
425.000000 92.294 -164.6643
431.000000 92.295 -164.5830
437.000000 92.281 -164.6044
444.000000 92.255 -164.8242
450.000000 92.298 -165.1524
455.000000 92.418 -165.6355
462.000000 92.658 -166.6579
468.000000 92.776 -167.1275
475.000000 92.678 -166.1777
482.000000 92.474 -165.0341
487.000000 92.359 -164.7115
494.000000 92.259 -164.7853
500.000000 92.193 -164.9111
508.000000 92.097 -164.8423
515.000000 92.017 -164.5803
522.000000 91.971 -164.2686
530.000000 91.972 -163.8837
538.000000 92.007 -163.4310
545.000000 92.038 -163.1102
552.000000 92.048 -162.8129
560.000000 91.995 -162.3550
570.000000 91.848 -161.8003
580.000000 91.751 -161.6180
590.000000 91.727 -161.3903
600.000000 91.727 -160.8710
608.000000 91.732 -160.4321
615.000000 91.731 -160.0630
622.000000 91.725 -159.7183
630.000000 91.721 -159.4274
640.000000 91.719 -159.1888
650.000000 91.726 -158.9289
660.000000 91.740 -158.6996
670.000000 91.745 -158.5499
680.000000 91.738 -158.3395
690.000000 91.749 -157.9445
700.000000 91.761 -157.2289
710.000000 91.744 -156.1923
720.000000 91.706 -155.3600
730.000000 91.680 -154.7148
740.000000 91.679 -154.0197
750.000000 91.695 -153.2901
762.000000 91.722 -152.4790
775.000000 91.750 -151.7051
788.000000 91.785 -151.0007
800.000000 91.826 -150.3506
812.000000 91.868 -149.6715
825.000000 91.909 -148.8735
838.000000 91.944 -148.0355
850.000000 91.979 -147.2470
862.000000 92.025 -146.4330
875.000000 92.080 -145.5522
885.000000 92.125 -144.9044
900.000000 92.203 -143.9937
912.000000 92.274 -143.3093
925.000000 92.361 -142.6032
938.000000 92.456 -141.9760
950.000000 92.551 -141.4607
962.000000 92.651 -140.9213
975.000000 92.757 -140.2092
988.000000 92.853 -139.4161
1000.000000 92.934 -138.7658
1015.000000 93.042 -138.1284
1030.000000 93.162 -137.5818
1044.000000 93.278 -137.1133
1060.000000 93.409 -136.6481
1075.000000 93.529 -136.2595
1090.000000 93.652 -135.9113
1106.000000 93.784 -135.5886
1120.000000 93.900 -135.3337
1138.000000 94.044 -135.0413
1150.000000 94.136 -134.8758
1172.000000 94.297 -134.6318
1180.000000 94.354 -134.5611
1206.000000 94.540 -134.3887
1220.000000 94.640 -134.3251
1241.000000 94.788 -134.2689
1250.000000 94.850 -134.2514
1265.000000 94.954 -134.2200
1280.000000 95.057 -134.1867
1315.000000 95.286 -134.1419
1320.000000 95.318 -134.1401
1340.000000 95.443 -134.1297
1360.000000 95.567 -134.0987
1380.000000 95.686 -134.0588
1400.000000 95.801 -134.0179
1430.000000 95.971 -133.9525
1450.000000 96.087 -133.9074
1475.000000 96.235 -133.8332
1500.000000 96.380 -133.7292
1525.000000 96.522 -133.6094
1550.000000 96.661 -133.4766
1575.000000 96.804 -133.3523
1600.000000 96.956 -133.2538
1625.000000 97.117 -133.1768
1650.000000 97.279 -133.0826
1675.000000 97.440 -132.9796
1700.000000 97.602 -132.9337
1725.000000 97.772 -132.9179
1750.000000 97.949 -132.9122
1775.000000 98.129 -132.9329
1800.000000 98.310 -132.9823
1825.000000 98.490 -133.0630
1850.000000 98.671 -133.1799
1875.000000 98.854 -133.3290
1900.000000 99.038 -133.5110
1925.000000 99.225 -133.7296
1950.000000 99.414 -133.9888
1975.000000 99.605 -134.2941
2000.000000 99.799 -134.6495
2030.000000 100.032 -135.1418
2060.000000 100.265 -135.7100
2090.000000 100.496 -136.3620
2120.000000 100.725 -137.0963
2140.000000 100.876 -137.6295
2180.000000 101.172 -138.7997
2200.000000 101.317 -139.4372
2240.000000 101.598 -140.8175
2270.000000 101.801 -141.9445
2300.000000 101.994 -143.1498
2330.000000 102.177 -144.4299
2360.000000 102.348 -145.7809
2400.000000 102.558 -147.6844
2430.000000 102.699 -149.1794
2470.000000 102.865 -151.2463
2500.000000 102.970 -152.8393
2540.000000 103.085 -155.0010
2580.000000 103.170 -157.1810
2620.000000 103.223 -159.3469
2650.000000 103.242 -160.9352
2690.000000 103.242 -162.9738
2720.000000 103.225 -164.4364
2760.000000 103.181 -166.2863
2800.000000 103.118 -168.0043
2850.000000 103.019 -169.9465
2900.000000 102.909 -171.6613
2950.000000 102.795 -173.1856
3000.000000 102.683 -174.5777
3040.000000 102.593 -175.6270
3070.000000 102.522 -176.3845
3110.000000 102.422 -177.3510
3150.000000 102.314 -178.2477
3200.000000 102.169 -179.2371
3250.000000 102.016 179.9391
3300.000000 101.864 179.2880
3350.000000 101.718 178.8035
3400.000000 101.585 178.4644
3450.000000 101.467 178.2410
3500.000000 101.367 178.0992
3550.000000 101.282 178.0067
3600.000000 101.212 177.9369
3650.000000 101.154 177.8738
3700.000000 101.107 177.8109
3750.000000 101.071 177.7464
3820.000000 101.037 177.6402
3870.000000 101.024 177.5410
3950.000000 101.016 177.3296
4000.000000 101.017 177.1584
4060.000000 101.021 176.9077
4120.000000 101.030 176.6094
4180.000000 101.044 176.2543
4250.000000 101.068 175.7511
4310.000000 101.092 175.2349
4370.000000 101.118 174.6312
4440.000000 101.145 173.8039
4500.000000 101.163 172.9883
4550.000000 101.172 172.2381
4620.000000 101.173 171.0888
4680.000000 101.160 170.0214
4750.000000 101.125 168.6977
4820.000000 101.066 167.3149
4870.000000 101.008 166.3087
4940.000000 100.901 164.9019
5000.000000 100.787 163.7239
5080.000000 100.603 162.2312
5150.000000 100.416 161.0275
5220.000000 100.209 159.9431
5300.000000 99.953 158.8735
5380.000000 99.683 158.0023
5450.000000 99.438 157.4053
5520.000000 99.188 156.9598
5600.000000 98.902 156.6283
5700.000000 98.551 156.4658
5800.000000 98.213 156.5696
5900.000000 97.887 156.9233
6000.000000 97.575 157.5123
6080.000000 97.341 158.1418
6150.000000 97.152 158.8038
6220.000000 96.979 159.5673
6300.000000 96.805 160.5587
6400.000000 96.628 161.9624
6500.000000 96.499 163.5272
6600.000000 96.425 165.2226
6700.000000 96.408 167.0065
6800.000000 96.456 168.8209
6900.000000 96.575 170.5987
7000.000000 96.770 172.2584
7100.000000 97.046 173.6965
7200.000000 97.408 174.7867
7300.000000 97.855 175.3723
7400.000000 98.384 175.2652
7500.000000 98.977 174.2515
7620.000000 99.726 171.5402
7750.000000 100.480 166.4889
7880.000000 101.024 159.2539
8000.000000 101.205 151.0951
8120.000000 100.995 142.3332
8250.000000 100.320 133.2689
8380.000000 99.255 125.6465
8500.000000 98.038 120.4087
8620.000000 96.703 117.0129
8750.000000 95.230 115.2471
8850.000000 94.126 115.0377
9000.000000 92.565 116.1956
9120.000000 91.416 118.1049
9250.000000 90.272 120.9102
9380.000000 89.232 124.3143
9500.000000 88.358 127.8804
9620.000000 87.565 131.7689
9750.000000 86.790 136.2545
9880.000000 86.100 140.9375
10000.000000 85.530 145.3969
10150.000000 84.903 151.1856
10300.000000 84.374 157.2461
10440.000000 83.974 163.1028
10600.000000 83.629 169.9168
10750.000000 83.408 176.3251
10900.000000 83.283 -177.3110
11060.000000 83.252 -170.6389
11200.000000 83.309 -164.9415
11380.000000 83.492 -157.8405
11500.000000 83.681 -153.2610
11720.000000 84.169 -145.2264
11800.000000 84.394 -142.4360
12060.000000 85.330 -133.9829
12200.000000 85.976 -129.9524
12410.000000 87.149 -124.9283
12500.000000 87.726 -123.2782
12650.000000 88.775 -121.4058
12800.000000 89.901 -120.8613
13150.000000 92.485 -125.9419
13200.000000 92.806 -127.4245
13400.000000 93.853 -134.9828
13600.000000 94.405 -144.2747
13800.000000 94.407 -153.7804
14000.000000 93.937 -162.0137
14300.000000 92.737 -170.1544
14500.000000 91.884 -172.7214
14750.000000 90.994 -173.6452
15000.000000 90.399 -173.3725
15250.000000 90.085 -173.2099
15500.000000 89.953 -174.1104
15750.000000 89.847 -176.5677
16000.000000 89.588 179.4927
16250.000000 89.032 174.6976
16500.000000 88.119 170.0098
16750.000000 86.873 166.4117
17000.000000 85.378 164.6385
17250.000000 83.746 165.0557
17500.000000 82.087 167.7069
17750.000000 80.492 172.4438
18000.000000 79.040 179.0305
18250.000000 77.799 -172.8509
18500.000000 76.833 -163.6948
18750.000000 76.180 -154.2761
19000.000000 75.822 -145.5332
19250.000000 75.664 -138.2409
19500.000000 75.562 -132.7655
19750.000000 75.363 -129.0311
20000.000000 74.938 -126.6351
20300.000000 74.007 -124.7525
20600.000000 72.537 -123.1200
20900.000000 70.514 -121.1636
21200.000000 67.968 -118.7773
21400.000000 66.004 -117.1029
21800.000000 61.500 -114.2815
22000.000000 58.988 -113.4493
22400.000000 53.605 -113.3850
22700.000000 49.871 -114.9862
23000.000000 48.353 -118.3324
23300.000000 50.112 -125.6451
23600.000000 52.723 164.3127
24000.000000 54.755 77.7337
