* Measurement data measured by REW V5.30.2
* Source: Headset (USB-C to 3.5mm Headphone Jack Adapter), MICROPHONE (Master Volume), L, volume: 0.250
* Format: 512k Log Swept Sine, 1 sweep at -12.0 dBFS with no timing reference
* Dated: Feb 6, 2024 2:15:06 PM
* REW Settings:
*  C-weighting compensation: Off
*  Target level: 75.0 dB
* Note: ; 
* Measurement: Moondrop Chu L
* Smoothing: 1/24 octave
* Frequency Step: 1/48 octave
* Start Frequency: 20.300 Hz
*
* Freq(Hz) SPL(dB) Phase(degrees)
20.299999 99.177 -121.5972
20.600000 99.138 -121.9547
20.900000 99.060 -122.5891
21.200001 99.002 -123.2169
21.400000 98.986 -123.7058
21.799999 99.014 -124.9201
22.000000 99.052 -125.6217
22.400000 99.155 -127.0107
22.700001 99.242 -127.8709
23.000000 99.325 -128.5092
23.299999 99.397 -129.0023
23.600000 99.448 -129.4772
24.000000 99.465 -130.2825
24.299999 99.430 -131.0944
24.700001 99.325 -132.3984
25.000000 99.223 -133.4253
25.400000 99.093 -134.7127
25.799999 99.004 -135.8539
26.200001 98.950 -136.9099
26.500000 98.914 -137.6839
26.900000 98.847 -138.6803
27.200001 98.780 -139.3645
27.600000 98.689 -140.1785
28.000000 98.633 -140.9796
28.500000 98.649 -142.2151
29.000000 98.735 -143.7655
29.500000 98.825 -145.2733
30.000000 98.860 -146.3278
30.400000 98.832 -146.8613
30.700001 98.780 -147.2108
31.100000 98.685 -147.7742
31.500000 98.585 -148.4749
32.000000 98.499 -149.3676
32.500000 98.481 -150.1032
33.000000 98.508 -150.8052
33.500000 98.537 -151.6972
34.000000 98.547 -152.7233
34.500000 98.543 -153.6003
35.000000 98.531 -154.2395
35.500000 98.500 -154.8693
36.000000 98.442 -155.6936
36.500000 98.374 -156.6022
37.000000 98.317 -157.3378
37.500000 98.275 -157.8688
38.200001 98.205 -158.6779
38.700001 98.140 -159.4446
39.500000 98.052 -160.6170
40.000000 98.014 -161.2424
40.599998 97.965 -162.0773
41.200001 97.907 -163.0354
41.799999 97.865 -163.8845
42.500000 97.850 -164.6049
43.099998 97.836 -165.1587
43.700001 97.799 -165.7418
44.400002 97.741 -166.4031
45.000000 97.699 -166.9694
45.500000 97.665 -167.4721
46.200001 97.607 -168.1518
46.799999 97.553 -168.6520
47.500000 97.511 -169.2476
48.200001 97.489 -169.9277
48.700001 97.467 -170.3790
49.400002 97.420 -170.8725
50.000000 97.377 -171.2742
50.799999 97.328 -171.9766
51.500000 97.276 -172.6797
52.200001 97.208 -173.3169
53.000000 97.133 -173.9538
53.799999 97.094 -174.5254
54.500000 97.072 -174.8949
55.200001 97.019 -175.1567
56.000000 96.925 -175.6145
57.000000 96.857 -176.6038
58.000000 96.848 -177.3922
59.000000 96.819 -177.7443
60.000000 96.748 -177.9702
60.799999 96.673 -178.3433
61.500000 96.618 -178.9686
62.200001 96.576 -179.6913
63.000000 96.530 179.6802
64.000000 96.460 179.1926
65.000000 96.405 178.9184
66.000000 96.375 178.7456
67.000000 96.339 178.3375
68.000000 96.293 177.8508
69.000000 96.246 177.5645
70.000000 96.185 177.2959
71.000000 96.118 176.8494
72.000000 96.051 176.4468
73.000000 95.970 176.2379
74.000000 95.883 175.9648
75.000000 95.809 175.6038
76.199997 95.718 175.2037
77.500000 95.618 174.7136
78.800003 95.556 174.2930
80.000000 95.504 174.0173
81.199997 95.459 173.8217
82.500000 95.403 173.5450
83.800003 95.341 173.1719
85.000000 95.294 172.8930
86.199997 95.248 172.7199
87.500000 95.191 172.5696
88.500000 95.149 172.5009
90.000000 95.092 172.4490
91.199997 95.041 172.0603
92.500000 94.980 171.6135
93.800003 94.920 171.4266
95.000000 94.873 171.3394
96.199997 94.835 171.2210
97.500000 94.791 170.9474
98.800003 94.736 170.6714
100.000000 94.688 170.5240
101.500000 94.623 170.3864
103.000000 94.562 170.2411
104.400002 94.511 170.0750
106.000000 94.437 170.0017
107.500000 94.375 169.9644
109.000000 94.337 169.7962
110.599998 94.295 169.6157
112.000000 94.259 169.5575
113.800003 94.210 169.5163
115.000000 94.166 169.4913
117.199997 94.079 169.4424
118.000000 94.053 169.4133
120.599998 93.991 169.2268
122.000000 93.955 169.1272
124.099998 93.891 169.0806
125.000000 93.859 169.0638
126.500000 93.805 169.0287
128.000000 93.758 169.0041
131.500000 93.658 168.9889
132.000000 93.647 169.0047
134.000000 93.602 169.0731
136.000000 93.549 169.0354
138.000000 93.493 168.9615
140.000000 93.449 168.9774
143.000000 93.384 169.0192
145.000000 93.333 169.0715
147.500000 93.286 169.1790
150.000000 93.238 169.2845
152.500000 93.172 169.3627
155.000000 93.129 169.7171
157.500000 93.073 169.9917
160.000000 93.016 169.8101
162.500000 92.951 169.5928
165.000000 92.876 169.6093
167.500000 92.820 169.7869
170.000000 92.775 169.8905
172.500000 92.745 169.9144
175.000000 92.704 170.0322
177.500000 92.634 170.1853
180.000000 92.561 170.1186
182.500000 92.471 170.0905
185.000000 92.390 170.4501
187.500000 92.363 170.7317
190.000000 92.304 170.5472
192.500000 92.223 170.6831
195.000000 92.203 171.0961
197.500000 92.204 171.5464
200.000000 92.248 172.7162
203.000000 92.357 174.0865
206.000000 92.375 173.8489
209.000000 92.289 172.6344
212.000000 92.143 172.3180
214.000000 92.090 172.5125
218.000000 92.074 172.7265
220.000000 92.067 172.9062
224.000000 92.051 173.2596
227.000000 92.019 173.4149
230.000000 91.977 173.4785
233.000000 91.932 173.4543
236.000000 91.900 173.5577
240.000000 91.873 174.0035
243.000000 91.838 174.3368
247.000000 91.765 174.6475
250.000000 91.749 174.7795
254.000000 91.753 174.9446
258.000000 91.729 175.1932
262.000000 91.685 175.4771
265.000000 91.653 175.6463
269.000000 91.628 175.8359
272.000000 91.607 175.9908
276.000000 91.579 176.2127
280.000000 91.550 176.4377
285.000000 91.506 176.7719
290.000000 91.458 177.0891
295.000000 91.430 177.4351
300.000000 91.407 177.7878
304.000000 91.381 178.0557
307.000000 91.361 178.2760
311.000000 91.337 178.5202
315.000000 91.317 178.7302
320.000000 91.295 179.0672
325.000000 91.269 179.4318
330.000000 91.243 179.7604
335.000000 91.219 -179.9752
340.000000 91.194 -179.6686
345.000000 91.168 -179.3173
350.000000 91.147 -178.9517
355.000000 91.130 -178.6528
360.000000 91.111 -178.3741
365.000000 91.093 -178.0724
370.000000 91.075 -177.7552
375.000000 91.057 -177.4386
382.000000 91.037 -177.0094
387.000000 91.023 -176.7038
395.000000 91.002 -176.2131
400.000000 90.989 -175.9015
406.000000 90.972 -175.5138
412.000000 90.957 -175.1215
418.000000 90.942 -174.7510
425.000000 90.924 -174.3378
431.000000 90.910 -173.9658
437.000000 90.900 -173.5993
444.000000 90.891 -173.1954
450.000000 90.883 -172.8267
455.000000 90.875 -172.5112
462.000000 90.864 -172.0697
468.000000 90.857 -171.7118
475.000000 90.846 -171.2971
482.000000 90.835 -170.8701
487.000000 90.829 -170.5750
494.000000 90.821 -170.1606
500.000000 90.816 -169.8001
508.000000 90.811 -169.3288
515.000000 90.804 -168.9214
522.000000 90.795 -168.5030
530.000000 90.791 -168.0033
538.000000 90.791 -167.5087
545.000000 90.790 -167.0896
552.000000 90.788 -166.6676
560.000000 90.788 -166.2008
570.000000 90.788 -165.6131
580.000000 90.789 -165.0213
590.000000 90.789 -164.4058
600.000000 90.792 -163.7920
608.000000 90.796 -163.3051
615.000000 90.801 -162.8842
622.000000 90.806 -162.4634
630.000000 90.811 -161.9765
640.000000 90.815 -161.3673
650.000000 90.825 -160.7589
660.000000 90.838 -160.1467
670.000000 90.851 -159.5330
680.000000 90.865 -158.9089
690.000000 90.879 -158.2776
700.000000 90.894 -157.6528
710.000000 90.911 -157.0413
720.000000 90.930 -156.4334
730.000000 90.953 -155.8127
740.000000 90.978 -155.1832
750.000000 91.003 -154.5468
762.000000 91.034 -153.7904
775.000000 91.073 -152.9828
788.000000 91.116 -152.1696
800.000000 91.156 -151.4062
812.000000 91.195 -150.6512
825.000000 91.238 -149.8463
838.000000 91.284 -149.0398
850.000000 91.330 -148.2946
862.000000 91.379 -147.5534
875.000000 91.439 -146.7659
885.000000 91.489 -146.1755
900.000000 91.566 -145.2886
912.000000 91.631 -144.5553
925.000000 91.715 -143.7592
938.000000 91.817 -143.0482
950.000000 91.912 -142.5191
962.000000 91.996 -142.0441
975.000000 92.080 -141.5135
988.000000 92.165 -140.9682
1000.000000 92.245 -140.4713
1015.000000 92.346 -139.8918
1030.000000 92.449 -139.3845
1044.000000 92.543 -138.9401
1060.000000 92.649 -138.4419
1075.000000 92.748 -138.0473
1090.000000 92.846 -137.7342
1106.000000 92.952 -137.3938
1120.000000 93.043 -137.1115
1138.000000 93.155 -136.8388
1150.000000 93.227 -136.7019
1172.000000 93.346 -136.5127
1180.000000 93.383 -136.4616
1206.000000 93.474 -136.3535
1220.000000 93.493 -136.2862
1241.000000 93.469 -135.8409
1250.000000 93.454 -135.3434
1265.000000 93.495 -134.0234
1280.000000 93.680 -132.6586
1315.000000 94.226 -132.3071
1320.000000 94.276 -132.4351
1340.000000 94.427 -132.8808
1360.000000 94.539 -133.1490
1380.000000 94.639 -133.2894
1400.000000 94.733 -133.3506
1430.000000 94.870 -133.3614
1450.000000 94.958 -133.3299
1475.000000 95.065 -133.2645
1500.000000 95.173 -133.1855
1525.000000 95.281 -133.0967
1550.000000 95.388 -132.9963
1575.000000 95.496 -132.8962
1600.000000 95.602 -132.7882
1625.000000 95.710 -132.6799
1650.000000 95.820 -132.5785
1675.000000 95.933 -132.4813
1700.000000 96.044 -132.3885
1725.000000 96.156 -132.3029
1750.000000 96.267 -132.2271
1775.000000 96.379 -132.1665
1800.000000 96.490 -132.1261
1825.000000 96.603 -132.1066
1850.000000 96.717 -132.1051
1875.000000 96.830 -132.1218
1900.000000 96.943 -132.1543
1925.000000 97.053 -132.2014
1950.000000 97.161 -132.2666
1975.000000 97.269 -132.3516
2000.000000 97.379 -132.4639
2030.000000 97.514 -132.6489
2060.000000 97.649 -132.8647
2090.000000 97.779 -133.0827
2120.000000 97.903 -133.3101
2140.000000 97.984 -133.4743
2180.000000 98.143 -133.8396
2200.000000 98.221 -134.0374
2240.000000 98.373 -134.4644
2270.000000 98.484 -134.8121
2300.000000 98.592 -135.1837
2330.000000 98.693 -135.5782
2360.000000 98.789 -135.9937
2400.000000 98.910 -136.5804
2430.000000 98.997 -137.0409
2470.000000 99.104 -137.6773
2500.000000 99.178 -138.1718
2540.000000 99.270 -138.8499
2580.000000 99.352 -139.5386
2620.000000 99.422 -140.2328
2650.000000 99.465 -140.7515
2690.000000 99.511 -141.4309
2720.000000 99.536 -141.9269
2760.000000 99.559 -142.5584
2800.000000 99.568 -143.1370
2850.000000 99.558 -143.7531
2900.000000 99.528 -144.1962
2950.000000 99.484 -144.3778
3000.000000 99.440 -144.1939
3040.000000 99.433 -143.7467
3070.000000 99.460 -143.2773
3110.000000 99.560 -142.6350
3150.000000 99.729 -142.2491
3200.000000 99.978 -142.4727
3250.000000 100.180 -143.4316
3300.000000 100.288 -144.7149
3350.000000 100.317 -145.9363
3400.000000 100.295 -146.9049
3450.000000 100.248 -147.5750
3500.000000 100.194 -147.9395
3550.000000 100.153 -148.0082
3600.000000 100.146 -147.8528
3650.000000 100.192 -147.6516
3700.000000 100.287 -147.6406
3750.000000 100.401 -147.9730
3820.000000 100.528 -148.9536
3870.000000 100.574 -149.8288
3950.000000 100.572 -151.2061
4000.000000 100.531 -151.9597
4060.000000 100.455 -152.6763
4120.000000 100.366 -153.1358
4180.000000 100.286 -153.3595
4250.000000 100.217 -153.4537
4310.000000 100.179 -153.5018
4370.000000 100.155 -153.5691
4440.000000 100.139 -153.6715
4500.000000 100.132 -153.7670
4550.000000 100.133 -153.8575
4620.000000 100.147 -154.0321
4680.000000 100.169 -154.2615
4750.000000 100.195 -154.6441
4820.000000 100.213 -155.1461
4870.000000 100.222 -155.5677
4940.000000 100.226 -156.2275
5000.000000 100.218 -156.8428
5080.000000 100.184 -157.7147
5150.000000 100.133 -158.5061
5220.000000 100.064 -159.3071
5300.000000 99.965 -160.2078
5380.000000 99.848 -161.0600
5450.000000 99.732 -161.7441
5520.000000 99.604 -162.3577
5600.000000 99.445 -162.9634
5700.000000 99.231 -163.5687
5800.000000 99.008 -163.9888
5900.000000 98.784 -164.2147
6000.000000 98.566 -164.2543
6080.000000 98.400 -164.1624
6150.000000 98.264 -163.9947
6220.000000 98.139 -163.7547
6300.000000 98.019 -163.4292
6400.000000 97.904 -163.0036
6500.000000 97.818 -162.5582
6600.000000 97.757 -162.0770
6700.000000 97.724 -161.5882
6800.000000 97.720 -161.1379
6900.000000 97.747 -160.7728
7000.000000 97.806 -160.5277
7100.000000 97.899 -160.4365
7200.000000 98.027 -160.5503
7300.000000 98.188 -160.9467
7400.000000 98.374 -161.7115
7500.000000 98.578 -162.9227
7620.000000 98.832 -165.0730
7750.000000 99.085 -168.3894
7880.000000 99.254 -172.8242
8000.000000 99.261 -177.8421
8120.000000 99.068 176.5436
8250.000000 98.621 170.2426
8380.000000 97.935 164.1463
8500.000000 97.100 159.0255
8620.000000 96.079 154.7253
8750.000000 94.776 151.4988
8850.000000 93.666 150.3594
9000.000000 91.929 151.1604
9120.000000 90.576 153.9841
9250.000000 89.256 159.0498
9380.000000 88.191 165.8848
9500.000000 87.530 173.3121
9620.000000 87.257 -178.8661
9750.000000 87.430 -171.0055
9880.000000 88.004 -164.9742
10000.000000 88.719 -161.8011
10150.000000 89.586 -161.2437
10300.000000 90.188 -163.5030
10440.000000 90.435 -166.6848
10600.000000 90.401 -170.0707
10750.000000 90.184 -172.2514
10900.000000 89.903 -173.3566
11060.000000 89.626 -173.5520
11200.000000 89.444 -173.1150
11380.000000 89.324 -172.0418
11500.000000 89.324 -171.1509
11720.000000 89.504 -169.4238
11800.000000 89.633 -168.8263
12060.000000 90.307 -167.2603
12200.000000 90.849 -166.8204
12410.000000 91.944 -167.0800
12500.000000 92.539 -167.6778
12650.000000 93.721 -169.6403
12800.000000 95.138 -173.3926
13150.000000 98.717 164.6804
13200.000000 99.116 159.4479
13400.000000 99.943 134.1118
13600.000000 99.323 107.8687
13800.000000 97.588 88.0716
14000.000000 95.477 75.4894
14300.000000 92.737 64.2254
14500.000000 91.408 58.7783
14750.000000 90.269 52.3367
15000.000000 89.609 45.0309
15250.000000 89.307 36.0687
15500.000000 89.277 24.9435
15750.000000 89.439 10.9419
16000.000000 89.623 -6.8289
16250.000000 89.548 -28.7771
16500.000000 88.969 -53.9148
16750.000000 87.778 -79.8474
17000.000000 86.075 -104.2672
17250.000000 84.104 -126.3917
17500.000000 82.101 -146.7567
17750.000000 80.217 -166.2921
18000.000000 78.519 174.1782
18250.000000 77.031 153.9081
18500.000000 75.744 132.1159
18750.000000 74.636 108.0583
19000.000000 73.656 80.9036
19250.000000 72.702 49.8674
19500.000000 71.636 15.1019
19750.000000 70.420 -19.2705
