* Measurement data measured by REW V5.30.2
* Source: Headset (USB-C to 3.5mm Headphone Jack Adapter), MICROPHONE (Master Volume), L, volume: 0.250
* Format: 512k Log Swept Sine, 1 sweep at -12.0 dBFS with no timing reference
* Dated: Feb 6, 2024 2:41:31 PM
* REW Settings:
*  C-weighting compensation: Off
*  Target level: 75.0 dB
* Note: ; 
* Measurement: Moondrop Kato W1 R
* Smoothing: 1/24 octave
* Frequency Step: 1/48 octave
* Start Frequency: 20.300 Hz
*
* Freq(Hz) SPL(dB) Phase(degrees)
20.299999 96.578 -113.5604
20.600000 96.545 -114.2053
20.900000 96.542 -115.1063
21.200001 96.582 -116.1901
21.400000 96.627 -116.9657
21.799999 96.732 -118.4869
22.000000 96.783 -119.1711
22.400000 96.878 -120.3151
22.700001 96.960 -121.0063
23.000000 97.064 -121.6371
23.299999 97.195 -122.2928
23.600000 97.340 -123.0262
24.000000 97.515 -124.1111
24.299999 97.605 -124.9311
24.700001 97.654 -125.9009
25.000000 97.649 -126.4908
25.400000 97.625 -127.1476
25.799999 97.627 -127.8351
26.200001 97.680 -128.7460
26.500000 97.750 -129.6045
26.900000 97.861 -130.8692
27.200001 97.940 -131.7799
27.600000 98.015 -132.8006
28.000000 98.039 -133.5930
28.500000 97.987 -134.4760
29.000000 97.875 -135.4565
29.500000 97.780 -136.4054
30.000000 97.787 -137.0228
30.400000 97.880 -137.3094
30.700001 97.980 -137.5618
31.100000 98.111 -138.1461
31.500000 98.198 -139.0584
32.000000 98.224 -140.3399
32.500000 98.195 -141.2577
33.000000 98.179 -141.6581
33.500000 98.219 -141.9211
34.000000 98.303 -142.4432
34.500000 98.387 -143.2208
35.000000 98.445 -143.9997
35.500000 98.486 -144.6566
36.000000 98.532 -145.2852
36.500000 98.586 -146.0116
37.000000 98.622 -146.8468
37.500000 98.617 -147.7049
38.200001 98.563 -148.7494
38.700001 98.543 -149.3170
39.500000 98.586 -150.1213
40.000000 98.634 -150.7326
40.599998 98.674 -151.5287
41.200001 98.685 -152.1822
41.799999 98.678 -152.6929
42.500000 98.672 -153.4113
43.099998 98.685 -154.1776
43.700001 98.709 -154.8693
44.400002 98.723 -155.4800
45.000000 98.722 -155.9966
45.500000 98.721 -156.4886
46.200001 98.725 -157.1930
46.799999 98.726 -157.7672
47.500000 98.728 -158.4833
48.200001 98.732 -159.2668
48.700001 98.729 -159.8021
49.400002 98.723 -160.4546
50.000000 98.739 -160.9143
50.799999 98.772 -161.3530
51.500000 98.754 -161.5934
52.200001 98.688 -161.8243
53.000000 98.607 -162.2070
53.799999 98.559 -162.7711
54.500000 98.587 -163.3935
55.200001 98.710 -163.9843
56.000000 98.889 -164.4163
57.000000 98.941 -164.7588
58.000000 98.737 -165.6733
59.000000 98.601 -167.0777
60.000000 98.591 -167.9068
60.799999 98.525 -168.3238
61.500000 98.504 -168.8416
62.200001 98.547 -169.4520
63.000000 98.584 -170.0220
64.000000 98.579 -170.3590
65.000000 98.520 -170.6986
66.000000 98.443 -171.1506
67.000000 98.497 -171.5356
68.000000 98.560 -172.1985
69.000000 98.557 -172.9234
70.000000 98.544 -173.4743
71.000000 98.540 -173.9642
72.000000 98.534 -174.4824
73.000000 98.518 -174.9736
74.000000 98.501 -175.4116
75.000000 98.470 -175.7813
76.199997 98.402 -176.2100
77.500000 98.350 -176.6614
78.800003 98.328 -177.0388
80.000000 98.287 -177.7263
81.199997 98.247 -178.1883
82.500000 98.217 -178.4604
83.800003 98.190 -178.8776
85.000000 98.169 -179.2961
86.199997 98.152 -179.5811
87.500000 98.138 179.9716
88.500000 98.131 179.5189
90.000000 98.105 178.8484
91.199997 98.027 178.5469
92.500000 97.973 178.2323
93.800003 97.939 177.8969
95.000000 97.888 177.5884
96.199997 97.849 177.2001
97.500000 97.822 176.7821
98.800003 97.790 176.5105
100.000000 97.754 176.2982
101.500000 97.709 175.8842
103.000000 97.679 175.5812
104.400002 97.648 175.3220
106.000000 97.612 174.8391
107.500000 97.578 174.4478
109.000000 97.531 174.0862
110.599998 97.508 173.7733
112.000000 97.489 173.5312
113.800003 97.430 173.1088
115.000000 97.371 172.8078
117.199997 97.274 172.2361
118.000000 97.251 172.1754
120.599998 97.233 172.2189
122.000000 97.204 171.9148
124.099998 97.121 171.3432
125.000000 97.080 171.1448
126.500000 97.015 170.9571
128.000000 96.981 170.8819
131.500000 96.937 170.7244
132.000000 96.926 170.6760
134.000000 96.907 170.3821
136.000000 96.906 170.1449
138.000000 96.890 170.0389
140.000000 96.821 169.6855
143.000000 96.688 169.4520
145.000000 96.645 169.2163
147.500000 96.600 169.0764
150.000000 96.513 168.8234
152.500000 96.463 168.4912
155.000000 96.402 168.4457
157.500000 96.333 168.5998
160.000000 96.275 168.4742
162.500000 96.222 168.2394
165.000000 96.128 168.0715
167.500000 96.038 168.0103
170.000000 95.964 167.9850
172.500000 95.898 168.1390
175.000000 95.836 168.2389
177.500000 95.781 168.1783
180.000000 95.673 168.1234
182.500000 95.583 168.4236
185.000000 95.523 168.8904
187.500000 95.528 169.1675
190.000000 95.551 169.2023
192.500000 95.506 168.8571
195.000000 95.426 168.5358
197.500000 95.361 168.2587
200.000000 95.305 167.8932
203.000000 95.262 167.6617
206.000000 95.236 167.7323
209.000000 95.163 167.6579
212.000000 95.097 167.6001
214.000000 95.064 167.6718
218.000000 95.002 167.8787
220.000000 94.971 167.9530
224.000000 94.907 167.9795
227.000000 94.859 168.0194
230.000000 94.816 168.0476
233.000000 94.771 168.0774
236.000000 94.722 168.1463
240.000000 94.664 168.3200
243.000000 94.622 168.4726
247.000000 94.564 168.5671
250.000000 94.519 168.6329
254.000000 94.454 168.7816
258.000000 94.400 168.9700
262.000000 94.338 169.1030
265.000000 94.288 169.2090
269.000000 94.227 169.3546
272.000000 94.183 169.4620
276.000000 94.126 169.6597
280.000000 94.067 169.8587
285.000000 93.994 170.0984
290.000000 93.943 170.3061
295.000000 93.882 170.5748
300.000000 93.826 170.8701
304.000000 93.774 171.0289
307.000000 93.737 171.1184
311.000000 93.696 171.2966
315.000000 93.654 171.5834
320.000000 93.596 171.9755
325.000000 93.541 172.2170
330.000000 93.490 172.4371
335.000000 93.440 172.6903
340.000000 93.398 172.9655
345.000000 93.351 173.2941
350.000000 93.300 173.5956
355.000000 93.251 173.9016
360.000000 93.211 174.2008
365.000000 93.172 174.5188
370.000000 93.130 174.8203
375.000000 93.089 175.1079
382.000000 93.035 175.5476
387.000000 92.996 175.8904
395.000000 92.936 176.3684
400.000000 92.900 176.6789
406.000000 92.864 177.0559
412.000000 92.822 177.4362
418.000000 92.781 177.8326
425.000000 92.734 178.2932
431.000000 92.700 178.7244
437.000000 92.670 179.1445
444.000000 92.634 179.5676
450.000000 92.597 179.9477
455.000000 92.567 -179.7112
462.000000 92.534 -179.2293
468.000000 92.507 -178.8342
475.000000 92.475 -178.3763
482.000000 92.440 -177.8932
487.000000 92.415 -177.5538
494.000000 92.383 -177.0932
500.000000 92.358 -176.6795
508.000000 92.330 -176.1361
515.000000 92.309 -175.6757
522.000000 92.283 -175.2109
530.000000 92.252 -174.6539
538.000000 92.227 -174.0867
545.000000 92.206 -173.6062
552.000000 92.184 -173.1440
560.000000 92.159 -172.6038
570.000000 92.136 -171.9282
580.000000 92.120 -171.2222
590.000000 92.095 -170.5006
600.000000 92.065 -169.8360
608.000000 92.054 -169.3005
615.000000 92.044 -168.7882
622.000000 92.038 -168.2830
630.000000 92.030 -167.7126
640.000000 92.013 -166.9812
650.000000 91.995 -166.2477
660.000000 91.985 -165.5252
670.000000 91.981 -164.7943
680.000000 91.980 -164.0547
690.000000 91.978 -163.2987
700.000000 91.975 -162.5375
710.000000 91.977 -161.7660
720.000000 91.984 -160.9896
730.000000 91.996 -160.2237
740.000000 92.013 -159.4528
750.000000 92.033 -158.6765
762.000000 92.059 -157.7613
775.000000 92.088 -156.7651
788.000000 92.126 -155.7952
800.000000 92.166 -154.9061
812.000000 92.205 -154.0186
825.000000 92.247 -153.0907
838.000000 92.289 -152.1777
850.000000 92.331 -151.3332
862.000000 92.380 -150.5063
875.000000 92.440 -149.6385
885.000000 92.487 -148.9674
900.000000 92.557 -147.9585
912.000000 92.619 -147.1789
925.000000 92.692 -146.3492
938.000000 92.771 -145.5296
950.000000 92.848 -144.7935
962.000000 92.929 -144.0906
975.000000 93.022 -143.3611
988.000000 93.116 -142.6620
1000.000000 93.203 -142.0435
1015.000000 93.311 -141.3062
1030.000000 93.422 -140.6248
1044.000000 93.525 -140.0248
1060.000000 93.649 -139.3907
1075.000000 93.764 -138.8460
1090.000000 93.881 -138.3588
1106.000000 94.007 -137.8979
1120.000000 94.115 -137.5306
1138.000000 94.250 -137.1088
1150.000000 94.339 -136.8657
1172.000000 94.498 -136.4778
1180.000000 94.554 -136.3548
1206.000000 94.730 -136.0140
1220.000000 94.822 -135.8622
1241.000000 94.958 -135.6717
1250.000000 95.016 -135.5985
1265.000000 95.112 -135.4884
1280.000000 95.208 -135.3896
1315.000000 95.427 -135.2133
1320.000000 95.458 -135.1930
1340.000000 95.575 -135.1152
1360.000000 95.685 -135.0390
1380.000000 95.790 -134.9649
1400.000000 95.894 -134.8992
1430.000000 96.046 -134.8019
1450.000000 96.144 -134.7362
1475.000000 96.262 -134.6521
1500.000000 96.372 -134.5553
1525.000000 96.482 -134.4610
1550.000000 96.593 -134.3682
1575.000000 96.705 -134.2720
1600.000000 96.815 -134.1750
1625.000000 96.924 -134.0768
1650.000000 97.032 -133.9721
1675.000000 97.142 -133.8618
1700.000000 97.256 -133.7509
1725.000000 97.374 -133.6455
1750.000000 97.493 -133.5580
1775.000000 97.613 -133.5053
1800.000000 97.730 -133.4896
1825.000000 97.844 -133.4891
1850.000000 97.958 -133.4961
1875.000000 98.076 -133.5113
1900.000000 98.195 -133.5468
1925.000000 98.315 -133.6195
1950.000000 98.430 -133.7217
1975.000000 98.540 -133.8433
2000.000000 98.648 -133.9815
2030.000000 98.782 -134.1746
2060.000000 98.918 -134.3913
2090.000000 99.049 -134.6261
2120.000000 99.176 -134.8835
2140.000000 99.259 -135.0737
2180.000000 99.426 -135.5032
2200.000000 99.508 -135.7413
2240.000000 99.667 -136.2672
2270.000000 99.780 -136.6927
2300.000000 99.889 -137.1433
2330.000000 99.992 -137.6214
2360.000000 100.089 -138.1225
2400.000000 100.209 -138.8224
2430.000000 100.293 -139.3695
2470.000000 100.398 -140.1211
2500.000000 100.469 -140.6938
2540.000000 100.555 -141.4539
2580.000000 100.636 -142.1988
2620.000000 100.714 -142.9403
2650.000000 100.768 -143.5124
2690.000000 100.830 -144.3234
2720.000000 100.865 -144.9597
2760.000000 100.894 -145.8105
2800.000000 100.902 -146.6197
2850.000000 100.883 -147.5105
2900.000000 100.837 -148.1892
2950.000000 100.775 -148.5511
3000.000000 100.720 -148.4830
3040.000000 100.708 -148.0966
3070.000000 100.738 -147.6775
3110.000000 100.848 -147.1391
3150.000000 101.029 -146.9212
3200.000000 101.290 -147.4303
3250.000000 101.500 -148.7400
3300.000000 101.609 -150.4126
3350.000000 101.632 -152.0393
3400.000000 101.607 -153.4558
3450.000000 101.560 -154.6633
3500.000000 101.499 -155.7275
3550.000000 101.422 -156.6718
3600.000000 101.332 -157.4846
3650.000000 101.235 -158.1534
3700.000000 101.135 -158.6759
3750.000000 101.037 -159.0565
3820.000000 100.914 -159.3793
3870.000000 100.847 -159.5065
3950.000000 100.780 -159.7204
4000.000000 100.751 -159.9663
4060.000000 100.708 -160.3948
4120.000000 100.650 -160.9083
4180.000000 100.576 -161.4325
4250.000000 100.469 -161.9793
4310.000000 100.365 -162.3610
4370.000000 100.257 -162.6536
4440.000000 100.129 -162.8960
4500.000000 100.020 -163.0285
4550.000000 99.935 -163.0857
4620.000000 99.826 -163.0984
4680.000000 99.742 -163.0874
4750.000000 99.652 -163.0924
4820.000000 99.566 -163.1328
4870.000000 99.504 -163.1755
4940.000000 99.415 -163.2395
5000.000000 99.335 -163.2841
5080.000000 99.224 -163.3152
5150.000000 99.128 -163.3236
5220.000000 99.034 -163.3299
5300.000000 98.928 -163.3514
5380.000000 98.823 -163.3994
5450.000000 98.733 -163.4633
5520.000000 98.644 -163.5449
5600.000000 98.538 -163.6686
5700.000000 98.395 -163.8846
5800.000000 98.236 -164.1557
5900.000000 98.053 -164.4392
6000.000000 97.837 -164.6593
6080.000000 97.640 -164.7106
6150.000000 97.453 -164.6051
6220.000000 97.257 -164.3229
6300.000000 97.038 -163.7512
6400.000000 96.797 -162.6466
6500.000000 96.611 -161.1605
6600.000000 96.490 -159.4150
6700.000000 96.441 -157.5516
6800.000000 96.462 -155.6780
6900.000000 96.553 -153.8880
7000.000000 96.709 -152.2598
7100.000000 96.930 -150.8641
7200.000000 97.214 -149.7724
7300.000000 97.557 -149.0511
7400.000000 97.955 -148.7577
7500.000000 98.407 -148.9734
7620.000000 99.020 -150.1142
7750.000000 99.737 -152.8536
7880.000000 100.420 -157.5985
8000.000000 100.892 -163.8962
8120.000000 101.082 -171.7256
8250.000000 100.891 178.9647
8380.000000 100.285 170.0625
8500.000000 99.426 163.1724
8620.000000 98.387 157.9862
8750.000000 97.177 154.2630
8850.000000 96.245 152.5455
9000.000000 94.910 151.4119
9120.000000 93.923 151.4397
9250.000000 92.943 152.1329
9380.000000 92.054 153.3256
9500.000000 91.310 154.7451
9620.000000 90.638 156.3847
9750.000000 89.988 158.3319
9880.000000 89.409 160.3931
10000.000000 88.937 162.3539
10150.000000 88.430 164.8413
10300.000000 88.008 167.3251
10440.000000 87.679 169.5966
10600.000000 87.371 172.1063
10750.000000 87.143 174.3570
10900.000000 86.968 176.4907
11060.000000 86.837 178.6272
11200.000000 86.763 -179.6074
11380.000000 86.724 -177.4469
11500.000000 86.741 -176.0752
11720.000000 86.874 -173.7235
11800.000000 86.960 -172.9300
12060.000000 87.403 -170.6666
12200.000000 87.761 -169.7464
12410.000000 88.491 -168.9772
12500.000000 88.887 -168.9573
12650.000000 89.676 -169.4972
12800.000000 90.632 -171.0068
13150.000000 93.407 178.9368
13200.000000 93.824 176.3704
13400.000000 95.306 162.3108
13600.000000 96.089 142.5761
13800.000000 95.838 121.0355
14000.000000 94.688 102.8073
14300.000000 92.301 84.8657
14500.000000 90.839 77.2026
14750.000000 89.423 69.7131
15000.000000 88.469 62.8138
15250.000000 87.916 55.3919
15500.000000 87.714 46.6880
15750.000000 87.813 35.9528
16000.000000 88.097 22.2629
16250.000000 88.384 4.5535
16500.000000 88.441 -18.0767
16750.000000 87.852 -45.0493
17000.000000 86.104 -69.7889
17250.000000 83.947 -86.3255
17500.000000 82.571 -103.1758
17750.000000 81.425 -122.1366
18000.000000 80.312 -141.6449
18250.000000 79.350 -161.9035
18500.000000 78.611 176.2457
18750.000000 78.093 151.8249
19000.000000 77.744 123.7287
19250.000000 77.448 91.0292
19500.000000 77.043 53.8421
19750.000000 76.436 16.2751
20000.000000 75.908 -7.9208
