* Measurement data measured by REW V5.30.9
* Source: Headset (JA3 HIFI AUDIO(CX31993)), MICROPHONE (Master Volume), L, volume: 0.250
* Format: 512k Log Swept Sine, 1 sweep at -13.0 dBFS with no timing reference
* Dated: Feb 24, 2024 2:11:56 PM
* REW Settings:
*  C-weighting compensation: Off
*  Target level: 75.0 dB
* Note: ; 
* Measurement: SeeAudio Yume Midnight R
* Smoothing: 1/12 octave
* Frequency Step: 1/48 octave
* Start Frequency: 1.000 Hz
*
* Freq(Hz) SPL(dB) Phase(degrees)
1.000000 83.282 -15.5822
1.015000 83.509 -16.4610
1.030000 83.734 -17.3327
1.044000 83.941 -18.1420
1.060000 84.176 -19.0640
1.075000 84.395 -19.9276
1.090000 84.611 -20.7924
1.106000 84.839 -21.7178
1.120000 85.035 -22.5303
1.138000 85.282 -23.5775
1.150000 85.444 -24.2760
1.172000 85.732 -25.5535
1.180000 85.835 -26.0163
1.206000 86.161 -27.5101
1.220000 86.332 -28.3063
1.241000 86.582 -29.4874
1.250000 86.688 -29.9883
1.265000 86.861 -30.8154
1.280000 87.031 -31.6323
1.315000 87.418 -33.4966
1.320000 87.472 -33.7579
1.340000 87.685 -34.7907
1.360000 87.895 -35.8029
1.380000 88.102 -36.7947
1.400000 88.305 -37.7662
1.430000 88.606 -39.1874
1.450000 88.803 -40.1130
1.475000 89.045 -41.2509
1.500000 89.282 -42.3739
1.525000 89.512 -43.4859
1.550000 89.735 -44.5875
1.575000 89.951 -45.6779
1.600000 90.162 -46.7562
1.625000 90.367 -47.8218
1.650000 90.567 -48.8742
1.675000 90.762 -49.9133
1.700000 90.953 -50.9391
1.725000 91.139 -51.9517
1.750000 91.322 -52.9517
1.775000 91.502 -53.9399
1.800000 91.678 -54.9179
1.825000 91.852 -55.8886
1.850000 92.021 -56.8559
1.875000 92.187 -57.8231
1.900000 92.349 -58.7911
1.925000 92.506 -59.7585
1.950000 92.659 -60.7232
1.975000 92.808 -61.6828
2.000000 92.953 -62.6351
2.030000 93.123 -63.7655
2.060000 93.289 -64.8796
2.090000 93.450 -65.9749
2.120000 93.608 -67.0497
2.140000 93.711 -67.7545
2.180000 93.913 -69.1376
2.200000 94.012 -69.8183
2.240000 94.204 -71.1667
2.270000 94.344 -72.1711
2.300000 94.479 -73.1704
2.330000 94.610 -74.1630
2.360000 94.737 -75.1470
2.400000 94.902 -76.4416
2.430000 95.022 -77.3969
2.470000 95.177 -78.6462
2.500000 95.290 -79.5634
2.540000 95.438 -80.7600
2.580000 95.581 -81.9309
2.620000 95.720 -83.0835
2.650000 95.820 -83.9393
2.690000 95.950 -85.0692
2.720000 96.044 -85.9075
2.760000 96.166 -87.0111
2.800000 96.284 -88.0960
2.850000 96.427 -89.4225
2.900000 96.565 -90.7140
2.950000 96.699 -91.9735
3.000000 96.827 -93.2084
3.040000 96.926 -94.1818
3.070000 96.998 -94.9037
3.110000 97.092 -95.8545
3.150000 97.183 -96.7906
3.200000 97.293 -97.9381
3.250000 97.400 -99.0585
3.300000 97.504 -100.1525
3.350000 97.605 -101.2231
3.400000 97.703 -102.2738
3.450000 97.797 -103.3065
3.500000 97.888 -104.3213
3.550000 97.976 -105.3178
3.600000 98.062 -106.2956
3.650000 98.145 -107.2551
3.700000 98.226 -108.1980
3.750000 98.305 -109.1260
3.820000 98.411 -110.4018
3.870000 98.485 -111.2964
3.950000 98.597 -112.6974
4.000000 98.665 -113.5540
4.060000 98.744 -114.5638
4.120000 98.820 -115.5559
4.180000 98.894 -116.5312
4.250000 98.976 -117.6477
4.310000 99.044 -118.5853
4.370000 99.109 -119.5048
4.440000 99.182 -120.5560
4.500000 99.241 -121.4402
4.550000 99.290 -122.1653
4.620000 99.354 -123.1620
4.680000 99.407 -123.9978
4.750000 99.467 -124.9507
4.820000 99.524 -125.8803
4.870000 99.564 -126.5309
4.940000 99.617 -127.4236
5.000000 99.660 -128.1718
5.080000 99.717 -129.1444
5.150000 99.765 -129.9719
5.220000 99.812 -130.7779
5.300000 99.863 -131.6748
5.380000 99.914 -132.5479
5.450000 99.958 -133.2935
5.520000 100.001 -134.0226
5.600000 100.050 -134.8363
5.700000 100.112 -135.8281
5.800000 100.173 -136.7976
5.900000 100.235 -137.7497
6.000000 100.297 -138.6868
6.080000 100.346 -139.4285
6.150000 100.390 -140.0742
6.220000 100.433 -140.7188
6.300000 100.482 -141.4551
6.400000 100.543 -142.3757
6.500000 100.603 -143.2983
6.600000 100.660 -144.2249
6.700000 100.715 -145.1568
6.800000 100.768 -146.0931
6.900000 100.817 -147.0317
7.000000 100.862 -147.9717
7.100000 100.903 -148.9120
7.200000 100.940 -149.8496
7.300000 100.972 -150.7805
7.400000 101.000 -151.7022
7.500000 101.023 -152.6131
7.620000 101.046 -153.6868
7.750000 101.063 -154.8201
7.880000 101.075 -155.9190
8.000000 101.081 -156.8996
8.120000 101.083 -157.8448
8.250000 101.081 -158.8280
8.380000 101.077 -159.7691
8.500000 101.072 -160.6007
8.620000 101.065 -161.3981
8.750000 101.058 -162.2262
8.850000 101.053 -162.8397
9.000000 101.045 -163.7249
9.120000 101.040 -164.4063
9.250000 101.036 -165.1216
9.380000 101.033 -165.8160
9.500000 101.032 -166.4419
9.620000 101.032 -167.0560
9.750000 101.031 -167.7107
9.880000 101.028 -168.3576
10.000000 101.021 -168.9505
10.150000 101.009 -169.6889
10.300000 100.994 -170.4283
10.440000 100.977 -171.1219
10.600000 100.957 -171.9211
10.750000 100.937 -172.6778
10.900000 100.916 -173.4413
11.060000 100.891 -174.2610
11.200000 100.867 -174.9799
11.380000 100.832 -175.8997
11.500000 100.807 -176.5061
11.720000 100.754 -177.5928
11.800000 100.734 -177.9772
12.060000 100.664 -179.1778
12.200000 100.627 -179.7904
12.410000 100.576 179.3344
12.500000 100.558 178.9736
12.650000 100.532 178.3880
12.800000 100.512 177.8167
13.150000 100.480 176.5044
13.200000 100.476 176.3162
13.400000 100.464 175.5561
13.600000 100.451 174.7823
13.800000 100.436 173.9980
14.000000 100.416 173.2123
14.300000 100.378 172.0596
14.500000 100.347 171.3273
14.750000 100.306 170.4677
15.000000 100.265 169.6727
15.250000 100.228 168.9316
15.500000 100.197 168.2243
15.750000 100.173 167.5300
16.000000 100.152 166.8354
16.250000 100.133 166.1388
16.500000 100.115 165.4482
16.750000 100.095 164.7762
17.000000 100.075 164.1323
17.250000 100.057 163.5170
17.500000 100.043 162.9207
17.750000 100.035 162.3263
18.000000 100.031 161.7154
18.250000 100.029 161.0744
18.500000 100.027 160.3975
18.750000 100.021 159.6866
19.000000 100.011 158.9483
19.250000 99.995 158.1891
19.500000 99.972 157.4138
19.750000 99.942 156.6258
20.000000 99.904 155.8308
20.299999 99.843 154.8859
20.600000 99.764 153.9878
20.900000 99.668 153.1891
21.200001 99.562 152.5383
21.400000 99.492 152.1988
21.799999 99.369 151.7167
22.000000 99.322 151.5347
22.400000 99.264 151.1548
22.700001 99.240 150.7638
23.000000 99.221 150.2481
23.299999 99.194 149.6351
23.600000 99.154 148.9866
24.000000 99.087 148.1708
24.299999 99.039 147.6231
24.700001 98.991 146.9195
25.000000 98.968 146.3363
25.400000 98.941 145.4117
25.799999 98.891 144.3624
26.200001 98.806 143.3571
26.500000 98.726 142.7467
26.900000 98.624 142.1923
27.200001 98.571 141.9290
27.600000 98.542 141.6168
28.000000 98.550 141.1594
28.500000 98.563 140.2720
29.000000 98.536 139.2100
29.500000 98.468 138.2742
30.000000 98.395 137.5801
30.400000 98.354 137.1085
30.700001 98.333 136.7274
31.100000 98.307 136.1288
31.500000 98.271 135.4335
32.000000 98.199 134.5226
32.500000 98.107 133.6652
33.000000 98.007 132.8827
33.500000 97.906 132.1483
34.000000 97.805 131.4718
34.500000 97.712 130.8878
35.000000 97.642 130.3615
35.500000 97.601 129.7725
36.000000 97.569 129.0460
36.500000 97.522 128.2726
37.000000 97.461 127.6364
37.500000 97.412 127.2091
38.200001 97.398 126.6935
38.700001 97.399 126.1960
39.500000 97.359 125.4218
40.000000 97.334 125.1114
40.599998 97.339 124.6536
41.200001 97.337 123.7602
41.799999 97.247 122.6204
42.500000 97.042 121.7328
43.099998 96.887 121.5011
43.700001 96.805 121.2767
44.400002 96.742 120.6421
45.000000 96.680 119.9946
45.500000 96.646 119.4749
46.200001 96.635 118.5335
46.799999 96.601 117.4839
47.500000 96.494 116.5162
48.200001 96.402 116.1781
48.700001 96.389 116.0325
49.400002 96.394 115.5051
50.000000 96.355 114.8690
50.799999 96.261 114.2568
51.500000 96.206 113.7772
52.200001 96.162 112.9433
53.000000 96.067 111.6363
53.799999 95.931 110.2413
54.500000 95.787 109.0308
55.200001 95.608 108.1150
56.000000 95.423 107.9597
57.000000 95.425 108.6459
58.000000 95.634 108.4069
59.000000 95.754 107.1216
60.000000 95.725 105.8803
60.799999 95.628 105.1552
61.500000 95.509 104.7305
62.200001 95.377 104.4467
63.000000 95.227 104.1712
64.000000 95.051 103.7925
65.000000 94.910 103.2840
66.000000 94.803 102.5661
67.000000 94.714 101.7401
68.000000 94.639 100.9769
69.000000 94.584 100.3243
70.000000 94.539 99.6711
71.000000 94.477 99.0272
72.000000 94.399 98.4916
73.000000 94.330 98.0718
74.000000 94.293 97.5728
75.000000 94.269 96.7712
76.199997 94.201 95.6217
77.500000 94.092 94.6839
78.800003 93.996 94.2457
80.000000 93.955 94.1889
81.199997 93.971 94.0392
82.500000 93.994 93.3792
83.800003 93.962 92.3010
85.000000 93.875 91.1887
86.199997 93.753 90.1664
87.500000 93.616 89.2313
88.500000 93.518 88.6121
90.000000 93.384 87.8969
91.199997 93.305 87.5401
92.500000 93.255 87.1403
93.800003 93.211 86.5764
95.000000 93.157 85.9637
96.199997 93.094 85.2945
97.500000 93.021 84.5082
98.800003 92.946 83.7353
100.000000 92.893 83.1038
101.500000 92.857 82.3863
103.000000 92.841 81.7077
104.400002 92.820 81.1270
106.000000 92.775 80.5258
107.500000 92.711 79.9743
109.000000 92.636 79.4188
110.599998 92.567 78.8116
112.000000 92.521 78.1920
113.800003 92.445 77.3333
115.000000 92.382 76.8861
117.199997 92.273 76.1609
118.000000 92.237 75.8592
120.599998 92.146 74.7723
122.000000 92.122 74.1631
124.099998 92.102 73.3416
125.000000 92.091 73.0356
126.500000 92.062 72.5601
128.000000 92.019 72.0989
131.500000 91.901 70.9202
132.000000 91.886 70.7461
134.000000 91.827 70.1035
136.000000 91.770 69.5492
138.000000 91.712 69.0335
140.000000 91.662 68.5115
143.000000 91.620 67.6041
145.000000 91.592 67.0039
147.500000 91.540 66.3575
150.000000 91.475 65.7444
152.500000 91.419 65.0555
155.000000 91.372 64.2880
157.500000 91.318 63.5837
160.000000 91.259 62.9811
162.500000 91.202 62.3938
165.000000 91.148 61.7746
167.500000 91.094 61.1024
170.000000 91.034 60.3937
172.500000 90.972 59.6904
175.000000 90.916 59.0107
177.500000 90.856 58.3768
180.000000 90.788 57.8132
182.500000 90.720 57.2500
185.000000 90.670 56.7009
187.500000 90.653 56.3340
190.000000 90.668 56.1434
192.500000 90.685 55.9633
195.000000 90.685 55.8398
197.500000 90.664 55.9414
200.000000 90.624 56.2271
203.000000 90.562 56.3332
206.000000 90.498 55.9494
209.000000 90.459 55.5544
212.000000 90.468 55.0841
214.000000 90.476 54.4467
218.000000 90.439 52.6950
220.000000 90.405 51.9292
224.000000 90.365 50.9719
227.000000 90.363 50.5469
230.000000 90.359 50.2504
233.000000 90.346 50.0014
236.000000 90.327 49.6346
240.000000 90.303 48.9384
243.000000 90.282 48.4019
247.000000 90.250 47.7107
250.000000 90.231 47.2251
254.000000 90.211 46.6768
258.000000 90.192 46.2224
262.000000 90.179 45.8429
265.000000 90.165 45.5868
269.000000 90.130 45.2307
272.000000 90.093 44.9479
276.000000 90.044 44.5888
280.000000 90.002 44.2505
285.000000 89.965 43.9257
290.000000 89.958 43.6216
295.000000 89.964 43.1445
300.000000 89.968 42.6282
304.000000 89.954 42.3348
307.000000 89.930 42.1557
311.000000 89.890 41.8804
315.000000 89.854 41.5469
320.000000 89.824 41.1418
325.000000 89.809 40.8464
330.000000 89.796 40.7522
335.000000 89.805 40.7972
340.000000 89.835 40.7548
345.000000 89.846 40.4797
350.000000 89.809 40.0288
355.000000 89.746 39.4756
360.000000 89.704 38.8910
365.000000 89.695 38.4715
370.000000 89.690 38.2406
375.000000 89.676 38.0957
382.000000 89.660 37.9422
387.000000 89.659 37.7529
395.000000 89.650 37.4257
400.000000 89.642 37.2714
406.000000 89.633 37.1099
412.000000 89.625 36.9096
418.000000 89.609 36.5584
425.000000 89.566 36.2171
431.000000 89.544 36.1218
437.000000 89.551 35.9612
444.000000 89.571 35.6313
450.000000 89.578 35.4199
455.000000 89.575 35.3369
462.000000 89.558 35.2891
468.000000 89.538 35.2321
475.000000 89.516 35.1256
482.000000 89.505 35.0361
487.000000 89.501 34.9961
494.000000 89.499 34.9557
500.000000 89.501 34.9111
508.000000 89.503 34.8174
515.000000 89.498 34.7604
522.000000 89.484 34.7254
530.000000 89.465 34.6489
538.000000 89.451 34.5882
545.000000 89.440 34.5716
552.000000 89.433 34.5573
560.000000 89.426 34.5353
570.000000 89.413 34.5432
580.000000 89.399 34.5983
590.000000 89.381 34.6185
600.000000 89.347 34.6003
608.000000 89.300 34.5989
615.000000 89.259 34.7405
622.000000 89.247 35.0234
630.000000 89.269 35.2978
640.000000 89.302 35.5070
650.000000 89.318 35.7032
660.000000 89.327 35.9218
670.000000 89.341 36.2129
680.000000 89.362 36.5127
690.000000 89.377 36.7997
700.000000 89.383 37.1244
710.000000 89.391 37.4493
720.000000 89.405 37.7600
730.000000 89.424 38.0732
740.000000 89.448 38.3829
750.000000 89.476 38.6869
762.000000 89.512 39.0637
775.000000 89.551 39.5174
788.000000 89.592 40.0125
800.000000 89.634 40.4739
812.000000 89.680 40.9213
825.000000 89.735 41.3695
838.000000 89.793 41.7882
850.000000 89.847 42.1646
862.000000 89.901 42.5383
875.000000 89.961 42.9547
885.000000 90.011 43.2836
900.000000 90.091 43.7620
912.000000 90.158 44.1126
925.000000 90.232 44.4836
938.000000 90.309 44.8622
950.000000 90.383 45.1993
962.000000 90.461 45.5089
975.000000 90.550 45.8138
988.000000 90.641 46.0954
1000.000000 90.725 46.3393
1015.000000 90.829 46.6205
1030.000000 90.932 46.8564
1044.000000 91.029 47.0320
1060.000000 91.141 47.1785
1075.000000 91.247 47.2753
1090.000000 91.353 47.3439
1106.000000 91.463 47.3779
1120.000000 91.560 47.3661
1138.000000 91.684 47.2989
1150.000000 91.764 47.2303
1172.000000 91.904 47.0640
1180.000000 91.952 46.9909
1206.000000 92.099 46.7101
1220.000000 92.175 46.5356
1241.000000 92.286 46.2468
1250.000000 92.333 46.1146
1265.000000 92.412 45.8894
1280.000000 92.489 45.6635
1315.000000 92.660 45.1405
1320.000000 92.683 45.0672
1340.000000 92.773 44.7806
1360.000000 92.858 44.5031
1380.000000 92.938 44.2321
1400.000000 93.015 43.9625
1430.000000 93.126 43.5611
1450.000000 93.194 43.3042
1475.000000 93.275 43.0072
1500.000000 93.353 42.7392
1525.000000 93.429 42.4920
1550.000000 93.503 42.2590
1575.000000 93.577 42.0402
1600.000000 93.651 41.8367
1625.000000 93.726 41.6472
1650.000000 93.802 41.4682
1675.000000 93.878 41.3004
1700.000000 93.956 41.1385
1725.000000 94.034 40.9739
1750.000000 94.113 40.8127
1775.000000 94.193 40.6561
1800.000000 94.273 40.4985
1825.000000 94.354 40.3355
1850.000000 94.436 40.1662
1875.000000 94.518 39.9913
1900.000000 94.600 39.8099
1925.000000 94.682 39.6223
1950.000000 94.766 39.4268
1975.000000 94.851 39.2217
2000.000000 94.937 39.0062
2030.000000 95.043 38.7317
2060.000000 95.150 38.4356
2090.000000 95.259 38.1164
2120.000000 95.367 37.7742
2140.000000 95.440 37.5312
2180.000000 95.583 37.0048
2200.000000 95.654 36.7191
2240.000000 95.794 36.0971
2270.000000 95.897 35.5870
2300.000000 95.996 35.0427
2330.000000 96.090 34.4668
2360.000000 96.180 33.8615
2400.000000 96.291 33.0171
2430.000000 96.368 32.3665
2470.000000 96.465 31.4870
2500.000000 96.535 30.8157
2540.000000 96.623 29.8976
2580.000000 96.704 28.9540
2620.000000 96.777 27.9894
2650.000000 96.827 27.2516
2690.000000 96.886 26.2476
2720.000000 96.924 25.4835
2760.000000 96.964 24.4595
2800.000000 96.996 23.4360
2850.000000 97.024 22.1497
2900.000000 97.038 20.8375
2950.000000 97.029 19.5155
3000.000000 96.998 18.2488
3040.000000 96.961 17.3170
3070.000000 96.931 16.6724
3110.000000 96.892 15.8693
3150.000000 96.858 15.0862
3200.000000 96.820 14.0477
3250.000000 96.773 12.8912
3300.000000 96.701 11.6603
3350.000000 96.596 10.4443
3400.000000 96.463 9.3212
3450.000000 96.307 8.3409
3500.000000 96.134 7.5366
3550.000000 95.952 6.9373
3600.000000 95.767 6.5531
3650.000000 95.587 6.3755
3700.000000 95.420 6.3880
3750.000000 95.276 6.5565
3820.000000 95.119 6.9469
3870.000000 95.040 7.2518
3950.000000 94.962 7.6428
4000.000000 94.935 7.7745
4060.000000 94.914 7.7913
4120.000000 94.902 7.6442
4180.000000 94.892 7.3271
4250.000000 94.877 6.7332
4310.000000 94.853 6.0214
4370.000000 94.811 5.1161
4440.000000 94.720 3.8295
4500.000000 94.591 2.5836
4550.000000 94.436 1.5256
4620.000000 94.136 0.2288
4680.000000 93.812 -0.4745
4750.000000 93.390 -0.5647
4820.000000 92.980 0.2039
4870.000000 92.727 1.1799
4940.000000 92.452 2.8881
5000.000000 92.291 4.4419
5080.000000 92.161 6.3773
5150.000000 92.100 7.8361
5220.000000 92.065 9.0679
5300.000000 92.042 10.2416
5380.000000 92.025 11.2357
5450.000000 92.013 12.0154
5520.000000 92.003 12.7472
5600.000000 91.994 13.5493
5700.000000 91.989 14.5210
5800.000000 91.996 15.4688
5900.000000 92.014 16.4011
6000.000000 92.045 17.3342
6080.000000 92.081 18.0918
6150.000000 92.123 18.7688
6220.000000 92.177 19.4642
6300.000000 92.257 20.2860
6400.000000 92.393 21.3483
6500.000000 92.573 22.4230
6600.000000 92.800 23.4741
6700.000000 93.075 24.4691
6800.000000 93.404 25.3743
6900.000000 93.795 26.1437
7000.000000 94.259 26.7040
7100.000000 94.806 26.9321
7200.000000 95.441 26.6549
7300.000000 96.156 25.6583
7400.000000 96.934 23.7050
7500.000000 97.739 20.5695
7620.000000 98.662 15.0278
7750.000000 99.472 6.8331
7880.000000 99.924 -3.1445
8000.000000 99.918 -13.0402
8120.000000 99.485 -22.5525
8250.000000 98.614 -31.3931
8380.000000 97.476 -38.0681
8500.000000 96.328 -42.1848
8620.000000 95.191 -44.5402
8750.000000 94.050 -45.4976
8850.000000 93.264 -45.3813
9000.000000 92.248 -44.2426
9120.000000 91.576 -42.7704
9250.000000 90.985 -40.8581
9380.000000 90.524 -38.8162
9500.000000 90.202 -36.9608
9620.000000 89.967 -35.2438
9750.000000 89.795 -33.6423
9880.000000 89.694 -32.4050
10000.000000 89.647 -31.6573
10150.000000 89.625 -31.3202
10300.000000 89.599 -31.6531
10440.000000 89.531 -32.4851
10600.000000 89.359 -33.8176
10750.000000 89.083 -35.1083
10900.000000 88.695 -36.0740
11060.000000 88.187 -36.3640
11200.000000 87.706 -35.7563
11380.000000 87.130 -33.7551
11500.000000 86.820 -31.8541
11720.000000 86.455 -27.9250
11800.000000 86.385 -26.5317
12060.000000 86.326 -22.7101
12200.000000 86.359 -21.2430
12410.000000 86.427 -19.8197
12500.000000 86.449 -19.4490
12650.000000 86.460 -19.0495
12800.000000 86.424 -18.7866
13150.000000 86.139 -17.5870
13200.000000 86.084 -17.2429
13400.000000 85.882 -15.2915
13600.000000 85.782 -12.5908
13800.000000 85.850 -9.7834
14000.000000 86.072 -7.7059
14300.000000 86.483 -6.9724
14500.000000 86.661 -7.9072
14750.000000 86.692 -9.9311
15000.000000 86.514 -12.3446
15250.000000 86.121 -14.9495
15500.000000 85.455 -17.3418
15750.000000 84.475 -18.4623
16000.000000 83.255 -17.0710
16250.000000 81.973 -12.6106
16500.000000 80.833 -5.5679
16750.000000 79.971 2.9349
17000.000000 79.423 11.8990
17250.000000 79.175 20.8729
17500.000000 79.232 29.6988
17750.000000 79.629 37.9124
18000.000000 80.349 44.4903
18250.000000 81.256 48.4903
18500.000000 82.164 49.8124
18750.000000 82.932 49.1474
19000.000000 83.517 47.3939
19250.000000 83.942 45.0976
19500.000000 84.228 42.2347
19750.000000 84.333 38.4504
20000.000000 84.138 33.5470
20300.000000 83.315 26.6880
20600.000000 81.707 20.1040
20900.000000 79.314 15.2589
21200.000000 76.246 12.9321
21400.000000 73.894 12.7759
21800.000000 68.611 14.9546
22000.000000 65.733 16.6997
22400.000000 59.626 20.0847
22700.000000 54.926 21.6619
23000.000000 50.941 22.3109
23300.000000 49.841 22.5867
23600.000000 51.478 22.6409
24000.000000 53.318 23.2573
