* Measurement data measured by REW V5.30.9
* Source: Headset (JA3 HIFI AUDIO(CX31993)), MICROPHONE (Master Volume), L, volume: 0.250
* Format: 512k Log Swept Sine, 1 sweep at -13.0 dBFS with no timing reference
* Dated: Feb 24, 2024 12:27:20 PM
* REW Settings:
*  C-weighting compensation: Off
*  Target level: 75.0 dB
* Note: ; 
* Measurement: Simgot EA1000 L
* Smoothing: 1/12 octave
* Frequency Step: 1/48 octave
* Start Frequency: 1.000 Hz
*
* Freq(Hz) SPL(dB) Phase(degrees)
1.000000 59.859 18.0598
1.015000 59.976 18.6506
1.030000 60.096 19.2129
1.044000 60.211 19.7100
1.060000 60.346 20.2438
1.075000 60.476 20.7106
1.090000 60.609 21.1472
1.106000 60.756 21.5862
1.120000 60.890 21.9549
1.138000 61.069 22.4144
1.150000 61.193 22.7123
1.172000 61.429 23.2388
1.180000 61.517 23.4230
1.206000 61.814 23.9897
1.220000 61.979 24.2724
1.241000 62.231 24.6634
1.250000 62.341 24.8181
1.265000 62.526 25.0577
1.280000 62.714 25.2737
1.315000 63.156 25.6816
1.320000 63.220 25.7285
1.340000 63.475 25.8871
1.360000 63.729 25.9986
1.380000 63.982 26.0624
1.400000 64.233 26.0785
1.430000 64.602 26.0155
1.450000 64.844 25.9203
1.475000 65.142 25.7556
1.500000 65.439 25.5590
1.525000 65.735 25.3424
1.550000 66.031 25.1078
1.575000 66.328 24.8524
1.600000 66.624 24.5731
1.625000 66.920 24.2668
1.650000 67.214 23.9307
1.675000 67.507 23.5625
1.700000 67.797 23.1604
1.725000 68.084 22.7227
1.750000 68.369 22.2486
1.775000 68.649 21.7376
1.800000 68.926 21.1912
1.825000 69.198 20.6139
1.850000 69.467 20.0139
1.875000 69.733 19.4001
1.900000 69.995 18.7778
1.925000 70.254 18.1491
1.950000 70.510 17.5142
1.975000 70.764 16.8725
2.000000 71.015 16.2232
2.030000 71.312 15.4326
2.060000 71.605 14.6282
2.090000 71.895 13.8084
2.120000 72.181 12.9719
2.140000 72.369 12.4046
2.180000 72.741 11.2479
2.200000 72.924 10.6604
2.240000 73.286 9.4744
2.270000 73.552 8.5809
2.300000 73.815 7.6868
2.330000 74.073 6.7930
2.360000 74.328 5.8996
2.400000 74.662 4.7084
2.430000 74.909 3.8142
2.470000 75.233 2.6194
2.500000 75.473 1.7205
2.540000 75.787 0.5172
2.580000 76.096 -0.6907
2.620000 76.400 -1.9001
2.650000 76.623 -2.8059
2.690000 76.916 -4.0092
2.720000 77.132 -4.9071
2.760000 77.416 -6.0973
2.800000 77.694 -7.2787
2.850000 78.035 -8.7435
2.900000 78.369 -10.1965
2.950000 78.695 -11.6404
3.000000 79.014 -13.0766
3.040000 79.263 -14.2182
3.070000 79.447 -15.0688
3.110000 79.688 -16.1933
3.150000 79.925 -17.3051
3.200000 80.215 -18.6753
3.250000 80.498 -20.0233
3.300000 80.776 -21.3516
3.350000 81.046 -22.6640
3.400000 81.311 -23.9622
3.450000 81.568 -25.2439
3.500000 81.820 -26.5047
3.550000 82.066 -27.7410
3.600000 82.307 -28.9506
3.650000 82.543 -30.1338
3.700000 82.774 -31.2939
3.750000 82.999 -32.4341
3.820000 83.306 -33.9972
3.870000 83.519 -35.0872
3.950000 83.853 -36.7776
4.000000 84.056 -37.7986
4.060000 84.295 -38.9894
4.120000 84.529 -40.1464
4.180000 84.758 -41.2726
4.250000 85.019 -42.5475
4.310000 85.238 -43.6056
4.370000 85.455 -44.6310
4.440000 85.704 -45.7866
4.500000 85.914 -46.7449
4.550000 86.087 -47.5233
4.620000 86.326 -48.5861
4.680000 86.529 -49.4748
4.750000 86.764 -50.4875
4.820000 86.997 -51.4747
4.870000 87.162 -52.1652
4.940000 87.391 -53.1156
5.000000 87.586 -53.9198
5.080000 87.844 -54.9842
5.150000 88.067 -55.9112
5.220000 88.288 -56.8344
5.300000 88.538 -57.8863
5.380000 88.784 -58.9407
5.450000 88.995 -59.8708
5.520000 89.202 -60.8105
5.600000 89.435 -61.8959
5.700000 89.716 -63.2669
5.800000 89.986 -64.6526
5.900000 90.243 -66.0559
6.000000 90.487 -67.4757
6.080000 90.672 -68.6163
6.150000 90.825 -69.6122
6.220000 90.971 -70.6041
6.300000 91.128 -71.7326
6.400000 91.309 -73.1311
6.500000 91.473 -74.5012
6.600000 91.622 -75.8283
6.700000 91.754 -77.1081
6.800000 91.872 -78.3345
6.900000 91.976 -79.4936
7.000000 92.069 -80.5742
7.100000 92.150 -81.5741
7.200000 92.223 -82.4909
7.300000 92.290 -83.3194
7.400000 92.353 -84.0570
7.500000 92.414 -84.7078
7.620000 92.488 -85.3850
7.750000 92.572 -86.0047
7.880000 92.665 -86.5251
8.000000 92.760 -86.9461
8.120000 92.864 -87.3364
8.250000 92.988 -87.7476
8.380000 93.122 -88.1762
8.500000 93.252 -88.6098
8.620000 93.386 -89.0908
8.750000 93.532 -89.6745
8.850000 93.644 -90.1718
9.000000 93.806 -90.9934
9.120000 93.929 -91.7080
9.250000 94.053 -92.5301
9.380000 94.166 -93.3898
9.500000 94.261 -94.2028
9.620000 94.345 -95.0230
9.750000 94.425 -95.9088
9.880000 94.491 -96.7794
10.000000 94.540 -97.5614
10.150000 94.589 -98.5032
10.300000 94.627 -99.4004
10.440000 94.658 -100.1972
10.600000 94.691 -101.0656
10.750000 94.723 -101.8471
10.900000 94.758 -102.6076
11.060000 94.799 -103.4090
11.200000 94.839 -104.1118
11.380000 94.894 -105.0304
11.500000 94.933 -105.6575
11.720000 95.005 -106.8437
11.800000 95.031 -107.2869
12.060000 95.111 -108.7624
12.200000 95.151 -109.5704
12.410000 95.209 -110.7798
12.500000 95.233 -111.2910
12.650000 95.274 -112.1249
12.800000 95.314 -112.9271
13.150000 95.409 -114.6332
13.200000 95.423 -114.8557
13.400000 95.483 -115.6949
13.600000 95.553 -116.4657
13.800000 95.636 -117.1956
14.000000 95.732 -117.9217
14.300000 95.895 -119.0833
14.500000 96.008 -119.9437
14.750000 96.141 -121.1236
15.000000 96.252 -122.3797
15.250000 96.330 -123.6276
15.500000 96.375 -124.7583
15.750000 96.398 -125.6715
16.000000 96.418 -126.3105
16.250000 96.457 -126.6934
16.500000 96.536 -126.9216
16.750000 96.660 -127.1577
17.000000 96.822 -127.5712
17.250000 97.000 -128.2801
17.500000 97.166 -129.3167
17.750000 97.297 -130.6250
18.000000 97.374 -132.0863
18.250000 97.395 -133.5536
18.500000 97.367 -134.8869
18.750000 97.305 -135.9855
19.000000 97.231 -136.8098
19.250000 97.167 -137.3900
19.500000 97.126 -137.8118
19.750000 97.112 -138.1804
20.000000 97.119 -138.5823
20.299999 97.140 -139.1616
20.600000 97.157 -139.8172
20.900000 97.164 -140.4604
21.200001 97.169 -141.0072
21.400000 97.179 -141.3027
21.799999 97.234 -141.7883
22.000000 97.282 -142.0336
22.400000 97.410 -142.6618
22.700001 97.514 -143.2995
23.000000 97.609 -144.0536
23.299999 97.687 -144.8568
23.600000 97.747 -145.6366
24.000000 97.806 -146.5540
24.299999 97.842 -147.1267
24.700001 97.883 -147.7367
25.000000 97.912 -148.0821
25.400000 97.954 -148.4000
25.799999 98.009 -148.6060
26.200001 98.085 -148.8346
26.500000 98.150 -149.1232
26.900000 98.220 -149.7386
27.200001 98.242 -150.3382
27.600000 98.211 -151.1437
28.000000 98.123 -151.7032
28.500000 98.002 -151.8372
29.000000 97.962 -151.6187
29.500000 98.019 -151.7388
30.000000 98.091 -152.5928
30.400000 98.100 -153.6549
30.700001 98.069 -154.4872
31.100000 97.995 -155.4565
31.500000 97.919 -156.1937
32.000000 97.859 -156.9167
32.500000 97.836 -157.6291
33.000000 97.826 -158.3511
33.500000 97.825 -158.9471
34.000000 97.862 -159.4095
34.500000 97.945 -159.9429
35.000000 98.042 -160.7330
35.500000 98.108 -161.7203
36.000000 98.126 -162.6607
36.500000 98.122 -163.3736
37.000000 98.132 -163.9133
37.500000 98.164 -164.5041
38.200001 98.196 -165.6939
38.700001 98.166 -166.6816
39.500000 98.033 -167.9331
40.000000 97.942 -168.3832
40.599998 97.857 -168.7208
41.200001 97.792 -168.9394
41.799999 97.749 -168.9942
42.500000 97.755 -168.9289
43.099998 97.806 -169.0367
43.700001 97.854 -169.3796
44.400002 97.881 -169.8127
45.000000 97.905 -170.0899
45.500000 97.941 -170.3735
46.200001 97.986 -171.0349
46.799999 97.989 -171.7560
47.500000 97.957 -172.5263
48.200001 97.922 -173.1632
48.700001 97.904 -173.5988
49.400002 97.883 -174.2241
50.000000 97.863 -174.7330
50.799999 97.842 -175.2902
51.500000 97.837 -175.6993
52.200001 97.834 -176.1279
53.000000 97.800 -176.5738
53.799999 97.737 -176.7046
54.500000 97.701 -176.5437
55.200001 97.702 -176.4290
56.000000 97.710 -176.5826
57.000000 97.702 -176.8724
58.000000 97.763 -177.3272
59.000000 97.841 -178.5988
60.000000 97.831 179.9248
60.799999 97.809 179.0636
61.500000 97.808 178.4648
62.200001 97.821 177.9241
63.000000 97.845 177.2737
64.000000 97.838 176.2613
65.000000 97.737 175.4172
66.000000 97.602 175.1344
67.000000 97.501 175.2630
68.000000 97.478 175.6070
69.000000 97.542 175.6273
70.000000 97.590 175.1641
71.000000 97.588 174.8128
72.000000 97.592 174.6460
73.000000 97.588 174.2399
74.000000 97.517 173.6245
75.000000 97.385 173.1055
76.199997 97.221 172.6866
77.500000 97.114 172.2185
78.800003 97.102 171.4955
80.000000 97.128 170.6095
81.199997 97.136 169.9029
82.500000 97.128 169.6571
83.800003 97.113 169.6568
85.000000 97.059 169.5256
86.199997 96.941 169.2769
87.500000 96.771 169.1233
88.500000 96.660 169.1692
90.000000 96.596 169.2717
91.199997 96.610 168.9697
92.500000 96.592 168.3780
93.800003 96.537 168.0348
95.000000 96.502 167.8798
96.199997 96.492 167.6236
97.500000 96.494 167.0929
98.800003 96.474 166.4108
100.000000 96.425 165.9467
101.500000 96.348 165.8447
103.000000 96.284 166.0791
104.400002 96.234 166.2738
106.000000 96.194 166.2228
107.500000 96.182 165.7325
109.000000 96.178 164.8967
110.599998 96.167 164.0446
112.000000 96.153 163.5772
113.800003 96.120 163.4020
115.000000 96.083 163.4296
117.199997 95.949 163.4097
118.000000 95.880 163.4026
120.599998 95.689 163.2479
122.000000 95.630 162.9422
124.099998 95.582 162.3741
125.000000 95.566 162.2103
126.500000 95.539 162.1507
128.000000 95.509 162.3055
131.500000 95.416 162.2178
132.000000 95.396 162.0689
134.000000 95.306 161.3662
136.000000 95.246 161.0376
138.000000 95.253 161.3723
140.000000 95.281 162.0099
143.000000 95.179 162.6136
145.000000 95.013 162.6833
147.500000 94.842 162.3213
150.000000 94.770 161.3194
152.500000 94.677 160.6370
155.000000 94.597 161.5482
157.500000 94.628 162.7710
160.000000 94.671 162.7656
162.500000 94.617 162.0787
165.000000 94.511 161.7464
167.500000 94.392 161.7881
170.000000 94.325 161.9745
172.500000 94.337 162.0776
175.000000 94.367 162.2480
177.500000 94.350 162.2680
180.000000 94.278 161.8848
182.500000 94.195 161.4683
185.000000 94.139 161.2293
187.500000 94.073 160.7115
190.000000 93.979 159.6394
192.500000 93.900 158.4016
195.000000 93.862 157.6777
197.500000 93.837 157.6584
200.000000 93.764 158.0602
203.000000 93.587 158.5085
206.000000 93.347 158.4900
209.000000 93.147 158.7190
212.000000 93.107 159.4421
214.000000 93.134 159.8705
218.000000 93.169 160.3398
220.000000 93.158 160.4259
224.000000 93.091 160.5711
227.000000 93.034 160.6913
230.000000 92.991 160.8270
233.000000 92.961 161.0069
236.000000 92.928 161.1607
240.000000 92.856 161.4057
243.000000 92.798 161.6080
247.000000 92.726 161.5594
250.000000 92.672 161.4183
254.000000 92.606 161.5224
258.000000 92.540 161.9858
262.000000 92.462 162.4853
265.000000 92.398 162.7017
269.000000 92.320 162.8313
272.000000 92.271 162.8975
276.000000 92.225 163.0496
280.000000 92.201 163.2105
285.000000 92.172 163.3916
290.000000 92.136 163.8709
295.000000 92.127 164.5391
300.000000 92.115 165.1885
304.000000 92.067 165.6512
307.000000 92.017 165.8621
311.000000 91.945 165.8668
315.000000 91.856 165.7269
320.000000 91.714 165.7282
325.000000 91.590 166.0746
330.000000 91.515 166.5954
335.000000 91.475 166.8630
340.000000 91.432 166.9689
345.000000 91.370 167.2108
350.000000 91.303 167.5833
355.000000 91.244 167.9714
360.000000 91.206 168.3304
365.000000 91.182 168.5755
370.000000 91.162 168.7757
375.000000 91.143 168.9090
382.000000 91.089 169.1792
387.000000 91.025 169.6010
395.000000 90.939 170.4128
400.000000 90.905 170.8260
406.000000 90.871 171.3345
412.000000 90.835 171.8905
418.000000 90.787 172.4331
425.000000 90.718 172.9738
431.000000 90.669 173.3405
437.000000 90.634 173.7191
444.000000 90.604 174.2901
450.000000 90.577 174.8371
455.000000 90.550 175.2878
462.000000 90.507 175.9009
468.000000 90.471 176.4547
475.000000 90.435 177.0767
482.000000 90.406 177.4316
487.000000 90.386 177.5683
494.000000 90.358 177.8112
500.000000 90.328 178.1182
508.000000 90.285 178.5889
515.000000 90.248 179.0732
522.000000 90.217 179.6713
530.000000 90.213 -179.5607
538.000000 90.218 -178.8167
545.000000 90.201 -178.1761
552.000000 90.166 -177.5462
560.000000 90.121 -176.8189
570.000000 90.077 -175.9111
580.000000 90.033 -175.0811
590.000000 90.007 -174.3906
600.000000 90.032 -173.7429
608.000000 90.037 -173.2612
615.000000 90.011 -172.8366
622.000000 89.983 -172.4360
630.000000 89.980 -171.9851
640.000000 90.022 -171.4183
650.000000 90.071 -171.0189
660.000000 90.091 -170.5461
670.000000 90.107 -169.6323
680.000000 90.117 -168.3773
690.000000 90.082 -167.3530
700.000000 90.018 -166.6541
710.000000 89.973 -165.9969
720.000000 89.977 -165.2000
730.000000 90.027 -164.2248
740.000000 90.101 -163.0767
750.000000 90.169 -161.9545
762.000000 90.203 -161.1202
775.000000 90.198 -160.6126
788.000000 90.190 -160.0466
800.000000 90.193 -159.4209
812.000000 90.203 -158.6963
825.000000 90.218 -157.8292
838.000000 90.249 -156.9089
850.000000 90.295 -156.0098
862.000000 90.352 -155.0662
875.000000 90.425 -154.0090
885.000000 90.489 -153.1752
900.000000 90.589 -152.0121
912.000000 90.668 -151.2601
925.000000 90.752 -150.6810
938.000000 90.820 -150.2919
950.000000 90.853 -149.9072
962.000000 90.875 -149.2957
975.000000 90.922 -148.3758
988.000000 91.006 -147.3722
1000.000000 91.103 -146.5089
1015.000000 91.229 -145.5674
1030.000000 91.351 -144.7971
1044.000000 91.459 -144.1857
1060.000000 91.575 -143.5416
1075.000000 91.681 -142.9727
1090.000000 91.786 -142.4050
1106.000000 91.898 -141.8382
1120.000000 91.998 -141.4143
1138.000000 92.129 -140.9532
1150.000000 92.216 -140.6826
1172.000000 92.369 -140.2541
1180.000000 92.424 -140.1082
1206.000000 92.590 -139.6108
1220.000000 92.677 -139.3500
1241.000000 92.808 -139.0003
1250.000000 92.865 -138.8584
1265.000000 92.961 -138.6210
1280.000000 93.058 -138.3888
1315.000000 93.290 -137.9088
1320.000000 93.323 -137.8443
1340.000000 93.451 -137.5813
1360.000000 93.576 -137.2966
1380.000000 93.699 -136.9950
1400.000000 93.817 -136.7123
1430.000000 93.984 -136.3829
1450.000000 94.092 -136.1772
1475.000000 94.228 -135.8866
1500.000000 94.372 -135.5798
1525.000000 94.522 -135.2977
1550.000000 94.675 -135.0400
1575.000000 94.831 -134.7719
1600.000000 94.986 -134.4967
1625.000000 95.140 -134.2222
1650.000000 95.297 -133.9830
1675.000000 95.454 -133.8042
1700.000000 95.610 -133.6821
1725.000000 95.766 -133.5799
1750.000000 95.929 -133.4664
1775.000000 96.099 -133.3271
1800.000000 96.272 -133.1806
1825.000000 96.446 -133.0637
1850.000000 96.621 -132.9946
1875.000000 96.796 -132.9826
1900.000000 96.971 -133.0154
1925.000000 97.148 -133.0757
1950.000000 97.326 -133.1697
1975.000000 97.507 -133.3150
2000.000000 97.689 -133.5179
2030.000000 97.909 -133.8310
2060.000000 98.134 -134.2172
2090.000000 98.364 -134.6744
2120.000000 98.594 -135.2043
2140.000000 98.745 -135.6015
2180.000000 99.037 -136.5229
2200.000000 99.177 -137.0520
2240.000000 99.444 -138.2359
2270.000000 99.628 -139.2183
2300.000000 99.797 -140.2612
2330.000000 99.949 -141.3376
2360.000000 100.087 -142.4198
2400.000000 100.251 -143.8561
2430.000000 100.363 -144.9282
2470.000000 100.504 -146.3456
2500.000000 100.605 -147.3992
2540.000000 100.740 -148.8071
2580.000000 100.876 -150.2625
2620.000000 101.007 -151.8358
2650.000000 101.094 -153.1283
2690.000000 101.185 -154.9907
2720.000000 101.230 -156.4552
2760.000000 101.251 -158.4305
2800.000000 101.229 -160.3566
2850.000000 101.148 -162.5861
2900.000000 101.019 -164.5345
2950.000000 100.858 -166.1598
3000.000000 100.682 -167.4417
3040.000000 100.541 -168.2345
3070.000000 100.440 -168.7156
3110.000000 100.315 -169.2390
3150.000000 100.203 -169.6669
3200.000000 100.079 -170.1410
3250.000000 99.965 -170.6219
3300.000000 99.847 -171.1232
3350.000000 99.717 -171.5972
3400.000000 99.570 -171.9666
3450.000000 99.413 -172.1453
3500.000000 99.262 -172.1005
3550.000000 99.125 -171.8804
3600.000000 99.008 -171.5237
3650.000000 98.914 -171.0532
3700.000000 98.842 -170.5234
3750.000000 98.792 -169.9990
3820.000000 98.753 -169.3356
3870.000000 98.740 -168.9193
3950.000000 98.731 -168.3242
4000.000000 98.728 -167.9757
4060.000000 98.726 -167.5582
4120.000000 98.727 -167.1263
4180.000000 98.733 -166.6727
4250.000000 98.752 -166.1389
4310.000000 98.781 -165.7004
4370.000000 98.822 -165.2784
4440.000000 98.886 -164.8097
4500.000000 98.954 -164.4431
4550.000000 99.020 -164.1739
4620.000000 99.126 -163.8713
4680.000000 99.228 -163.6916
4750.000000 99.356 -163.5855
4820.000000 99.494 -163.6033
4870.000000 99.596 -163.6983
4940.000000 99.742 -163.9540
5000.000000 99.869 -164.2934
5080.000000 100.036 -164.9239
5150.000000 100.173 -165.6417
5220.000000 100.299 -166.5124
5300.000000 100.423 -167.6857
5380.000000 100.523 -169.0290
5450.000000 100.586 -170.3194
5520.000000 100.624 -171.6865
5600.000000 100.634 -173.2983
5700.000000 100.595 -175.3154
5800.000000 100.500 -177.2503
5900.000000 100.355 -179.0076
6000.000000 100.170 179.5007
6080.000000 100.001 178.5517
6150.000000 99.850 177.9188
6220.000000 99.705 177.4507
6300.000000 99.557 177.0448
6400.000000 99.390 176.6382
6500.000000 99.231 176.3913
6600.000000 99.083 176.3782
6700.000000 98.966 176.5673
6800.000000 98.889 176.9006
6900.000000 98.857 177.3251
7000.000000 98.874 177.7730
7100.000000 98.943 178.1644
7200.000000 99.065 178.4023
7300.000000 99.239 178.3670
7400.000000 99.464 177.9431
7500.000000 99.732 177.0431
7620.000000 100.083 175.1898
7750.000000 100.446 172.0500
7880.000000 100.724 167.6437
8000.000000 100.835 162.5479
8120.000000 100.747 156.7428
8250.000000 100.381 150.1527
8380.000000 99.726 143.8847
8500.000000 98.892 138.9218
8620.000000 97.894 135.1133
8750.000000 96.708 132.4784
8850.000000 95.772 131.4931
9000.000000 94.399 131.4950
9120.000000 93.362 132.5247
9250.000000 92.319 134.4219
9380.000000 91.364 136.9448
9500.000000 90.558 139.6960
9620.000000 89.821 142.7556
9750.000000 89.097 146.3374
9880.000000 88.446 150.1463
10000.000000 87.908 153.8405
10150.000000 87.323 158.6708
10300.000000 86.828 163.6895
10440.000000 86.447 168.4928
10600.000000 86.101 174.0663
10750.000000 85.857 179.3349
10900.000000 85.689 -175.3712
11060.000000 85.594 -169.7087
11200.000000 85.584 -164.7623
11380.000000 85.675 -158.4644
11500.000000 85.806 -154.3404
11720.000000 86.202 -147.0455
11800.000000 86.399 -144.5198
12060.000000 87.234 -137.0501
12200.000000 87.802 -133.6327
12410.000000 88.804 -129.3524
12500.000000 89.301 -127.7798
12650.000000 90.256 -125.5020
12800.000000 91.407 -123.9926
13150.000000 94.493 -127.9774
13200.000000 94.897 -129.6721
13400.000000 96.200 -138.9827
13600.000000 96.810 -150.9263
13800.000000 96.644 -163.0765
14000.000000 95.836 -173.2087
14300.000000 94.021 177.6926
14500.000000 92.802 175.5239
14750.000000 91.582 175.7477
15000.000000 90.806 177.4442
15250.000000 90.445 179.0765
15500.000000 90.402 179.5714
15750.000000 90.548 178.1447
16000.000000 90.703 174.2738
16250.000000 90.639 167.9921
16500.000000 90.159 160.2012
16750.000000 89.171 152.4692
17000.000000 87.731 146.3514
17250.000000 85.992 142.8557
17500.000000 84.162 142.1957
17750.000000 82.439 143.7335
18000.000000 80.944 146.3447
18250.000000 79.686 148.9703
18500.000000 78.591 150.9850
18750.000000 77.545 152.2937
19000.000000 76.441 153.2102
19250.000000 75.214 154.2091
19500.000000 73.829 155.7378
19750.000000 72.260 158.2383
20000.000000 70.503 162.2264
20300.000000 68.213 169.3279
20600.000000 65.855 177.4886
20900.000000 63.443 -176.3909
21200.000000 60.761 -173.5098
21400.000000 58.717 -172.7624
21800.000000 53.970 -171.7522
22000.000000 51.355 -170.7755
22400.000000 46.246 -166.9415
22700.000000 43.693 -162.5998
23000.000000 43.614 -158.3454
23300.000000 45.569 -147.8300
23600.000000 47.940 -112.1568
24000.000000 49.813 -88.7908
