* Measurement data measured by REW V5.30.2
* Source: Headset (USB-C to 3.5mm Headphone Jack Adapter), MICROPHONE (Master Volume), L, volume: 0.250
* Format: 512k Log Swept Sine, 1 sweep at -12.0 dBFS with no timing reference
* Dated: Jan 15, 2024 10:27:00 PM
* REW Settings:
*  C-weighting compensation: Off
*  Target level: 75.0 dB
* Note: ; 
* Measurement: SM2 M Ext Deep R
* Smoothing: 1/24 octave
* Frequency Step: 1/48 octave
* Start Frequency: 20.300 Hz
*
* Freq(Hz) SPL(dB) Phase(degrees)
20.299999 96.409 -102.1195
20.600000 96.471 -103.1986
20.900000 96.534 -104.3426
21.200001 96.602 -105.4583
21.400000 96.654 -106.1783
21.799999 96.779 -107.5533
22.000000 96.847 -108.2121
22.400000 96.980 -109.5029
22.700001 97.064 -110.4809
23.000000 97.132 -111.4875
23.299999 97.186 -112.5174
23.600000 97.235 -113.5433
24.000000 97.305 -114.8400
24.299999 97.364 -115.7270
24.700001 97.450 -116.8037
25.000000 97.514 -117.5729
25.400000 97.592 -118.6239
25.799999 97.662 -119.7557
26.200001 97.730 -120.9558
26.500000 97.782 -121.8592
26.900000 97.857 -123.0076
27.200001 97.914 -123.8065
27.600000 97.986 -124.8036
28.000000 98.047 -125.7753
28.500000 98.108 -127.0265
29.000000 98.159 -128.3112
29.500000 98.207 -129.5420
30.000000 98.260 -130.6669
30.400000 98.306 -131.5193
30.700001 98.338 -132.1580
31.100000 98.377 -133.0220
31.500000 98.406 -133.8826
32.000000 98.430 -134.9023
32.500000 98.453 -135.8491
33.000000 98.486 -136.7908
33.500000 98.529 -137.7918
34.000000 98.568 -138.8196
34.500000 98.595 -139.7796
35.000000 98.610 -140.6350
35.500000 98.623 -141.4612
36.000000 98.642 -142.3618
36.500000 98.667 -143.3482
37.000000 98.696 -144.3287
37.500000 98.721 -145.2130
38.200001 98.741 -146.3081
38.700001 98.744 -147.0700
39.500000 98.751 -148.2528
40.000000 98.766 -148.9199
40.599998 98.785 -149.7083
41.200001 98.798 -150.5932
41.799999 98.803 -151.5288
42.500000 98.801 -152.4568
43.099998 98.795 -153.1100
43.700001 98.790 -153.8615
44.400002 98.789 -154.9929
45.000000 98.782 -155.9051
45.500000 98.763 -156.4135
46.200001 98.717 -156.8347
46.799999 98.676 -157.2754
47.500000 98.665 -158.0219
48.200001 98.706 -158.7242
48.700001 98.739 -159.1880
49.400002 98.732 -160.0799
50.000000 98.680 -161.1199
50.799999 98.637 -162.3453
51.500000 98.662 -163.0035
52.200001 98.689 -163.5994
53.000000 98.680 -164.3859
53.799999 98.658 -165.0936
54.500000 98.639 -165.7389
55.200001 98.611 -166.4910
56.000000 98.576 -167.2322
57.000000 98.535 -167.8892
58.000000 98.508 -168.6461
59.000000 98.503 -169.4188
60.000000 98.483 -170.1479
60.799999 98.454 -170.7744
61.500000 98.428 -171.3194
62.200001 98.400 -171.8243
63.000000 98.367 -172.3458
64.000000 98.330 -172.9771
65.000000 98.294 -173.6503
66.000000 98.262 -174.3226
67.000000 98.232 -174.9571
68.000000 98.199 -175.5208
69.000000 98.156 -176.0404
70.000000 98.108 -176.6041
71.000000 98.080 -177.1629
72.000000 98.045 -177.6436
73.000000 97.990 -178.1507
74.000000 97.953 -178.7146
75.000000 97.927 -179.1973
76.199997 97.878 -179.7414
77.500000 97.816 179.6103
78.800003 97.766 179.0566
80.000000 97.726 178.5620
81.199997 97.680 178.1080
82.500000 97.617 177.6665
83.800003 97.561 177.2054
85.000000 97.516 176.7300
86.199997 97.475 176.2495
87.500000 97.425 175.7987
88.500000 97.387 175.5324
90.000000 97.336 175.0176
91.199997 97.290 174.5679
92.500000 97.235 174.1831
93.800003 97.181 173.8542
95.000000 97.135 173.4861
96.199997 97.087 173.1521
97.500000 97.031 172.8036
98.800003 96.981 172.4638
100.000000 96.933 172.1915
101.500000 96.872 171.8412
103.000000 96.818 171.5171
104.400002 96.772 171.2422
106.000000 96.710 170.9505
107.500000 96.643 170.6618
109.000000 96.584 170.3465
110.599998 96.546 170.0556
112.000000 96.503 169.8504
113.800003 96.435 169.6110
115.000000 96.386 169.4534
117.199997 96.302 169.1911
118.000000 96.274 169.2395
120.599998 96.194 169.1880
122.000000 96.159 168.5553
124.099998 96.086 168.1641
125.000000 96.050 168.0866
126.500000 95.993 167.9440
128.000000 95.946 167.8044
131.500000 95.838 167.4892
132.000000 95.823 167.4435
134.000000 95.761 167.2643
136.000000 95.700 167.1144
138.000000 95.644 166.9889
140.000000 95.589 166.8365
143.000000 95.503 166.6229
145.000000 95.445 166.5184
147.500000 95.374 166.4139
150.000000 95.305 166.3229
152.500000 95.240 166.2238
155.000000 95.178 166.1412
157.500000 95.114 166.0730
160.000000 95.044 166.0012
162.500000 94.975 165.9792
165.000000 94.906 165.9937
167.500000 94.838 165.9650
170.000000 94.769 165.9457
172.500000 94.699 165.9377
175.000000 94.633 165.9138
177.500000 94.563 165.9231
180.000000 94.501 165.9014
182.500000 94.418 165.8434
185.000000 94.346 166.1008
187.500000 94.316 166.2341
190.000000 94.283 166.0356
192.500000 94.227 165.8268
195.000000 94.159 165.8541
197.500000 94.090 166.0531
200.000000 94.020 166.2438
203.000000 93.950 166.3522
206.000000 93.890 166.5044
209.000000 93.838 166.5773
212.000000 93.788 166.6667
214.000000 93.751 166.7505
218.000000 93.683 166.9586
220.000000 93.650 167.0438
224.000000 93.587 167.2076
227.000000 93.541 167.3488
230.000000 93.495 167.4897
233.000000 93.453 167.6122
236.000000 93.407 167.7021
240.000000 93.341 167.9286
243.000000 93.292 168.1635
247.000000 93.238 168.4450
250.000000 93.199 168.6343
254.000000 93.147 168.9823
258.000000 93.098 169.0802
262.000000 93.037 169.0500
265.000000 93.007 169.1182
269.000000 92.967 169.4342
272.000000 92.924 169.7216
276.000000 92.878 169.9364
280.000000 92.836 170.1470
285.000000 92.741 170.3655
290.000000 92.683 170.9961
295.000000 92.634 171.2627
300.000000 92.518 171.5513
304.000000 92.428 171.9828
307.000000 92.406 172.1311
311.000000 92.448 171.7220
315.000000 92.552 171.0971
320.000000 92.685 171.5546
325.000000 92.593 173.3530
330.000000 92.340 173.8448
335.000000 92.287 173.5308
340.000000 92.266 174.0856
345.000000 92.212 174.4769
350.000000 92.175 174.7769
355.000000 92.144 175.0880
360.000000 92.113 175.3457
365.000000 92.072 175.7043
370.000000 92.048 176.0609
375.000000 92.024 176.3221
382.000000 91.969 176.7349
387.000000 91.923 177.1482
395.000000 91.863 177.7181
400.000000 91.839 177.9431
406.000000 91.818 178.2961
412.000000 91.789 178.7625
418.000000 91.759 179.1792
425.000000 91.727 179.6703
431.000000 91.701 -179.9429
437.000000 91.674 -179.5463
444.000000 91.639 -179.0674
450.000000 91.611 -178.6580
455.000000 91.590 -178.3308
462.000000 91.563 -177.8665
468.000000 91.540 -177.4594
475.000000 91.514 -176.9967
482.000000 91.490 -176.5428
487.000000 91.475 -176.2114
494.000000 91.453 -175.7406
500.000000 91.435 -175.3293
508.000000 91.413 -174.7785
515.000000 91.395 -174.3053
522.000000 91.376 -173.8375
530.000000 91.357 -173.2997
538.000000 91.341 -172.7460
545.000000 91.327 -172.2686
552.000000 91.314 -171.8057
560.000000 91.299 -171.2747
570.000000 91.282 -170.5688
580.000000 91.267 -169.8646
590.000000 91.252 -169.2031
600.000000 91.248 -168.5396
608.000000 91.244 -167.9702
615.000000 91.236 -167.4739
622.000000 91.229 -167.0103
630.000000 91.225 -166.4722
640.000000 91.223 -165.7908
650.000000 91.220 -165.1077
660.000000 91.220 -164.4248
670.000000 91.222 -163.7162
680.000000 91.224 -163.0423
690.000000 91.237 -162.3295
700.000000 91.246 -161.5759
710.000000 91.254 -160.8558
720.000000 91.265 -160.1276
730.000000 91.278 -159.3758
740.000000 91.293 -158.6456
750.000000 91.312 -157.9250
762.000000 91.339 -157.0567
775.000000 91.370 -156.1089
788.000000 91.410 -155.1518
800.000000 91.448 -154.2632
812.000000 91.486 -153.3940
825.000000 91.529 -152.4705
838.000000 91.576 -151.5504
850.000000 91.626 -150.7001
862.000000 91.681 -149.8585
875.000000 91.745 -148.9654
885.000000 91.799 -148.2871
900.000000 91.885 -147.2903
912.000000 91.957 -146.5227
925.000000 92.041 -145.7137
938.000000 92.130 -144.9285
950.000000 92.216 -144.2358
962.000000 92.306 -143.5737
975.000000 92.407 -142.8889
988.000000 92.510 -142.2389
1000.000000 92.605 -141.6723
1015.000000 92.722 -141.0236
1030.000000 92.841 -140.4268
1044.000000 92.954 -139.9087
1060.000000 93.084 -139.3868
1075.000000 93.204 -138.9665
1090.000000 93.321 -138.5856
1106.000000 93.444 -138.1857
1120.000000 93.556 -137.8631
1138.000000 93.705 -137.5371
1150.000000 93.804 -137.3758
1172.000000 93.985 -137.1921
1180.000000 94.052 -137.1707
1206.000000 94.273 -137.4138
1220.000000 94.370 -137.9014
1241.000000 94.373 -138.9876
1250.000000 94.308 -139.1432
1265.000000 94.215 -138.4653
1280.000000 94.245 -137.2860
1315.000000 94.546 -135.9814
1320.000000 94.587 -135.9132
1340.000000 94.740 -135.7380
1360.000000 94.874 -135.6385
1380.000000 94.997 -135.5619
1400.000000 95.110 -135.4961
1430.000000 95.270 -135.4017
1450.000000 95.371 -135.3447
1475.000000 95.493 -135.2712
1500.000000 95.610 -135.1998
1525.000000 95.725 -135.1241
1550.000000 95.837 -135.0470
1575.000000 95.948 -134.9702
1600.000000 96.058 -134.8946
1625.000000 96.170 -134.8207
1650.000000 96.281 -134.7536
1675.000000 96.393 -134.6893
1700.000000 96.505 -134.6275
1725.000000 96.616 -134.5764
1750.000000 96.727 -134.5322
1775.000000 96.838 -134.4938
1800.000000 96.949 -134.4632
1825.000000 97.060 -134.4478
1850.000000 97.170 -134.4426
1875.000000 97.280 -134.4479
1900.000000 97.391 -134.4643
1925.000000 97.502 -134.4941
1950.000000 97.612 -134.5377
1975.000000 97.723 -134.5977
2000.000000 97.835 -134.6741
2030.000000 97.970 -134.7835
2060.000000 98.106 -134.9140
2090.000000 98.241 -135.0680
2120.000000 98.376 -135.2442
2140.000000 98.466 -135.3743
2180.000000 98.644 -135.6669
2200.000000 98.733 -135.8281
2240.000000 98.909 -136.1886
2270.000000 99.039 -136.4853
2300.000000 99.169 -136.8009
2330.000000 99.298 -137.1430
2360.000000 99.427 -137.5095
2400.000000 99.595 -138.0344
2430.000000 99.720 -138.4598
2470.000000 99.885 -139.0618
2500.000000 100.007 -139.5403
2540.000000 100.170 -140.2144
2580.000000 100.332 -140.9349
2620.000000 100.491 -141.6950
2650.000000 100.608 -142.2901
2690.000000 100.761 -143.1230
2720.000000 100.874 -143.7767
2760.000000 101.020 -144.6828
2800.000000 101.162 -145.6332
2850.000000 101.334 -146.8823
2900.000000 101.499 -148.2009
2950.000000 101.657 -149.5913
3000.000000 101.808 -151.0594
3040.000000 101.923 -152.2898
3070.000000 102.006 -153.2467
3110.000000 102.109 -154.5652
3150.000000 102.205 -155.9344
3200.000000 102.313 -157.7213
3250.000000 102.407 -159.5921
3300.000000 102.486 -161.5455
3350.000000 102.550 -163.5803
3400.000000 102.596 -165.6924
3450.000000 102.623 -167.8762
3500.000000 102.628 -170.1224
3550.000000 102.609 -172.4206
3600.000000 102.566 -174.7583
3650.000000 102.496 -177.1184
3700.000000 102.399 -179.4851
3750.000000 102.274 178.1567
3820.000000 102.051 174.9097
3870.000000 101.858 172.6624
3950.000000 101.495 169.2418
4000.000000 101.234 167.2390
4060.000000 100.888 164.9952
4120.000000 100.512 162.9469
4180.000000 100.113 161.1108
4250.000000 99.624 159.2412
4310.000000 99.190 157.8748
4370.000000 98.745 156.7281
4440.000000 98.218 155.6594
4500.000000 97.762 154.9666
4550.000000 97.382 154.5450
4620.000000 96.852 154.1882
4680.000000 96.402 154.0907
4750.000000 95.888 154.2024
4820.000000 95.389 154.5291
4870.000000 95.043 154.8696
4940.000000 94.572 155.4678
5000.000000 94.178 156.0836
5080.000000 93.662 157.0404
5150.000000 93.220 158.0016
5220.000000 92.789 159.0723
5300.000000 92.312 160.4240
5380.000000 91.851 161.8928
5450.000000 91.459 163.2598
5520.000000 91.078 164.7092
5600.000000 90.650 166.4653
5700.000000 90.123 168.8109
5800.000000 89.591 171.4121
5900.000000 89.033 174.6133
6000.000000 88.535 179.5577
6080.000000 88.490 -175.5005
6150.000000 88.669 -173.1725
6220.000000 88.740 -172.5226
6300.000000 88.642 -172.0624
6400.000000 88.366 -170.8142
6500.000000 88.082 -168.6284
6600.000000 87.851 -166.0221
6700.000000 87.672 -163.2799
6800.000000 87.535 -160.4908
6900.000000 87.436 -157.6936
7000.000000 87.373 -154.9091
7100.000000 87.349 -152.1532
7200.000000 87.362 -149.4645
7300.000000 87.410 -146.8830
7400.000000 87.488 -144.4191
7500.000000 87.598 -142.0597
7620.000000 87.770 -139.3709
7750.000000 88.009 -136.6930
7880.000000 88.302 -134.2887
8000.000000 88.606 -132.3184
8120.000000 88.937 -130.6521
8250.000000 89.345 -129.2887
8380.000000 89.816 -128.5011
8500.000000 90.304 -128.4178
8620.000000 90.829 -129.0690
8750.000000 91.421 -130.7421
8850.000000 91.872 -132.8028
9000.000000 92.488 -137.2508
9120.000000 92.871 -141.9418
9250.000000 93.115 -147.9236
9380.000000 93.137 -154.4033
9500.000000 92.950 -160.3562
9620.000000 92.586 -165.8700
9750.000000 92.037 -171.0198
9880.000000 91.389 -175.1338
10000.000000 90.759 -177.9998
10150.000000 89.990 179.5512
10300.000000 89.278 178.1467
10440.000000 88.683 177.5588
10600.000000 88.096 177.5255
10750.000000 87.641 177.9507
10900.000000 87.284 178.6852
11060.000000 87.013 179.6899
11200.000000 86.875 -179.3112
11380.000000 86.850 -177.9547
11500.000000 86.947 -177.1032
11720.000000 87.421 -176.1604
11800.000000 87.697 -176.2706
12060.000000 88.886 -179.9101
12200.000000 89.557 175.4431
12410.000000 90.307 165.1595
12500.000000 90.479 159.8656
12650.000000 90.532 150.4135
12800.000000 90.288 140.7522
13150.000000 88.744 120.4408
13200.000000 88.443 117.9721
13400.000000 87.140 109.3302
13600.000000 85.777 102.5106
13800.000000 84.453 97.1415
14000.000000 83.222 92.7584
14300.000000 81.594 87.1840
14500.000000 80.664 83.6838
14750.000000 79.673 79.1007
15000.000000 78.863 73.9679
15250.000000 78.225 68.0906
15500.000000 77.784 61.2159
15750.000000 77.542 52.9968
16000.000000 77.453 43.0186
16250.000000 77.451 31.0834
16500.000000 77.546 17.1216
16750.000000 77.717 0.8824
17000.000000 77.780 -17.3586
17250.000000 77.857 -35.8080
17500.000000 78.354 -56.2791
17750.000000 78.841 -80.5260
18000.000000 79.042 -107.4880
18250.000000 78.925 -136.1913
18500.000000 78.532 -166.0618
18750.000000 77.946 162.9594
19000.000000 77.242 130.5727
19250.000000 76.424 96.1997
19500.000000 75.425 59.3343
19750.000000 74.246 20.4190
20000.000000 73.339 -11.8607
