* Measurement data measured by REW V5.30.2
* Source: Headset (USB-C to 3.5mm Headphone Jack Adapter), MICROPHONE (Master Volume), L, volume: 0.250
* Format: 512k Log Swept Sine, 1 sweep at -12.0 dBFS with no timing reference
* Dated: Jan 15, 2024 10:39:38 PM
* REW Settings:
*  C-weighting compensation: Off
*  Target level: 75.0 dB
* Note: ; 
* Measurement: SM2 Stock Deep L
* Smoothing: 1/24 octave
* Frequency Step: 1/48 octave
* Start Frequency: 20.300 Hz
*
* Freq(Hz) SPL(dB) Phase(degrees)
20.299999 99.259 -104.7691
20.600000 99.267 -105.4202
20.900000 99.279 -106.5629
21.200001 99.282 -107.6007
21.400000 99.285 -108.2478
21.799999 99.297 -109.5243
22.000000 99.306 -110.1781
22.400000 99.321 -111.5002
22.700001 99.327 -112.4865
23.000000 99.327 -113.4641
23.299999 99.328 -114.4332
23.600000 99.334 -115.3965
24.000000 99.353 -116.6690
24.299999 99.374 -117.6001
24.700001 99.403 -118.7808
25.000000 99.419 -119.6058
25.400000 99.428 -120.6305
25.799999 99.424 -121.6121
26.200001 99.420 -122.5998
26.500000 99.423 -123.3519
26.900000 99.438 -124.3451
27.200001 99.454 -125.0562
27.600000 99.471 -125.9450
28.000000 99.469 -126.8065
28.500000 99.435 -127.9725
29.000000 99.386 -129.3273
29.500000 99.360 -130.7785
30.000000 99.372 -132.1038
30.400000 99.397 -132.9792
30.700001 99.414 -133.5397
31.100000 99.424 -134.2360
31.500000 99.422 -134.9596
32.000000 99.409 -135.9726
32.500000 99.399 -137.0577
33.000000 99.392 -138.0897
33.500000 99.381 -139.0056
34.000000 99.361 -139.8567
34.500000 99.337 -140.7437
35.000000 99.318 -141.6984
35.500000 99.311 -142.6523
36.000000 99.312 -143.5168
36.500000 99.310 -144.2823
37.000000 99.298 -145.0217
37.500000 99.279 -145.7997
38.200001 99.259 -146.9356
38.700001 99.249 -147.7268
39.500000 99.215 -148.9648
40.000000 99.182 -149.7507
40.599998 99.156 -150.6692
41.200001 99.155 -151.4898
41.799999 99.153 -152.2247
42.500000 99.120 -153.1057
43.099998 99.079 -153.9411
43.700001 99.049 -154.7468
44.400002 99.030 -155.5365
45.000000 99.015 -156.2294
45.500000 98.997 -156.9908
46.200001 98.962 -158.2678
46.799999 98.922 -159.1829
47.500000 98.889 -159.7167
48.200001 98.887 -159.9086
48.700001 98.887 -160.0704
49.400002 98.861 -160.5268
50.000000 98.832 -161.1945
50.799999 98.819 -162.3171
51.500000 98.796 -163.1240
52.200001 98.737 -163.6648
53.000000 98.675 -164.3327
53.799999 98.656 -165.1628
54.500000 98.641 -165.8169
55.200001 98.605 -166.3881
56.000000 98.554 -166.9769
57.000000 98.532 -167.6680
58.000000 98.517 -168.6272
59.000000 98.449 -169.4883
60.000000 98.393 -170.1097
60.799999 98.340 -170.7143
61.500000 98.273 -171.1636
62.200001 98.230 -171.4569
63.000000 98.220 -171.8433
64.000000 98.189 -172.6013
65.000000 98.133 -173.3030
66.000000 98.116 -173.8008
67.000000 98.095 -174.3143
68.000000 98.035 -174.8764
69.000000 97.973 -175.4508
70.000000 97.932 -176.0630
71.000000 97.893 -176.6472
72.000000 97.846 -177.1658
73.000000 97.787 -177.6759
74.000000 97.713 -178.1275
75.000000 97.633 -178.4957
76.199997 97.549 -178.9510
77.500000 97.487 -179.4969
78.800003 97.456 179.9128
80.000000 97.426 179.3995
81.199997 97.376 178.9202
82.500000 97.313 178.4310
83.800003 97.251 178.0676
85.000000 97.201 177.7736
86.199997 97.154 177.4287
87.500000 97.104 177.0065
88.500000 97.070 176.6960
90.000000 97.005 176.2867
91.199997 96.946 175.9608
92.500000 96.898 175.5240
93.800003 96.858 175.0945
95.000000 96.815 174.7671
96.199997 96.774 174.4207
97.500000 96.736 174.1196
98.800003 96.684 173.9722
100.000000 96.631 173.7973
101.500000 96.572 173.4500
103.000000 96.526 173.1071
104.400002 96.482 172.8653
106.000000 96.428 172.5652
107.500000 96.383 172.2601
109.000000 96.338 171.9818
110.599998 96.282 171.7440
112.000000 96.225 171.5454
113.800003 96.157 171.2830
115.000000 96.111 171.1228
117.199997 96.026 170.8907
118.000000 96.004 170.8829
120.599998 95.951 170.8609
122.000000 95.915 170.6140
124.099998 95.836 170.2983
125.000000 95.799 170.2078
126.500000 95.745 170.0411
128.000000 95.698 169.8417
131.500000 95.592 169.5236
132.000000 95.579 169.4937
134.000000 95.529 169.3818
136.000000 95.474 169.2314
138.000000 95.419 169.0804
140.000000 95.370 169.0109
143.000000 95.286 168.9699
145.000000 95.226 168.8686
147.500000 95.164 168.7577
150.000000 95.109 168.7083
152.500000 95.049 168.6451
155.000000 94.986 168.5698
157.500000 94.931 168.5659
160.000000 94.878 168.5770
162.500000 94.814 168.5311
165.000000 94.743 168.4823
167.500000 94.676 168.4999
170.000000 94.620 168.5447
172.500000 94.561 168.5486
175.000000 94.490 168.5508
177.500000 94.427 168.6054
180.000000 94.364 168.6478
182.500000 94.297 168.6836
185.000000 94.240 168.7067
187.500000 94.182 168.7509
190.000000 94.122 168.8312
192.500000 94.068 168.9023
195.000000 94.018 168.9700
197.500000 93.966 169.0308
200.000000 93.915 169.1072
203.000000 93.863 169.2294
206.000000 93.809 169.2861
209.000000 93.752 169.3037
212.000000 93.726 169.5517
214.000000 93.713 169.8538
218.000000 93.647 170.1589
220.000000 93.615 170.1533
224.000000 93.558 170.0103
227.000000 93.470 170.0266
230.000000 93.369 170.2435
233.000000 93.304 170.5467
236.000000 93.280 170.7245
240.000000 93.267 170.7574
243.000000 93.260 170.8085
247.000000 93.257 171.0448
250.000000 93.248 171.2990
254.000000 93.209 171.6569
258.000000 93.148 171.9857
262.000000 93.082 172.1590
265.000000 93.051 172.2987
269.000000 93.006 172.5367
272.000000 92.972 172.6851
276.000000 92.930 172.8599
280.000000 92.892 173.0761
285.000000 92.835 173.4319
290.000000 92.773 173.6642
295.000000 92.731 174.0973
300.000000 92.716 174.2299
304.000000 92.651 174.3582
307.000000 92.599 174.6291
311.000000 92.553 175.0588
315.000000 92.527 175.3853
320.000000 92.508 175.6297
325.000000 92.496 175.8530
330.000000 92.482 176.2821
335.000000 92.402 176.8065
340.000000 92.319 177.2269
345.000000 92.287 177.6963
350.000000 92.259 177.9699
355.000000 92.239 178.0613
360.000000 92.237 178.2212
365.000000 92.225 178.5692
370.000000 92.199 178.9698
375.000000 92.168 179.3112
382.000000 92.134 179.8521
387.000000 92.126 -179.8801
395.000000 92.067 -179.5326
400.000000 92.028 -179.1572
406.000000 91.997 -178.6829
412.000000 91.979 -178.2451
418.000000 91.968 -177.8498
425.000000 91.948 -177.3662
431.000000 91.925 -176.9482
437.000000 91.905 -176.5448
444.000000 91.888 -176.0645
450.000000 91.874 -175.6988
455.000000 91.855 -175.3993
462.000000 91.829 -174.9539
468.000000 91.822 -174.5761
475.000000 91.814 -174.1298
482.000000 91.796 -173.6332
487.000000 91.778 -173.2701
494.000000 91.753 -172.8026
500.000000 91.737 -172.4278
508.000000 91.722 -171.9162
515.000000 91.709 -171.4409
522.000000 91.697 -170.9686
530.000000 91.684 -170.4475
538.000000 91.674 -169.9163
545.000000 91.666 -169.4449
552.000000 91.659 -168.9711
560.000000 91.650 -168.4331
570.000000 91.640 -167.7836
580.000000 91.635 -167.1042
590.000000 91.632 -166.4143
600.000000 91.628 -165.7273
608.000000 91.625 -165.1910
615.000000 91.623 -164.7197
622.000000 91.624 -164.2437
630.000000 91.625 -163.6937
640.000000 91.629 -162.9902
650.000000 91.634 -162.2896
660.000000 91.640 -161.5923
670.000000 91.648 -160.8890
680.000000 91.659 -160.1774
690.000000 91.671 -159.4689
700.000000 91.687 -158.7624
710.000000 91.705 -158.0553
720.000000 91.724 -157.3450
730.000000 91.743 -156.6086
740.000000 91.769 -155.8704
750.000000 91.796 -155.1519
762.000000 91.829 -154.2808
775.000000 91.872 -153.3349
788.000000 91.919 -152.3891
800.000000 91.964 -151.5106
812.000000 92.008 -150.6368
825.000000 92.059 -149.6926
838.000000 92.116 -148.7597
850.000000 92.173 -147.9097
862.000000 92.235 -147.0696
875.000000 92.309 -146.1723
885.000000 92.370 -145.4949
900.000000 92.465 -144.5058
912.000000 92.546 -143.7358
925.000000 92.639 -142.9257
938.000000 92.738 -142.1461
950.000000 92.832 -141.4554
962.000000 92.930 -140.7908
975.000000 93.039 -140.1042
988.000000 93.151 -139.4560
1000.000000 93.254 -138.8939
1015.000000 93.383 -138.2445
1030.000000 93.513 -137.6404
1044.000000 93.638 -137.1304
1060.000000 93.785 -136.6288
1075.000000 93.924 -136.2706
1090.000000 94.049 -136.0787
1106.000000 94.144 -135.8890
1120.000000 94.218 -135.5167
1138.000000 94.344 -134.9413
1150.000000 94.440 -134.6367
1172.000000 94.617 -134.2266
1180.000000 94.678 -134.1073
1206.000000 94.869 -133.7915
1220.000000 94.967 -133.6553
1241.000000 95.112 -133.4771
1250.000000 95.174 -133.4063
1265.000000 95.279 -133.2973
1280.000000 95.383 -133.1986
1315.000000 95.619 -133.0004
1320.000000 95.652 -132.9748
1340.000000 95.781 -132.8758
1360.000000 95.906 -132.7769
1380.000000 96.028 -132.6789
1400.000000 96.148 -132.5842
1430.000000 96.325 -132.4431
1450.000000 96.440 -132.3483
1475.000000 96.584 -132.2297
1500.000000 96.724 -132.1153
1525.000000 96.864 -132.0028
1550.000000 97.003 -131.8914
1575.000000 97.144 -131.7845
1600.000000 97.286 -131.6820
1625.000000 97.430 -131.5859
1650.000000 97.576 -131.4984
1675.000000 97.723 -131.4229
1700.000000 97.872 -131.3619
1725.000000 98.022 -131.3183
1750.000000 98.173 -131.2921
1775.000000 98.325 -131.2805
1800.000000 98.478 -131.2863
1825.000000 98.632 -131.3088
1850.000000 98.789 -131.3539
1875.000000 98.947 -131.4269
1900.000000 99.106 -131.5238
1925.000000 99.265 -131.6504
1950.000000 99.424 -131.8089
1975.000000 99.585 -131.9986
2000.000000 99.747 -132.2209
2030.000000 99.944 -132.5314
2060.000000 100.142 -132.8933
2090.000000 100.340 -133.3065
2120.000000 100.537 -133.7724
2140.000000 100.667 -134.1133
2180.000000 100.924 -134.8705
2200.000000 101.051 -135.2885
2240.000000 101.302 -136.2026
2270.000000 101.487 -136.9555
2300.000000 101.666 -137.7673
2330.000000 101.841 -138.6390
2360.000000 102.011 -139.5699
2400.000000 102.227 -140.8987
2430.000000 102.381 -141.9586
2470.000000 102.574 -143.4504
2500.000000 102.711 -144.6231
2540.000000 102.880 -146.2531
2580.000000 103.032 -147.9504
2620.000000 103.165 -149.7022
2650.000000 103.253 -151.0418
2690.000000 103.351 -152.8509
2720.000000 103.411 -154.2180
2760.000000 103.474 -156.0434
2800.000000 103.518 -157.8593
2850.000000 103.547 -160.0972
2900.000000 103.548 -162.2811
2950.000000 103.523 -164.3954
3000.000000 103.477 -166.4252
3040.000000 103.426 -167.9802
3070.000000 103.380 -169.1055
3110.000000 103.310 -170.5488
3150.000000 103.230 -171.9247
3200.000000 103.118 -173.5501
3250.000000 102.997 -175.0719
3300.000000 102.868 -176.4922
3350.000000 102.734 -177.8199
3400.000000 102.597 -179.0606
3450.000000 102.458 179.7790
3500.000000 102.318 178.6890
3550.000000 102.179 177.6586
3600.000000 102.039 176.6820
3650.000000 101.900 175.7505
3700.000000 101.762 174.8548
3750.000000 101.625 173.9895
3820.000000 101.431 172.8197
3870.000000 101.292 172.0075
3950.000000 101.067 170.7394
4000.000000 100.923 169.9600
4060.000000 100.743 169.0328
4120.000000 100.557 168.1107
4180.000000 100.365 167.1944
4250.000000 100.131 166.1352
4310.000000 99.924 165.2388
4370.000000 99.707 164.3599
4440.000000 99.442 163.3671
4500.000000 99.204 162.5547
4550.000000 98.999 161.9090
4620.000000 98.702 161.0577
4680.000000 98.439 160.3818
4750.000000 98.121 159.6519
4820.000000 97.790 158.9861
4870.000000 97.545 158.5562
4940.000000 97.190 158.0320
5000.000000 96.871 157.6690
5080.000000 96.424 157.3348
5150.000000 96.017 157.2062
5220.000000 95.601 157.2485
5300.000000 95.118 157.5231
5380.000000 94.635 158.0416
5450.000000 94.219 158.6804
5520.000000 93.811 159.4682
5600.000000 93.353 160.5240
5700.000000 92.788 162.0580
5800.000000 92.214 163.8855
5900.000000 91.611 166.3703
6000.000000 91.075 170.4997
6080.000000 90.990 174.3510
6150.000000 91.113 175.8855
6220.000000 91.082 175.7879
6300.000000 90.808 175.8441
6400.000000 90.379 177.1447
6500.000000 89.995 179.1785
6600.000000 89.659 -178.4958
6700.000000 89.362 -176.0225
6800.000000 89.098 -173.4526
6900.000000 88.865 -170.8065
7000.000000 88.661 -168.1004
7100.000000 88.489 -165.3527
7200.000000 88.349 -162.5957
7300.000000 88.240 -159.8605
7400.000000 88.157 -157.1575
7500.000000 88.099 -154.4742
7620.000000 88.066 -151.2909
7750.000000 88.074 -147.8942
7880.000000 88.128 -144.5620
8000.000000 88.208 -141.5697
8120.000000 88.308 -138.6839
8250.000000 88.459 -135.7110
8380.000000 88.671 -132.9429
8500.000000 88.925 -130.6150
8620.000000 89.239 -128.5480
8750.000000 89.650 -126.6653
8850.000000 90.019 -125.5121
9000.000000 90.669 -124.3621
9120.000000 91.283 -124.0735
9250.000000 92.058 -124.6364
9380.000000 92.949 -126.5828
9500.000000 93.819 -130.2538
9620.000000 94.603 -136.2583
9750.000000 95.164 -145.3031
9880.000000 95.285 -155.8659
10000.000000 94.985 -165.5144
10150.000000 94.167 -175.8147
10300.000000 93.052 176.5871
10440.000000 91.909 171.8087
10600.000000 90.618 168.5090
10750.000000 89.490 166.9496
10900.000000 88.470 166.4364
11060.000000 87.505 166.6935
11200.000000 86.762 167.4022
11380.000000 85.940 168.7651
11500.000000 85.469 169.8586
11720.000000 84.754 172.0833
11800.000000 84.537 172.9341
12060.000000 83.979 175.7538
12200.000000 83.767 177.2630
12410.000000 83.569 179.4487
12500.000000 83.533 -179.6588
12650.000000 83.540 -178.2393
12800.000000 83.628 -176.9430
13150.000000 84.147 -174.6531
13200.000000 84.259 -174.4274
13400.000000 84.816 -173.8507
13600.000000 85.570 -173.9382
13800.000000 86.565 -174.9483
14000.000000 87.859 -177.3162
14300.000000 90.473 174.5685
14500.000000 92.541 163.3925
14750.000000 94.659 138.3223
15000.000000 95.068 102.7108
15250.000000 93.431 69.8810
15500.000000 90.634 47.8110
15750.000000 87.783 33.6118
16000.000000 85.399 23.0006
16250.000000 83.553 13.1381
16500.000000 82.155 1.6914
16750.000000 80.892 -11.8125
17000.000000 79.556 -25.4817
17250.000000 78.438 -38.2628
17500.000000 77.860 -52.9866
17750.000000 77.569 -71.1324
18000.000000 77.388 -92.5761
18250.000000 77.244 -117.3871
18500.000000 77.037 -145.6581
18750.000000 76.656 -177.1790
19000.000000 76.026 148.5782
19250.000000 75.125 112.2267
19500.000000 73.981 74.6174
19750.000000 72.722 39.5081
