* Measurement data measured by REW V5.30.9
* Source: Headset (JA3 HIFI AUDIO(CX31993)), MICROPHONE (Master Volume), L, volume: 0.250
* Format: 512k Log Swept Sine, 1 sweep at -13.0 dBFS with no timing reference
* Dated: Feb 24, 2024 1:03:02 PM
* REW Settings:
*  C-weighting compensation: Off
*  Target level: 75.0 dB
* Note: ; 
* Measurement: Sony MDR-EX800ST Tape L
* Smoothing: 1/12 octave
* Frequency Step: 1/48 octave
* Start Frequency: 1.000 Hz
*
* Freq(Hz) SPL(dB) Phase(degrees)
1.000000 86.278 -16.2629
1.015000 86.519 -17.0199
1.030000 86.758 -17.7719
1.044000 86.979 -18.4710
1.060000 87.230 -19.2685
1.075000 87.464 -20.0163
1.090000 87.696 -20.7654
1.106000 87.940 -21.5663
1.120000 88.151 -22.2680
1.138000 88.416 -23.1695
1.150000 88.588 -23.7689
1.172000 88.897 -24.8620
1.180000 89.006 -25.2570
1.206000 89.353 -26.5294
1.220000 89.535 -27.2063
1.241000 89.801 -28.2093
1.250000 89.912 -28.6344
1.265000 90.096 -29.3361
1.280000 90.276 -30.0292
1.315000 90.684 -31.6118
1.320000 90.741 -31.8338
1.340000 90.966 -32.7118
1.360000 91.188 -33.5737
1.380000 91.406 -34.4197
1.400000 91.621 -35.2502
1.430000 91.939 -36.4682
1.450000 92.148 -37.2633
1.475000 92.406 -38.2413
1.500000 92.657 -39.2055
1.525000 92.902 -40.1579
1.550000 93.139 -41.0994
1.575000 93.370 -42.0299
1.600000 93.594 -42.9494
1.625000 93.812 -43.8581
1.650000 94.025 -44.7564
1.675000 94.233 -45.6444
1.700000 94.436 -46.5229
1.725000 94.636 -47.3924
1.750000 94.831 -48.2536
1.775000 95.024 -49.1075
1.800000 95.213 -49.9553
1.825000 95.399 -50.7989
1.850000 95.582 -51.6407
1.875000 95.760 -52.4823
1.900000 95.935 -53.3237
1.925000 96.105 -54.1639
1.950000 96.270 -55.0011
1.975000 96.432 -55.8339
2.000000 96.590 -56.6608
2.030000 96.775 -57.6435
2.060000 96.956 -58.6139
2.090000 97.132 -59.5709
2.120000 97.305 -60.5133
2.140000 97.418 -61.1334
2.180000 97.640 -62.3557
2.200000 97.749 -62.9595
2.240000 97.961 -64.1585
2.270000 98.115 -65.0530
2.300000 98.265 -65.9437
2.330000 98.412 -66.8292
2.360000 98.554 -67.7082
2.400000 98.738 -68.8672
2.430000 98.872 -69.7249
2.470000 99.047 -70.8512
2.500000 99.175 -71.6820
2.540000 99.341 -72.7720
2.580000 99.503 -73.8452
2.620000 99.660 -74.9075
2.650000 99.774 -75.6992
2.690000 99.921 -76.7479
2.720000 100.029 -77.5283
2.760000 100.168 -78.5589
2.800000 100.302 -79.5759
2.850000 100.465 -80.8253
2.900000 100.622 -82.0498
2.950000 100.774 -83.2530
3.000000 100.919 -84.4423
3.040000 101.031 -85.3860
3.070000 101.113 -86.0889
3.110000 101.218 -87.0179
3.150000 101.320 -87.9359
3.200000 101.443 -89.0648
3.250000 101.561 -90.1712
3.300000 101.675 -91.2562
3.350000 101.784 -92.3243
3.400000 101.888 -93.3796
3.450000 101.987 -94.4222
3.500000 102.082 -95.4500
3.550000 102.172 -96.4602
3.600000 102.259 -97.4507
3.650000 102.342 -98.4215
3.700000 102.421 -99.3752
3.750000 102.496 -100.3149
3.820000 102.594 -101.6082
3.870000 102.660 -102.5138
3.950000 102.759 -103.9242
4.000000 102.816 -104.7791
4.060000 102.881 -105.7790
4.120000 102.942 -106.7541
4.180000 102.998 -107.7059
4.250000 103.059 -108.7853
4.310000 103.107 -109.6810
4.370000 103.152 -110.5473
4.440000 103.202 -111.5214
4.500000 103.240 -112.3271
4.550000 103.271 -112.9789
4.620000 103.310 -113.8615
4.680000 103.342 -114.5892
4.750000 103.378 -115.4035
4.820000 103.412 -116.1805
4.870000 103.435 -116.7135
4.940000 103.467 -117.4310
5.000000 103.493 -118.0213
5.080000 103.529 -118.7750
5.150000 103.560 -119.4040
5.220000 103.592 -120.0049
5.300000 103.629 -120.6603
5.380000 103.667 -121.2882
5.450000 103.701 -121.8196
5.520000 103.737 -122.3364
5.600000 103.781 -122.9098
5.700000 103.837 -123.6058
5.800000 103.896 -124.2883
5.900000 103.957 -124.9657
6.000000 104.020 -125.6406
6.080000 104.072 -126.1806
6.150000 104.118 -126.6554
6.220000 104.163 -127.1340
6.300000 104.215 -127.6864
6.400000 104.279 -128.3847
6.500000 104.341 -129.0900
6.600000 104.401 -129.8017
6.700000 104.459 -130.5191
6.800000 104.513 -131.2399
6.900000 104.565 -131.9596
7.000000 104.612 -132.6754
7.100000 104.657 -133.3854
7.200000 104.698 -134.0867
7.300000 104.735 -134.7757
7.400000 104.770 -135.4498
7.500000 104.802 -136.1082
7.620000 104.838 -136.8758
7.750000 104.874 -137.6773
7.880000 104.908 -138.4477
8.000000 104.938 -139.1326
8.120000 104.967 -139.7939
8.250000 104.998 -140.4857
8.380000 105.029 -141.1555
8.500000 105.057 -141.7570
8.620000 105.085 -142.3445
8.750000 105.116 -142.9674
8.850000 105.139 -143.4382
9.000000 105.173 -144.1320
9.120000 105.199 -144.6763
9.250000 105.227 -145.2551
9.380000 105.253 -145.8219
9.500000 105.275 -146.3332
9.620000 105.296 -146.8321
9.750000 105.316 -147.3573
9.880000 105.330 -147.8657
10.000000 105.338 -148.3192
10.150000 105.342 -148.8647
10.300000 105.341 -149.3867
10.440000 105.337 -149.8538
10.600000 105.331 -150.3665
10.750000 105.327 -150.8296
10.900000 105.323 -151.2792
11.060000 105.320 -151.7479
11.200000 105.319 -152.1519
11.380000 105.318 -152.6670
11.500000 105.317 -153.0092
11.720000 105.316 -153.6365
11.800000 105.315 -153.8646
12.060000 105.309 -154.6038
12.200000 105.305 -154.9981
12.410000 105.301 -155.5796
12.500000 105.300 -155.8237
12.650000 105.300 -156.2218
12.800000 105.302 -156.6077
13.150000 105.308 -157.4565
13.200000 105.309 -157.5721
13.400000 105.312 -158.0222
13.600000 105.316 -158.4575
13.800000 105.321 -158.8842
14.000000 105.326 -159.3084
14.300000 105.332 -159.9491
14.500000 105.335 -160.3809
14.750000 105.336 -160.9229
15.000000 105.333 -161.4611
15.250000 105.327 -161.9894
15.500000 105.320 -162.5058
15.750000 105.313 -163.0132
16.000000 105.307 -163.5183
16.250000 105.301 -164.0268
16.500000 105.294 -164.5387
16.750000 105.282 -165.0450
17.000000 105.265 -165.5276
17.250000 105.244 -165.9637
17.500000 105.220 -166.3325
17.750000 105.199 -166.6237
18.000000 105.187 -166.8431
18.250000 105.189 -167.0147
18.500000 105.207 -167.1772
18.750000 105.240 -167.3747
19.000000 105.285 -167.6462
19.250000 105.335 -168.0154
19.500000 105.383 -168.4843
19.750000 105.421 -169.0334
20.000000 105.444 -169.6262
20.299999 105.451 -170.3294
20.600000 105.438 -170.9503
20.900000 105.413 -171.4355
21.200001 105.390 -171.7751
21.400000 105.382 -171.9375
21.799999 105.385 -172.2002
22.000000 105.397 -172.3437
22.400000 105.425 -172.7170
22.700001 105.438 -173.0596
23.000000 105.437 -173.3956
23.299999 105.425 -173.6590
23.600000 105.414 -173.8154
24.000000 105.421 -173.9149
24.299999 105.451 -174.0251
24.700001 105.505 -174.3979
25.000000 105.533 -174.8782
25.400000 105.519 -175.6393
25.799999 105.439 -176.2253
26.200001 105.333 -176.3495
26.500000 105.277 -176.1302
26.900000 105.273 -175.6768
27.200001 105.323 -175.4644
27.600000 105.418 -175.5948
28.000000 105.486 -176.1678
28.500000 105.485 -177.0703
29.000000 105.421 -177.6636
29.500000 105.374 -177.8636
30.000000 105.381 -178.0202
30.400000 105.404 -178.3149
30.700001 105.416 -178.6360
31.100000 105.415 -179.1170
31.500000 105.400 -179.5736
32.000000 105.380 179.9241
32.500000 105.364 179.4382
33.000000 105.347 178.9313
33.500000 105.322 178.4442
34.000000 105.297 178.0193
34.500000 105.279 177.6402
35.000000 105.268 177.2634
35.500000 105.258 176.8773
36.000000 105.245 176.5070
36.500000 105.229 176.1798
37.000000 105.216 175.9023
37.500000 105.205 175.6623
38.200001 105.195 175.3580
38.700001 105.189 175.1535
39.500000 105.182 174.8446
40.000000 105.182 174.6389
40.599998 105.184 174.3300
41.200001 105.180 173.9388
41.799999 105.165 173.5057
42.500000 105.136 173.0038
43.099998 105.108 172.5813
43.700001 105.075 172.1771
44.400002 105.035 171.7904
45.000000 105.011 171.5480
45.500000 105.006 171.3585
46.200001 105.014 171.0053
46.799999 105.016 170.6055
47.500000 105.001 170.1289
48.200001 104.973 169.7530
48.700001 104.955 169.5456
49.400002 104.938 169.2707
50.000000 104.924 169.0059
50.799999 104.901 168.6320
51.500000 104.881 168.3179
52.200001 104.865 167.9963
53.000000 104.850 167.5920
53.799999 104.835 167.1695
54.500000 104.819 166.8127
55.200001 104.800 166.4999
56.000000 104.778 166.2329
57.000000 104.762 165.9820
58.000000 104.748 165.6956
59.000000 104.720 165.3839
60.000000 104.682 165.0789
60.799999 104.649 164.8127
61.500000 104.618 164.5565
62.200001 104.585 164.2932
63.000000 104.549 164.0031
64.000000 104.514 163.6568
65.000000 104.488 163.3058
66.000000 104.465 162.9546
67.000000 104.440 162.6093
68.000000 104.408 162.2727
69.000000 104.368 161.9656
70.000000 104.324 161.6762
71.000000 104.280 161.3865
72.000000 104.240 161.0982
73.000000 104.208 160.7952
74.000000 104.181 160.4763
75.000000 104.158 160.1674
76.199997 104.131 159.8206
77.500000 104.098 159.4741
78.800003 104.059 159.1550
80.000000 104.018 158.8585
81.199997 103.975 158.5539
82.500000 103.930 158.2179
83.800003 103.890 157.8633
85.000000 103.851 157.5334
86.199997 103.808 157.2533
87.500000 103.762 157.0245
88.500000 103.730 156.8731
90.000000 103.689 156.5750
91.199997 103.652 156.2187
92.500000 103.598 155.8164
93.800003 103.544 155.4913
95.000000 103.504 155.2449
96.199997 103.472 155.0186
97.500000 103.439 154.7862
98.800003 103.403 154.5725
100.000000 103.365 154.3843
101.500000 103.314 154.1004
103.000000 103.253 153.7530
104.400002 103.193 153.4185
106.000000 103.131 153.0450
107.500000 103.082 152.7213
109.000000 103.042 152.4321
110.599998 103.002 152.1115
112.000000 102.958 151.8322
113.800003 102.892 151.5693
115.000000 102.853 151.4263
117.199997 102.786 151.1108
118.000000 102.762 150.9846
120.599998 102.673 150.5789
122.000000 102.620 150.4073
124.099998 102.545 150.2194
125.000000 102.516 150.1353
126.500000 102.471 149.9671
128.000000 102.426 149.7655
131.500000 102.320 149.2515
132.000000 102.306 149.1873
134.000000 102.256 148.9594
136.000000 102.211 148.7940
138.000000 102.171 148.6791
140.000000 102.132 148.4716
143.000000 102.039 147.9265
145.000000 101.950 147.6304
147.500000 101.834 147.4296
150.000000 101.730 147.2695
152.500000 101.644 147.0117
155.000000 101.562 146.7242
157.500000 101.475 146.5585
160.000000 101.388 146.4803
162.500000 101.297 146.3910
165.000000 101.198 146.1776
167.500000 101.090 145.7928
170.000000 100.994 145.4452
172.500000 100.936 145.4561
175.000000 100.899 145.8623
177.500000 100.849 146.4701
180.000000 100.781 146.9526
182.500000 100.706 147.1019
185.000000 100.634 146.8869
187.500000 100.570 146.4198
190.000000 100.518 145.8855
192.500000 100.473 145.4066
195.000000 100.423 145.0179
197.500000 100.364 144.7496
200.000000 100.304 144.6025
203.000000 100.232 144.5111
206.000000 100.157 144.3964
209.000000 100.079 144.2007
212.000000 99.995 143.9962
214.000000 99.936 143.8716
218.000000 99.825 143.6387
220.000000 99.772 143.5421
224.000000 99.666 143.3836
227.000000 99.581 143.2906
230.000000 99.501 143.3411
233.000000 99.438 143.6411
236.000000 99.375 144.0807
240.000000 99.252 144.3914
243.000000 99.157 144.1915
247.000000 99.055 143.8848
250.000000 98.982 143.9446
254.000000 98.893 144.0537
258.000000 98.828 143.9584
262.000000 98.746 143.7596
265.000000 98.660 143.5924
269.000000 98.536 143.4798
272.000000 98.447 143.4811
276.000000 98.340 143.5059
280.000000 98.245 143.4703
285.000000 98.158 143.3580
290.000000 98.074 143.5462
295.000000 97.962 143.8932
300.000000 97.842 144.0957
304.000000 97.747 144.1766
307.000000 97.682 144.2288
311.000000 97.605 144.3111
315.000000 97.544 144.4139
320.000000 97.486 144.6482
325.000000 97.415 144.9059
330.000000 97.335 145.0636
335.000000 97.262 145.1924
340.000000 97.184 145.3736
345.000000 97.094 145.5989
350.000000 96.993 145.8004
355.000000 96.891 146.0293
360.000000 96.792 146.3249
365.000000 96.695 146.5789
370.000000 96.591 146.7584
375.000000 96.469 147.0537
382.000000 96.309 147.7047
387.000000 96.237 148.0002
395.000000 96.165 148.1660
400.000000 96.124 148.2517
406.000000 96.065 148.3293
412.000000 95.991 148.3820
418.000000 95.898 148.4236
425.000000 95.767 148.4318
431.000000 95.670 148.4398
437.000000 95.628 148.5709
444.000000 95.631 149.1026
450.000000 95.618 149.8819
455.000000 95.561 150.5339
462.000000 95.428 151.2327
468.000000 95.313 151.7009
475.000000 95.213 152.1917
482.000000 95.145 152.6685
487.000000 95.106 152.9969
494.000000 95.050 153.4868
500.000000 94.988 153.9377
508.000000 94.893 154.4700
515.000000 94.810 154.9168
522.000000 94.731 155.3148
530.000000 94.653 155.7074
538.000000 94.588 156.1914
545.000000 94.537 156.6509
552.000000 94.485 157.0020
560.000000 94.412 157.4200
570.000000 94.335 158.2490
580.000000 94.288 159.1324
590.000000 94.216 159.9315
600.000000 94.145 160.6454
608.000000 94.112 161.2244
615.000000 94.087 161.7706
622.000000 94.057 162.3141
630.000000 94.015 162.8685
640.000000 93.968 163.4194
650.000000 93.911 163.8448
660.000000 93.837 164.5110
670.000000 93.786 165.4205
680.000000 93.760 166.3143
690.000000 93.739 167.1317
700.000000 93.717 167.8755
710.000000 93.698 168.5914
720.000000 93.679 169.3281
730.000000 93.663 170.0827
740.000000 93.649 170.8335
750.000000 93.637 171.5730
762.000000 93.628 172.5201
775.000000 93.623 173.4962
788.000000 93.602 174.3857
800.000000 93.588 175.1980
812.000000 93.591 176.0110
825.000000 93.607 176.8935
838.000000 93.628 177.7696
850.000000 93.651 178.5657
862.000000 93.674 179.3491
875.000000 93.702 -179.8159
885.000000 93.727 -179.1844
900.000000 93.771 -178.2552
912.000000 93.811 -177.5253
925.000000 93.855 -176.7536
938.000000 93.899 -176.0190
950.000000 93.944 -175.3890
962.000000 93.996 -174.8064
975.000000 94.057 -174.2185
988.000000 94.118 -173.6590
1000.000000 94.171 -173.1511
1015.000000 94.232 -172.5332
1030.000000 94.289 -171.9474
1044.000000 94.342 -171.4360
1060.000000 94.401 -170.8879
1075.000000 94.453 -170.3766
1090.000000 94.502 -169.8326
1106.000000 94.553 -169.1972
1120.000000 94.602 -168.5854
1138.000000 94.676 -167.7372
1150.000000 94.736 -167.1496
1172.000000 94.873 -166.0924
1180.000000 94.932 -165.7370
1206.000000 95.149 -164.7595
1220.000000 95.279 -164.3669
1241.000000 95.480 -163.9531
1250.000000 95.566 -163.8310
1265.000000 95.711 -163.6868
1280.000000 95.855 -163.6074
1315.000000 96.177 -163.6171
1320.000000 96.222 -163.6385
1340.000000 96.395 -163.7577
1360.000000 96.562 -163.9067
1380.000000 96.720 -164.1076
1400.000000 96.874 -164.3604
1430.000000 97.097 -164.7959
1450.000000 97.238 -165.1251
1475.000000 97.409 -165.5908
1500.000000 97.575 -166.1342
1525.000000 97.736 -166.7275
1550.000000 97.890 -167.3389
1575.000000 98.039 -168.0052
1600.000000 98.183 -168.7443
1625.000000 98.324 -169.5322
1650.000000 98.456 -170.3502
1675.000000 98.578 -171.2087
1700.000000 98.693 -172.1324
1725.000000 98.803 -173.1007
1750.000000 98.906 -174.0962
1775.000000 99.001 -175.1246
1800.000000 99.089 -176.1893
1825.000000 99.170 -177.2811
1850.000000 99.242 -178.3822
1875.000000 99.301 -179.4837
1900.000000 99.345 179.4055
1925.000000 99.378 178.2788
1950.000000 99.403 177.1437
1975.000000 99.422 176.0070
2000.000000 99.433 174.8709
2030.000000 99.436 173.5110
2060.000000 99.425 172.1508
2090.000000 99.403 170.7919
2120.000000 99.368 169.4537
2140.000000 99.339 168.5796
2180.000000 99.264 166.8854
2200.000000 99.218 166.0691
2240.000000 99.114 164.4995
2270.000000 99.028 163.3736
2300.000000 98.938 162.2906
2330.000000 98.842 161.2490
2360.000000 98.743 160.2454
2400.000000 98.604 158.9668
2430.000000 98.496 158.0502
2470.000000 98.350 156.8723
2500.000000 98.239 156.0135
2540.000000 98.089 154.8931
2580.000000 97.935 153.7966
2620.000000 97.776 152.7155
2650.000000 97.652 151.9072
2690.000000 97.480 150.8252
2720.000000 97.345 150.0054
2760.000000 97.154 148.9025
2800.000000 96.947 147.7995
2850.000000 96.663 146.4198
2900.000000 96.347 145.0605
2950.000000 95.995 143.7708
3000.000000 95.600 142.6031
3040.000000 95.254 141.7967
3070.000000 94.978 141.2892
3110.000000 94.587 140.7691
3150.000000 94.172 140.4585
3200.000000 93.625 140.4141
3250.000000 93.056 140.8029
3300.000000 92.476 141.6631
3350.000000 91.896 143.0212
3400.000000 91.333 144.8926
3450.000000 90.801 147.2678
3500.000000 90.313 150.1076
3550.000000 89.884 153.3317
3600.000000 89.521 156.8261
3650.000000 89.230 160.4682
3700.000000 89.005 164.1671
3750.000000 88.839 167.8734
3820.000000 88.692 173.0304
3870.000000 88.642 176.6682
3950.000000 88.649 -177.6371
4000.000000 88.703 -174.1759
4060.000000 88.814 -170.1383
4120.000000 88.972 -166.2411
4180.000000 89.176 -162.4963
4250.000000 89.468 -158.3406
4310.000000 89.767 -154.9688
4370.000000 90.111 -151.7749
4440.000000 90.564 -148.3295
4500.000000 90.991 -145.6717
4550.000000 91.368 -143.6756
4620.000000 91.925 -141.1897
4680.000000 92.429 -139.2993
4750.000000 93.060 -137.3358
4820.000000 93.752 -135.7051
4870.000000 94.287 -134.8440
4940.000000 95.084 -134.2034
5000.000000 95.800 -134.2771
5080.000000 96.775 -135.4082
5150.000000 97.619 -137.4672
5220.000000 98.415 -140.5738
5300.000000 99.213 -145.3519
5380.000000 99.831 -151.2206
5450.000000 100.186 -156.9518
5520.000000 100.351 -162.9071
5600.000000 100.314 -169.5768
5700.000000 99.974 -177.1149
5800.000000 99.398 176.7076
5900.000000 98.684 172.0715
6000.000000 97.917 168.9133
6080.000000 97.306 167.3271
6150.000000 96.790 166.5282
6220.000000 96.304 166.2043
6300.000000 95.793 166.3295
6400.000000 95.234 167.0967
6500.000000 94.768 168.4016
6600.000000 94.396 170.1200
6700.000000 94.118 172.1347
6800.000000 93.939 174.3335
6900.000000 93.859 176.6125
7000.000000 93.884 178.8700
7100.000000 94.015 -179.0020
7200.000000 94.257 -177.1321
7300.000000 94.614 -175.6889
7400.000000 95.085 -174.8930
7500.000000 95.659 -175.0193
7620.000000 96.438 -176.8210
7750.000000 97.276 178.7323
7880.000000 97.913 171.5934
8000.000000 98.137 163.1693
8120.000000 97.901 154.1008
8250.000000 97.137 145.0355
8380.000000 95.985 137.8829
8500.000000 94.740 133.2803
8620.000000 93.443 130.3952
8750.000000 92.050 128.8566
8850.000000 91.008 128.6207
9000.000000 89.518 129.5977
9120.000000 88.405 131.3726
9250.000000 87.294 134.1085
9380.000000 86.291 137.5062
9500.000000 85.461 141.0853
9620.000000 84.722 144.9810
9750.000000 84.023 149.4607
9880.000000 83.429 154.1249
10000.000000 82.974 158.5356
10150.000000 82.531 164.1257
10300.000000 82.227 169.7313
10440.000000 82.075 174.9074
10600.000000 82.066 -179.3597
10750.000000 82.230 -174.3392
10900.000000 82.581 -169.9530
11060.000000 83.178 -166.4691
11200.000000 83.873 -165.0015
11380.000000 84.897 -166.1709
11500.000000 85.544 -169.2102
11720.000000 86.298 -179.2715
11800.000000 86.340 176.0146
12060.000000 85.391 160.1562
12200.000000 84.235 153.2224
12410.000000 81.926 147.0801
12500.000000 80.821 146.2244
12650.000000 78.953 147.0794
12800.000000 77.161 150.3820
13150.000000 73.670 163.8862
13200.000000 73.253 166.2003
13400.000000 71.760 176.1857
13600.000000 70.535 -172.5312
13800.000000 69.617 -159.9324
14000.000000 69.067 -146.4419
14300.000000 69.009 -126.2170
14500.000000 69.459 -114.0026
14750.000000 70.448 -101.5237
15000.000000 71.691 -93.0551
15250.000000 72.926 -88.7361
15500.000000 73.933 -87.6805
15750.000000 74.608 -88.3916
16000.000000 74.973 -89.6314
16250.000000 75.101 -90.9181
16500.000000 75.049 -92.1989
16750.000000 74.851 -93.4758
17000.000000 74.532 -94.6889
17250.000000 74.115 -95.8560
17500.000000 73.602 -97.1534
17750.000000 72.939 -98.5875
18000.000000 72.060 -99.6430
18250.000000 70.959 -99.4604
18500.000000 69.713 -97.3085
18750.000000 68.449 -92.9581
19000.000000 67.291 -86.8759
19250.000000 66.306 -80.0456
19500.000000 65.466 -73.4525
19750.000000 64.664 -67.6836
20000.000000 63.772 -62.8717
20300.000000 62.442 -58.1445
20600.000000 60.714 -54.1523
20900.000000 58.521 -50.6134
21200.000000 55.860 -47.4848
21400.000000 53.853 -45.6781
21800.000000 49.440 -42.7466
22000.000000 47.185 -41.4487
22400.000000 43.481 -38.1393
22700.000000 42.623 -32.4400
23000.000000 43.882 -16.9548
23300.000000 46.377 10.0258
23600.000000 48.923 33.5148
24000.000000 50.861 46.2904
