* Measurement data measured by REW V5.30.9
* Source: Headset (JA3 HIFI AUDIO(CX31993)), MICROPHONE (Master Volume), L, volume: 0.250
* Format: 512k Log Swept Sine, 1 sweep at -13.0 dBFS with no timing reference
* Dated: Feb 24, 2024 1:00:40 PM
* REW Settings:
*  C-weighting compensation: Off
*  Target level: 75.0 dB
* Note: ; 
* Measurement: Sony MDR-EX800ST L
* Smoothing: 1/12 octave
* Frequency Step: 1/48 octave
* Start Frequency: 1.000 Hz
*
* Freq(Hz) SPL(dB) Phase(degrees)
1.000000 59.084 171.7886
1.015000 59.051 170.5785
1.030000 59.017 169.3485
1.044000 58.985 168.1808
1.060000 58.948 166.8201
1.075000 58.912 165.5135
1.090000 58.875 164.1678
1.106000 58.832 162.6718
1.120000 58.788 161.2948
1.138000 58.721 159.4131
1.150000 58.671 158.0846
1.172000 58.566 155.4922
1.180000 58.525 154.4994
1.206000 58.382 151.0921
1.220000 58.300 149.1458
1.241000 58.176 146.0866
1.250000 58.123 144.7262
1.265000 58.035 142.3968
1.280000 57.949 139.9938
1.315000 57.765 134.1327
1.320000 57.741 133.2697
1.340000 57.654 129.7634
1.360000 57.582 126.1826
1.380000 57.529 122.5434
1.400000 57.497 118.8606
1.430000 57.497 113.2793
1.450000 57.532 109.5245
1.475000 57.616 104.7759
1.500000 57.743 99.9418
1.525000 57.908 95.0311
1.550000 58.108 90.0887
1.575000 58.338 85.1736
1.600000 58.594 80.3428
1.625000 58.873 75.6462
1.650000 59.169 71.1215
1.675000 59.479 66.7945
1.700000 59.799 62.6790
1.725000 60.125 58.7789
1.750000 60.454 55.0894
1.775000 60.781 51.5987
1.800000 61.106 48.2892
1.825000 61.429 45.1371
1.850000 61.755 42.1163
1.875000 62.088 39.2083
1.900000 62.431 36.4070
1.925000 62.783 33.7148
1.950000 63.142 31.1358
1.975000 63.506 28.6728
2.000000 63.872 26.3267
2.030000 64.311 23.6641
2.060000 64.745 21.1636
2.090000 65.170 18.8175
2.120000 65.582 16.6161
2.140000 65.847 15.2227
2.180000 66.354 12.5916
2.200000 66.595 11.3409
2.240000 67.056 8.9354
2.270000 67.385 7.1984
2.300000 67.703 5.5148
2.330000 68.010 3.8865
2.360000 68.308 2.3168
2.400000 68.691 0.3214
2.430000 68.969 -1.0986
2.470000 69.330 -2.8864
2.500000 69.593 -4.1478
2.540000 69.934 -5.7291
2.580000 70.264 -7.2112
2.620000 70.581 -8.6172
2.650000 70.810 -9.6318
2.690000 71.103 -10.9354
2.720000 71.316 -11.8760
2.760000 71.592 -13.0779
2.800000 71.860 -14.2166
2.850000 72.189 -15.5447
2.900000 72.511 -16.7632
2.950000 72.828 -17.8749
3.000000 73.136 -18.8931
3.040000 73.378 -19.6512
3.070000 73.555 -20.1917
3.110000 73.789 -20.8800
3.150000 74.020 -21.5356
3.200000 74.306 -22.3147
3.250000 74.593 -23.0519
3.300000 74.880 -23.7460
3.350000 75.167 -24.3934
3.400000 75.454 -24.9969
3.450000 75.740 -25.5682
3.500000 76.025 -26.1231
3.550000 76.310 -26.6760
3.600000 76.594 -27.2373
3.650000 76.878 -27.8099
3.700000 77.162 -28.3890
3.750000 77.446 -28.9686
3.820000 77.843 -29.7832
3.870000 78.124 -30.3779
3.950000 78.568 -31.3755
4.000000 78.840 -32.0367
4.060000 79.161 -32.8681
4.120000 79.476 -33.7325
4.180000 79.786 -34.6226
4.250000 80.138 -35.6893
4.310000 80.431 -36.6292
4.370000 80.714 -37.5952
4.440000 81.031 -38.7571
4.500000 81.293 -39.7796
4.550000 81.504 -40.6447
4.620000 81.787 -41.8649
4.680000 82.019 -42.9120
4.750000 82.276 -44.1320
4.820000 82.519 -45.3537
4.870000 82.683 -46.2281
4.940000 82.902 -47.4480
5.000000 83.079 -48.4802
5.080000 83.301 -49.8239
5.150000 83.482 -50.9658
5.220000 83.650 -52.0801
5.300000 83.829 -53.3199
5.380000 83.994 -54.5143
5.450000 84.129 -55.5129
5.520000 84.256 -56.4650
5.600000 84.391 -57.4995
5.700000 84.547 -58.7177
5.800000 84.692 -59.8506
5.900000 84.827 -60.8954
6.000000 84.955 -61.8573
6.080000 85.052 -62.5740
6.150000 85.135 -63.1667
6.220000 85.215 -63.7300
6.300000 85.305 -64.3397
6.400000 85.413 -65.0555
6.500000 85.518 -65.7269
6.600000 85.619 -66.3618
6.700000 85.716 -66.9640
6.800000 85.809 -67.5338
6.900000 85.897 -68.0702
7.000000 85.980 -68.5726
7.100000 86.058 -69.0398
7.200000 86.132 -69.4674
7.300000 86.202 -69.8495
7.400000 86.269 -70.1826
7.500000 86.334 -70.4662
7.620000 86.413 -70.7419
7.750000 86.503 -70.9624
7.880000 86.600 -71.1129
8.000000 86.699 -71.2119
8.120000 86.811 -71.2943
8.250000 86.945 -71.3894
8.380000 87.094 -71.5276
8.500000 87.242 -71.7224
8.620000 87.399 -71.9981
8.750000 87.572 -72.4055
8.850000 87.706 -72.8035
9.000000 87.903 -73.5352
9.120000 88.052 -74.2260
9.250000 88.201 -75.0655
9.380000 88.335 -75.9779
9.500000 88.444 -76.8593
9.620000 88.538 -77.7565
9.750000 88.623 -78.7245
9.880000 88.690 -79.6633
10.000000 88.738 -80.4872
10.150000 88.785 -81.4470
10.300000 88.823 -82.3219
10.440000 88.857 -83.0657
10.600000 88.902 -83.8512
10.750000 88.954 -84.5505
10.900000 89.016 -85.2421
11.060000 89.091 -86.0016
11.200000 89.161 -86.6992
11.380000 89.252 -87.6463
11.500000 89.310 -88.3035
11.720000 89.402 -89.5195
11.800000 89.431 -89.9511
12.060000 89.509 -91.2379
12.200000 89.546 -91.8193
12.410000 89.610 -92.5118
12.500000 89.645 -92.7426
12.650000 89.719 -93.0533
12.800000 89.815 -93.3029
13.150000 90.129 -93.9003
13.200000 90.183 -94.0140
13.400000 90.408 -94.5935
13.600000 90.638 -95.4028
13.800000 90.851 -96.4322
14.000000 91.031 -97.6152
14.300000 91.216 -99.4454
14.500000 91.285 -100.5244
14.750000 91.328 -101.5308
15.000000 91.361 -102.0660
15.250000 91.428 -102.1860
15.500000 91.559 -102.1120
15.750000 91.757 -102.1461
16.000000 91.994 -102.5427
16.250000 92.227 -103.4062
16.500000 92.411 -104.6702
16.750000 92.515 -106.1388
17.000000 92.532 -107.5535
17.250000 92.476 -108.6649
17.500000 92.383 -109.2998
17.750000 92.298 -109.4235
18.000000 92.264 -109.1680
18.250000 92.303 -108.7935
18.500000 92.407 -108.5825
18.750000 92.546 -108.7231
19.000000 92.681 -109.2509
19.250000 92.780 -110.0605
19.500000 92.829 -110.9684
19.750000 92.834 -111.7820
20.000000 92.814 -112.3580
20.299999 92.802 -112.6702
20.600000 92.844 -112.6848
20.900000 92.963 -112.6665
21.200001 93.143 -112.8828
21.400000 93.280 -113.2338
21.799999 93.548 -114.4217
22.000000 93.663 -115.1909
22.400000 93.843 -116.8564
22.700001 93.941 -118.0665
23.000000 94.020 -119.1619
23.299999 94.090 -120.1237
23.600000 94.159 -120.9661
24.000000 94.259 -121.9596
24.299999 94.340 -122.6593
24.700001 94.454 -123.6172
25.000000 94.537 -124.4023
25.400000 94.624 -125.5577
25.799999 94.666 -126.7647
26.200001 94.652 -127.8619
26.500000 94.613 -128.5078
26.900000 94.541 -129.0462
27.200001 94.490 -129.2009
27.600000 94.446 -129.1248
28.000000 94.447 -128.8192
28.500000 94.536 -128.3360
29.000000 94.732 -128.1443
29.500000 94.989 -128.7039
30.000000 95.203 -130.0876
30.400000 95.286 -131.4625
30.700001 95.294 -132.3873
31.100000 95.265 -133.2281
31.500000 95.251 -133.5727
32.000000 95.321 -133.7096
32.500000 95.460 -134.1432
33.000000 95.564 -135.0073
33.500000 95.577 -135.8129
34.000000 95.551 -136.0668
34.500000 95.579 -135.8370
35.000000 95.692 -135.6694
35.500000 95.835 -135.9766
36.000000 95.943 -136.7107
36.500000 96.000 -137.6008
37.000000 96.023 -138.4835
37.500000 96.028 -139.3424
38.200001 96.000 -140.4114
38.700001 95.975 -140.9103
39.500000 96.024 -141.3591
40.000000 96.123 -141.8319
40.599998 96.239 -142.8620
41.200001 96.277 -144.0882
41.799999 96.236 -144.9321
42.500000 96.189 -145.0811
43.099998 96.222 -144.8333
43.700001 96.313 -144.7592
44.400002 96.414 -145.1279
45.000000 96.454 -145.6487
45.500000 96.458 -146.0811
46.200001 96.443 -146.6346
46.799999 96.421 -147.0876
47.500000 96.396 -147.5753
48.200001 96.395 -148.0532
48.700001 96.414 -148.4810
49.400002 96.444 -149.2625
50.000000 96.453 -149.9895
50.799999 96.446 -150.7510
51.500000 96.450 -151.1257
52.200001 96.484 -151.3005
53.000000 96.570 -151.5200
53.799999 96.665 -152.1471
54.500000 96.680 -153.0062
55.200001 96.607 -153.6941
56.000000 96.485 -153.8690
57.000000 96.396 -153.4301
58.000000 96.425 -152.7581
59.000000 96.587 -152.4444
60.000000 96.778 -152.9708
60.799999 96.886 -153.6951
61.500000 96.948 -154.3385
62.200001 96.984 -154.9448
63.000000 96.990 -155.5299
64.000000 96.964 -156.0254
65.000000 96.926 -156.3145
66.000000 96.897 -156.5228
67.000000 96.887 -156.8311
68.000000 96.883 -157.3185
69.000000 96.878 -157.8460
70.000000 96.889 -158.3434
71.000000 96.910 -158.8687
72.000000 96.927 -159.3320
73.000000 96.948 -159.6930
74.000000 96.969 -160.0236
75.000000 96.985 -160.3203
76.199997 97.009 -160.6875
77.500000 97.035 -161.2273
78.800003 97.052 -161.8334
80.000000 97.074 -162.3501
81.199997 97.105 -162.8436
82.500000 97.133 -163.3458
83.800003 97.139 -163.7317
85.000000 97.130 -163.9305
86.199997 97.123 -164.0832
87.500000 97.108 -164.4424
88.500000 97.074 -164.8418
90.000000 96.999 -165.3124
91.199997 96.974 -165.4777
92.500000 97.005 -165.7904
93.800003 97.037 -166.2855
95.000000 97.057 -166.5504
96.199997 97.092 -166.5905
97.500000 97.151 -166.5718
98.800003 97.212 -166.6798
100.000000 97.250 -166.9351
101.500000 97.268 -167.3948
103.000000 97.263 -167.9266
104.400002 97.244 -168.3489
106.000000 97.218 -168.5064
107.500000 97.214 -168.2356
109.000000 97.257 -167.7398
110.599998 97.353 -167.3533
112.000000 97.458 -167.4104
113.800003 97.548 -168.0155
115.000000 97.563 -168.4580
117.199997 97.508 -169.0859
118.000000 97.469 -169.2212
120.599998 97.349 -169.9548
122.000000 97.268 -170.8221
124.099998 97.124 -171.8380
125.000000 97.090 -171.9194
126.500000 97.110 -171.6545
128.000000 97.215 -171.2644
131.500000 97.446 -171.2571
132.000000 97.451 -171.3489
134.000000 97.390 -171.7589
136.000000 97.247 -172.2338
138.000000 97.100 -173.0042
140.000000 97.011 -173.9930
143.000000 97.045 -174.9539
145.000000 97.102 -175.0141
147.500000 97.119 -174.8256
150.000000 97.122 -175.1559
152.500000 97.167 -175.9236
155.000000 97.238 -176.3531
157.500000 97.271 -176.4103
160.000000 97.255 -176.7614
162.500000 97.215 -177.4839
165.000000 97.209 -177.9292
167.500000 97.224 -178.0876
170.000000 97.208 -178.1632
172.500000 97.175 -178.3023
175.000000 97.152 -178.4056
177.500000 97.136 -178.4569
180.000000 97.055 -178.4257
182.500000 96.945 -177.9075
185.000000 96.967 -177.2496
187.500000 97.139 -177.4214
190.000000 97.299 -178.3970
192.500000 97.355 -179.3287
195.000000 97.325 -179.8003
197.500000 97.240 -179.8317
200.000000 97.127 -179.6851
203.000000 96.992 -179.6844
206.000000 96.904 -179.7032
209.000000 96.880 -179.5439
212.000000 96.878 -179.5433
214.000000 96.874 -179.7932
218.000000 96.865 179.3500
220.000000 96.862 179.0049
224.000000 96.864 178.8480
227.000000 96.903 178.8986
230.000000 96.975 178.7313
233.000000 97.037 178.4801
236.000000 97.024 178.4783
240.000000 96.884 178.6092
243.000000 96.775 178.3872
247.000000 96.695 178.0026
250.000000 96.652 177.7993
254.000000 96.594 177.4288
258.000000 96.560 176.9102
262.000000 96.529 176.3936
265.000000 96.498 176.0863
269.000000 96.457 175.7813
272.000000 96.448 175.6019
276.000000 96.467 175.5360
280.000000 96.487 175.5924
285.000000 96.472 175.5097
290.000000 96.411 175.4569
295.000000 96.345 175.3643
300.000000 96.310 175.0232
304.000000 96.288 174.7396
307.000000 96.279 174.5974
311.000000 96.282 174.4974
315.000000 96.286 174.5681
320.000000 96.276 174.8508
325.000000 96.258 175.0081
330.000000 96.241 174.8956
335.000000 96.219 174.7345
340.000000 96.168 174.4543
345.000000 96.100 173.9510
350.000000 96.050 173.5353
355.000000 96.038 173.2134
360.000000 96.083 172.9814
365.000000 96.183 173.0688
370.000000 96.278 173.5116
375.000000 96.279 174.1351
382.000000 96.060 174.9561
387.000000 95.830 174.7056
395.000000 95.669 173.4810
400.000000 95.658 173.3910
406.000000 95.612 173.4401
412.000000 95.574 173.3457
418.000000 95.556 173.3017
425.000000 95.526 173.2624
431.000000 95.488 173.2767
437.000000 95.440 173.3201
444.000000 95.364 173.4903
450.000000 95.294 173.7541
455.000000 95.251 173.8597
462.000000 95.225 173.5481
468.000000 95.209 172.9608
475.000000 95.148 172.6323
482.000000 95.092 172.8613
487.000000 95.076 173.0866
494.000000 95.075 173.3773
500.000000 95.071 173.8968
508.000000 95.001 174.8619
515.000000 94.910 175.1678
522.000000 94.865 175.0294
530.000000 94.822 175.0264
538.000000 94.773 175.0307
545.000000 94.726 175.0729
552.000000 94.682 175.1851
560.000000 94.647 175.3922
570.000000 94.627 175.6111
580.000000 94.591 175.9339
590.000000 94.522 176.2100
600.000000 94.463 176.2853
608.000000 94.447 176.2178
615.000000 94.446 176.2180
622.000000 94.430 176.5737
630.000000 94.392 177.4960
640.000000 94.372 178.6765
650.000000 94.339 179.0958
660.000000 94.240 179.0596
670.000000 94.124 179.1807
680.000000 94.057 179.5658
690.000000 94.024 -179.9779
700.000000 93.999 -179.5563
710.000000 93.982 -179.1059
720.000000 93.967 -178.6545
730.000000 93.947 -178.1866
740.000000 93.917 -177.7068
750.000000 93.882 -177.2171
762.000000 93.863 -176.6232
775.000000 93.877 -175.9681
788.000000 93.867 -175.1721
800.000000 93.835 -174.3151
812.000000 93.804 -173.3223
825.000000 93.772 -172.2844
838.000000 93.740 -171.4922
850.000000 93.717 -170.9589
862.000000 93.710 -170.3903
875.000000 93.739 -169.6890
885.000000 93.773 -169.2068
900.000000 93.810 -168.5670
912.000000 93.833 -168.0345
925.000000 93.864 -167.4158
938.000000 93.902 -166.7751
950.000000 93.941 -166.1728
962.000000 93.981 -165.5734
975.000000 94.026 -164.9512
988.000000 94.069 -164.3721
1000.000000 94.108 -163.8858
1015.000000 94.155 -163.3229
1030.000000 94.204 -162.7686
1044.000000 94.254 -162.2498
1060.000000 94.312 -161.6434
1075.000000 94.363 -161.0144
1090.000000 94.417 -160.3488
1106.000000 94.479 -159.6813
1120.000000 94.542 -159.1292
1138.000000 94.638 -158.3978
1150.000000 94.713 -157.8674
1172.000000 94.872 -156.8751
1180.000000 94.934 -156.5506
1206.000000 95.141 -155.7897
1220.000000 95.268 -155.4988
1241.000000 95.486 -155.1270
1250.000000 95.581 -155.0227
1265.000000 95.737 -154.9402
1280.000000 95.889 -154.9601
1315.000000 96.212 -155.2607
1320.000000 96.254 -155.3181
1340.000000 96.417 -155.5721
1360.000000 96.572 -155.8688
1380.000000 96.718 -156.2102
1400.000000 96.854 -156.6014
1430.000000 97.044 -157.2578
1450.000000 97.165 -157.7192
1475.000000 97.308 -158.3412
1500.000000 97.435 -159.0239
1525.000000 97.555 -159.7216
1550.000000 97.686 -160.3951
1575.000000 97.816 -160.9928
1600.000000 97.932 -161.5740
1625.000000 98.037 -162.2309
1650.000000 98.133 -162.9606
1675.000000 98.215 -163.7444
1700.000000 98.283 -164.5315
1725.000000 98.350 -165.2758
1750.000000 98.425 -166.0157
1775.000000 98.508 -166.8050
1800.000000 98.588 -167.6095
1825.000000 98.656 -168.4079
1850.000000 98.715 -169.2051
1875.000000 98.765 -170.0040
1900.000000 98.807 -170.8198
1925.000000 98.843 -171.6426
1950.000000 98.877 -172.4712
1975.000000 98.907 -173.3192
2000.000000 98.932 -174.1921
2030.000000 98.953 -175.2615
2060.000000 98.963 -176.3467
2090.000000 98.961 -177.4418
2120.000000 98.946 -178.5233
2140.000000 98.930 -179.2293
2180.000000 98.886 179.3931
2200.000000 98.858 178.7226
2240.000000 98.790 177.4194
2270.000000 98.729 176.4703
2300.000000 98.659 175.5535
2330.000000 98.581 174.6803
2360.000000 98.495 173.8497
2400.000000 98.371 172.7977
2430.000000 98.276 172.0442
2470.000000 98.147 171.0944
2500.000000 98.048 170.4267
2540.000000 97.909 169.5988
2580.000000 97.763 168.8408
2620.000000 97.610 168.1443
2650.000000 97.493 167.6608
2690.000000 97.333 167.0642
2720.000000 97.212 166.6449
2760.000000 97.047 166.1195
2800.000000 96.876 165.6385
2850.000000 96.651 165.0951
2900.000000 96.417 164.6088
2950.000000 96.173 164.1960
3000.000000 95.916 163.8699
3040.000000 95.700 163.6783
3070.000000 95.533 163.5772
3110.000000 95.301 163.5016
3150.000000 95.059 163.5046
3200.000000 94.738 163.6453
3250.000000 94.398 163.9733
3300.000000 94.040 164.5380
3350.000000 93.670 165.3996
3400.000000 93.297 166.6041
3450.000000 92.933 168.1708
3500.000000 92.595 170.0809
3550.000000 92.293 172.2772
3600.000000 92.031 174.6915
3650.000000 91.809 177.2717
3700.000000 91.628 179.9828
3750.000000 91.487 -177.2094
3820.000000 91.354 -173.1702
3870.000000 91.306 -170.2335
3950.000000 91.310 -165.5021
4000.000000 91.364 -162.5688
4060.000000 91.479 -159.1333
4120.000000 91.643 -155.8570
4180.000000 91.849 -152.7744
4250.000000 92.132 -149.4300
4310.000000 92.404 -146.7699
4370.000000 92.700 -144.2873
4440.000000 93.074 -141.5919
4500.000000 93.422 -139.4395
4550.000000 93.730 -137.7533
4620.000000 94.190 -135.5543
4680.000000 94.616 -133.8077
4750.000000 95.157 -131.9249
4820.000000 95.761 -130.2865
4870.000000 96.233 -129.3577
4940.000000 96.945 -128.5200
5000.000000 97.593 -128.3169
5080.000000 98.492 -128.9108
5150.000000 99.287 -130.3450
5220.000000 100.057 -132.6971
5300.000000 100.862 -136.5066
5380.000000 101.537 -141.3971
5450.000000 101.986 -146.3704
5520.000000 102.280 -151.7429
5600.000000 102.418 -158.0279
5700.000000 102.311 -165.5419
5800.000000 101.950 -172.1401
5900.000000 101.414 -177.5069
6000.000000 100.780 178.4354
6080.000000 100.244 176.0862
6150.000000 99.773 174.6291
6220.000000 99.314 173.6787
6300.000000 98.820 173.1411
6400.000000 98.268 173.1647
6500.000000 97.800 173.8125
6600.000000 97.422 174.9357
6700.000000 97.138 176.4048
6800.000000 96.951 178.1022
6900.000000 96.864 179.9151
7000.000000 96.881 -178.2703
7100.000000 97.006 -176.5758
7200.000000 97.245 -175.1482
7300.000000 97.601 -174.1734
7400.000000 98.072 -173.8871
7500.000000 98.642 -174.5731
7620.000000 99.405 -177.1038
7750.000000 100.196 177.6376
7880.000000 100.748 169.7645
8000.000000 100.865 160.8412
8120.000000 100.508 151.5142
8250.000000 99.614 142.4406
8380.000000 98.342 135.5092
8500.000000 97.006 131.2597
8620.000000 95.641 128.8118
8750.000000 94.206 127.7548
8850.000000 93.153 127.8510
9000.000000 91.668 129.2326
9120.000000 90.573 131.2470
9250.000000 89.486 134.1620
9380.000000 88.507 137.6697
9500.000000 87.701 141.3002
9620.000000 86.985 145.2032
9750.000000 86.308 149.6501
9880.000000 85.729 154.2581
10000.000000 85.282 158.6121
10150.000000 84.844 164.1437
10300.000000 84.537 169.7312
10440.000000 84.370 174.9391
10600.000000 84.327 -179.2064
10750.000000 84.443 -173.9148
10900.000000 84.733 -168.9796
11060.000000 85.262 -164.4340
11200.000000 85.925 -161.4962
11380.000000 87.023 -160.0027
11500.000000 87.847 -160.9601
11720.000000 89.259 -167.5463
11800.000000 89.644 -171.4590
12060.000000 89.996 172.1393
12200.000000 89.499 162.8178
12410.000000 87.944 151.2864
12500.000000 87.064 147.7876
12650.000000 85.448 144.1248
12800.000000 83.785 142.9882
13150.000000 80.326 146.8882
13200.000000 79.902 147.8585
13400.000000 78.359 152.2209
13600.000000 77.018 157.0855
13800.000000 75.834 162.2215
14000.000000 74.777 167.3791
14300.000000 73.351 174.6130
14500.000000 72.425 178.8533
14750.000000 71.154 -176.4120
15000.000000 69.607 -171.3031
15250.000000 67.731 -162.8300
15500.000000 65.972 -143.8264
15750.000000 65.733 -104.6664
16000.000000 67.540 -72.9078
16250.000000 69.738 -64.1638
16500.000000 71.359 -64.2921
16750.000000 72.392 -66.4609
17000.000000 73.077 -68.6812
17250.000000 73.591 -71.1862
17500.000000 73.913 -74.8394
17750.000000 73.883 -79.6636
18000.000000 73.380 -84.4907
18250.000000 72.422 -87.7264
18500.000000 71.159 -88.2327
18750.000000 69.794 -85.6906
19000.000000 68.511 -80.5992
19250.000000 67.404 -74.0443
19500.000000 66.458 -67.2137
19750.000000 65.581 -60.8994
20000.000000 64.657 -55.3494
20300.000000 63.334 -49.4625
20600.000000 61.657 -43.9762
20900.000000 59.567 -38.7720
21200.000000 57.064 -34.0615
21400.000000 55.178 -31.3834
21800.000000 50.960 -27.8802
22000.000000 48.733 -27.3649
22400.000000 44.977 -29.4324
22700.000000 44.569 -35.3784
23000.000000 46.853 -49.2056
23300.000000 50.108 -71.1635
23600.000000 53.006 -86.7014
24000.000000 55.089 -91.4313
