* Measurement data measured by REW V5.31.3
* Source: Mic In (Elgato Wave:XLR), MICROPHONE (Master Volume), R, volume: 0.630
* Format: 2M Log Swept Sine, 1 sweep at -12.0 dBFS with no timing reference
* Dated: Jul 31, 2024 7:46:59 AM
* REW Settings:
*  C-weighting compensation: Off
*  Target level: 75.0 dB
* Note: ; 
* Measurement: DUNU DaVinci L
* Smoothing: 1/24 octave
* Frequency Step: 1/48 octave
* Start Frequency: 1.000 Hz
*
* Freq(Hz), SPL(dB), Phase(degrees)
1.000000, 59.561, 165.9918
1.015000, 59.751, 164.8147
1.030000, 59.942, 163.6191
1.044000, 60.120, 162.4847
1.060000, 60.324, 161.1639
1.075000, 60.515, 159.8999
1.090000, 60.707, 158.6098
1.106000, 60.913, 157.2098
1.120000, 61.093, 155.9763
1.138000, 61.325, 154.3908
1.150000, 61.479, 153.3369
1.172000, 61.762, 151.4156
1.180000, 61.865, 150.7213
1.206000, 62.198, 148.4840
1.220000, 62.377, 147.2925
1.241000, 62.646, 145.5238
1.250000, 62.761, 144.7726
1.265000, 62.952, 143.5296
1.280000, 63.143, 142.2976
1.315000, 63.587, 139.4624
1.320000, 63.650, 139.0615
1.340000, 63.903, 137.4669
1.360000, 64.154, 135.8849
1.380000, 64.405, 134.3130
1.400000, 64.654, 132.7485
1.430000, 65.027, 130.4095
1.450000, 65.274, 128.8519
1.475000, 65.581, 126.9111
1.500000, 65.887, 124.9989
1.525000, 66.193, 123.1268
1.550000, 66.498, 121.2951
1.575000, 66.802, 119.5012
1.600000, 67.105, 117.7411
1.625000, 67.406, 116.0105
1.650000, 67.705, 114.3045
1.675000, 68.003, 112.6177
1.700000, 68.298, 110.9446
1.725000, 68.591, 109.2800
1.750000, 68.881, 107.6183
1.775000, 69.169, 105.9542
1.800000, 69.453, 104.2829
1.825000, 69.735, 102.6014
1.850000, 70.013, 100.9148
1.875000, 70.289, 99.2355
1.900000, 70.563, 97.5720
1.925000, 70.835, 95.9283
1.950000, 71.104, 94.3069
1.975000, 71.371, 92.7089
2.000000, 71.635, 91.1342
2.030000, 71.949, 89.2747
2.060000, 72.258, 87.4454
2.090000, 72.564, 85.6427
2.120000, 72.866, 83.8621
2.140000, 73.064, 82.6849
2.180000, 73.456, 80.3467
2.200000, 73.649, 79.1829
2.240000, 74.029, 76.8650
2.270000, 74.310, 75.1411
2.300000, 74.586, 73.4357
2.330000, 74.858, 71.7523
2.360000, 75.126, 70.0934
2.400000, 75.477, 67.9210
2.430000, 75.735, 66.3212
2.470000, 76.075, 64.2252
2.500000, 76.324, 62.6785
2.540000, 76.652, 60.6443
2.580000, 76.972, 58.6318
2.620000, 77.285, 56.6299
2.650000, 77.516, 55.1370
2.690000, 77.816, 53.1655
2.720000, 78.037, 51.7054
2.760000, 78.326, 49.7878
2.800000, 78.609, 47.9068
2.850000, 78.954, 45.6095
2.900000, 79.291, 43.3708
2.950000, 79.619, 41.1769
3.000000, 79.936, 39.0022
3.040000, 80.184, 37.2758
3.070000, 80.365, 35.9931
3.110000, 80.602, 34.3042
3.150000, 80.833, 32.6443
3.200000, 81.116, 30.6161
3.250000, 81.392, 28.6440
3.300000, 81.661, 26.7242
3.350000, 81.922, 24.8364
3.400000, 82.175, 22.9677
3.450000, 82.420, 21.1240
3.500000, 82.659, 19.3138
3.550000, 82.892, 17.5449
3.600000, 83.119, 15.8230
3.650000, 83.342, 14.1500
3.700000, 83.559, 12.5164
3.750000, 83.770, 10.9078
3.820000, 84.056, 8.6962
3.870000, 84.254, 7.1511
3.950000, 84.563, 4.7505
4.000000, 84.752, 3.2995
4.060000, 84.974, 1.6051
4.120000, 85.190, -0.0513
4.180000, 85.400, -1.6745
4.250000, 85.640, -3.5245
4.310000, 85.840, -5.0703
4.370000, 86.038, -6.5779
4.440000, 86.264, -8.2917
4.500000, 86.454, -9.7287
4.550000, 86.609, -10.9058
4.620000, 86.823, -12.5233
4.680000, 87.002, -13.8820
4.750000, 87.208, -15.4361
4.820000, 87.410, -16.9606
4.870000, 87.552, -18.0337
4.940000, 87.748, -19.5145
5.000000, 87.912, -20.7637
5.080000, 88.125, -22.4011
5.150000, 88.308, -23.8101
5.220000, 88.486, -25.2023
5.300000, 88.685, -26.7730
5.380000, 88.878, -28.3176
5.450000, 89.042, -29.6449
5.520000, 89.202, -30.9514
5.600000, 89.378, -32.4272
5.700000, 89.591, -34.2437
5.800000, 89.794, -36.0150
5.900000, 89.988, -37.7361
6.000000, 90.173, -39.4205
6.080000, 90.314, -40.7400
6.150000, 90.434, -41.8679
6.220000, 90.551, -42.9675
6.300000, 90.679, -44.1934
6.400000, 90.833, -45.6868
6.500000, 90.981, -47.1333
6.600000, 91.125, -48.5265
6.700000, 91.263, -49.8688
6.800000, 91.397, -51.1666
6.900000, 91.529, -52.4221
7.000000, 91.658, -53.6349
7.100000, 91.785, -54.8075
7.200000, 91.910, -55.9455
7.300000, 92.033, -57.0548
7.400000, 92.156, -58.1375
7.500000, 92.278, -59.1948
7.620000, 92.423, -60.4376
7.750000, 92.578, -61.7612
7.880000, 92.731, -63.0627
8.000000, 92.871, -64.2491
8.120000, 93.008, -65.4264
8.250000, 93.154, -66.6926
8.380000, 93.296, -67.9498
8.500000, 93.423, -69.1044
8.620000, 93.547, -70.2542
8.750000, 93.677, -71.4924
8.850000, 93.773, -72.4395
9.000000, 93.913, -73.8525
9.120000, 94.019, -74.9724
9.250000, 94.129, -76.1737
9.380000, 94.234, -77.3627
9.500000, 94.325, -78.4432
9.620000, 94.412, -79.5058
9.750000, 94.501, -80.6359
9.880000, 94.585, -81.7364
10.000000, 94.658, -82.7230
10.150000, 94.745, -83.9162
10.300000, 94.828, -85.0567
10.440000, 94.902, -86.0724
10.600000, 94.987, -87.1787
10.750000, 95.068, -88.1632
10.900000, 95.151, -89.1052
11.060000, 95.245, -90.0771
11.200000, 95.331, -90.9061
11.380000, 95.447, -91.9673
11.500000, 95.528, -92.6803
11.720000, 95.681, -94.0166
11.800000, 95.737, -94.5176
12.060000, 95.916, -96.2000
12.200000, 96.007, -97.1392
12.410000, 96.133, -98.5752
12.500000, 96.183, -99.1925
12.650000, 96.258, -100.2183
12.800000, 96.325, -101.2236
13.150000, 96.454, -103.4225
13.200000, 96.470, -103.7143
13.400000, 96.532, -104.8182
13.600000, 96.592, -105.8241
13.800000, 96.657, -106.7408
14.000000, 96.730, -107.5966
14.300000, 96.855, -108.8274
14.500000, 96.947, -109.6588
14.750000, 97.067, -110.7464
15.000000, 97.183, -111.9012
15.250000, 97.288, -113.1112
15.500000, 97.377, -114.3397
15.750000, 97.447, -115.5438
16.000000, 97.500, -116.6796
16.250000, 97.543, -117.7178
16.500000, 97.582, -118.6494
16.750000, 97.623, -119.4855
17.000000, 97.671, -120.2576
17.250000, 97.728, -121.0048
17.500000, 97.793, -121.7665
17.750000, 97.861, -122.5715
18.000000, 97.927, -123.4308
18.250000, 97.987, -124.3385
18.500000, 98.036, -125.2728
18.750000, 98.074, -126.2041
19.000000, 98.101, -127.1031
19.250000, 98.120, -127.9464
19.500000, 98.137, -128.7247
19.750000, 98.156, -129.4424
20.000000, 98.181, -130.1162
20.299999, 98.219, -130.9004
20.600000, 98.267, -131.6956
20.900000, 98.320, -132.5287
21.200001, 98.374, -133.4080
21.400000, 98.407, -134.0157
21.799999, 98.465, -135.2579
22.000000, 98.489, -135.8783
22.400000, 98.525, -137.0824
22.700001, 98.545, -137.9279
23.000000, 98.561, -138.7062
23.299999, 98.578, -139.4127
23.600000, 98.600, -140.0568
24.000000, 98.641, -140.8647
24.299999, 98.682, -141.4774
24.700001, 98.741, -142.3560
25.000000, 98.783, -143.0696
25.400000, 98.825, -144.0630
25.799999, 98.852, -145.0466
26.200001, 98.868, -145.9798
26.500000, 98.877, -146.6487
26.900000, 98.887, -147.5229
27.200001, 98.891, -148.1741
27.600000, 98.888, -149.0176
28.000000, 98.877, -149.7889
28.500000, 98.867, -150.6139
29.000000, 98.880, -151.3585
29.500000, 98.916, -152.1792
30.000000, 98.953, -153.1498
30.400000, 98.966, -153.9827
30.700001, 98.965, -154.5862
31.100000, 98.952, -155.3005
31.500000, 98.935, -155.8708
32.000000, 98.929, -156.3919
32.500000, 98.956, -156.8218
33.000000, 99.010, -157.3596
33.500000, 99.062, -158.1237
34.000000, 99.074, -159.0062
34.500000, 99.038, -159.7238
35.000000, 98.998, -160.0850
35.500000, 99.005, -160.2438
36.000000, 99.067, -160.5924
36.500000, 99.130, -161.3671
37.000000, 99.137, -162.3948
37.500000, 99.083, -163.2692
38.200001, 99.011, -163.8613
38.700001, 99.028, -164.1349
39.500000, 99.119, -165.1549
40.000000, 99.140, -166.0964
40.599998, 99.115, -167.0876
41.200001, 99.089, -167.7463
41.799999, 99.096, -168.2889
42.500000, 99.110, -169.0298
43.099998, 99.103, -169.6332
43.700001, 99.099, -170.1133
44.400002, 99.121, -170.7496
45.000000, 99.132, -171.5396
45.500000, 99.115, -172.2954
46.200001, 99.056, -173.2736
46.799999, 99.003, -173.9832
47.500000, 98.956, -174.7603
48.200001, 98.922, -175.5468
48.700001, 98.903, -176.0942
49.400002, 98.886, -176.8044
50.000000, 98.884, -177.3812
50.799999, 98.880, -178.1404
51.500000, 98.860, -178.6613
52.200001, 98.848, -178.9660
53.000000, 98.857, -179.3508
53.799999, 98.839, -179.9407
54.500000, 98.788, 179.5499
55.200001, 98.726, 179.0715
56.000000, 98.653, 178.5237
57.000000, 98.604, 177.5042
58.000000, 98.471, 175.6447
59.000000, 98.173, 175.1052
60.000000, 98.173, 176.0142
60.799999, 98.337, 175.6388
61.500000, 98.405, 174.7335
62.200001, 98.410, 174.0146
63.000000, 98.403, 173.5338
64.000000, 98.399, 173.1017
65.000000, 98.383, 172.5551
66.000000, 98.320, 171.9763
67.000000, 98.249, 171.5203
68.000000, 98.191, 171.0037
69.000000, 98.140, 170.4141
70.000000, 98.090, 169.7616
71.000000, 98.031, 169.1948
72.000000, 97.981, 168.7950
73.000000, 97.947, 168.4250
74.000000, 97.915, 167.9945
75.000000, 97.874, 167.5115
76.199997, 97.812, 166.9208
77.500000, 97.742, 166.3279
78.800003, 97.682, 165.7642
80.000000, 97.634, 165.1964
81.199997, 97.568, 164.6183
82.500000, 97.495, 164.1518
83.800003, 97.431, 163.6527
85.000000, 97.369, 163.1523
86.199997, 97.301, 162.6285
87.500000, 97.227, 162.1827
88.500000, 97.183, 161.8384
90.000000, 97.110, 161.3083
91.199997, 97.049, 160.8967
92.500000, 96.973, 160.4900
93.800003, 96.900, 160.1459
95.000000, 96.836, 159.8478
96.199997, 96.776, 159.5691
97.500000, 96.712, 159.2266
98.800003, 96.635, 158.8810
100.000000, 96.560, 158.6207
101.500000, 96.470, 158.2979
103.000000, 96.385, 157.9662
104.400002, 96.316, 157.6157
106.000000, 96.234, 157.1743
107.500000, 96.153, 156.7742
109.000000, 96.064, 156.4022
110.599998, 95.967, 156.1223
112.000000, 95.898, 155.9061
113.800003, 95.805, 155.5167
115.000000, 95.730, 155.3052
117.199997, 95.597, 155.0534
118.000000, 95.553, 154.9450
120.599998, 95.413, 154.5181
122.000000, 95.338, 154.2914
124.099998, 95.222, 154.0774
125.000000, 95.175, 154.0100
126.500000, 95.096, 153.8788
128.000000, 95.017, 153.7073
131.500000, 94.837, 153.2826
132.000000, 94.812, 153.2427
134.000000, 94.709, 153.1422
136.000000, 94.590, 153.0927
138.000000, 94.454, 152.9935
140.000000, 94.324, 152.9296
143.000000, 94.184, 152.7856
145.000000, 94.100, 152.7113
147.500000, 93.987, 152.7135
150.000000, 93.856, 152.6556
152.500000, 93.714, 152.6943
155.000000, 93.589, 152.8030
157.500000, 93.473, 152.9151
160.000000, 93.356, 152.9836
162.500000, 93.238, 153.0471
165.000000, 93.121, 153.1604
167.500000, 93.004, 153.3282
170.000000, 92.883, 153.5256
172.500000, 92.763, 153.7302
175.000000, 92.647, 153.9486
177.500000, 92.534, 154.1981
180.000000, 92.419, 154.4905
182.500000, 92.305, 154.8102
185.000000, 92.194, 155.1564
187.500000, 92.086, 155.5574
190.000000, 91.976, 156.0605
192.500000, 91.872, 156.6846
195.000000, 91.786, 157.3538
197.500000, 91.722, 158.0249
200.000000, 91.682, 158.6929
203.000000, 91.652, 159.3505
206.000000, 91.625, 159.8157
209.000000, 91.597, 160.1288
212.000000, 91.560, 160.4268
214.000000, 91.526, 160.6255
218.000000, 91.439, 161.0210
220.000000, 91.397, 161.2325
224.000000, 91.320, 161.6788
227.000000, 91.260, 162.0717
230.000000, 91.200, 162.4874
233.000000, 91.145, 162.8994
236.000000, 91.098, 163.3032
240.000000, 91.050, 163.8401
243.000000, 91.005, 164.2621
247.000000, 90.936, 164.8383
250.000000, 90.892, 165.2443
254.000000, 90.846, 165.8187
258.000000, 90.800, 166.4398
262.000000, 90.758, 167.0145
265.000000, 90.729, 167.4136
269.000000, 90.690, 167.9756
272.000000, 90.664, 168.3958
276.000000, 90.636, 168.9203
280.000000, 90.610, 169.4513
285.000000, 90.579, 170.1158
290.000000, 90.557, 170.7763
295.000000, 90.541, 171.3916
300.000000, 90.527, 171.9488
304.000000, 90.517, 172.4017
307.000000, 90.512, 172.7386
311.000000, 90.508, 173.1846
315.000000, 90.506, 173.6268
320.000000, 90.498, 174.1547
325.000000, 90.493, 174.6361
330.000000, 90.487, 175.1137
335.000000, 90.481, 175.5953
340.000000, 90.476, 176.0328
345.000000, 90.476, 176.4679
350.000000, 90.475, 176.8593
355.000000, 90.478, 177.2120
360.000000, 90.484, 177.5371
365.000000, 90.491, 177.8739
370.000000, 90.499, 178.2402
375.000000, 90.506, 178.6200
382.000000, 90.517, 179.1121
387.000000, 90.524, 179.4500
395.000000, 90.538, 179.9579
400.000000, 90.547, -179.7692
406.000000, 90.566, -179.4783
412.000000, 90.589, -179.2347
418.000000, 90.607, -179.0688
425.000000, 90.620, -178.9682
431.000000, 90.619, -178.9031
437.000000, 90.608, -178.7744
444.000000, 90.589, -178.5116
450.000000, 90.576, -178.2549
455.000000, 90.565, -178.0597
462.000000, 90.551, -177.8022
468.000000, 90.539, -177.5632
475.000000, 90.524, -177.3091
482.000000, 90.507, -177.0671
487.000000, 90.493, -176.8907
494.000000, 90.474, -176.6325
500.000000, 90.461, -176.4191
508.000000, 90.445, -176.1137
515.000000, 90.430, -175.8445
522.000000, 90.414, -175.5878
530.000000, 90.392, -175.3047
538.000000, 90.368, -175.0167
545.000000, 90.353, -174.7849
552.000000, 90.339, -174.5411
560.000000, 90.319, -174.2448
570.000000, 90.293, -173.8243
580.000000, 90.261, -173.3829
590.000000, 90.232, -173.0255
600.000000, 90.207, -172.6674
608.000000, 90.185, -172.3638
615.000000, 90.164, -172.0782
622.000000, 90.142, -171.7896
630.000000, 90.116, -171.4797
640.000000, 90.083, -171.0807
650.000000, 90.050, -170.6736
660.000000, 90.016, -170.2487
670.000000, 89.983, -169.7908
680.000000, 89.950, -169.3469
690.000000, 89.916, -168.9036
700.000000, 89.882, -168.4530
710.000000, 89.850, -167.9733
720.000000, 89.818, -167.4501
730.000000, 89.787, -166.9280
740.000000, 89.758, -166.3987
750.000000, 89.732, -165.8491
762.000000, 89.702, -165.1906
775.000000, 89.668, -164.4491
788.000000, 89.635, -163.7052
800.000000, 89.605, -162.9990
812.000000, 89.581, -162.2502
825.000000, 89.561, -161.4554
838.000000, 89.543, -160.6620
850.000000, 89.532, -159.9139
862.000000, 89.522, -159.1464
875.000000, 89.513, -158.3075
885.000000, 89.509, -157.6409
900.000000, 89.514, -156.6273
912.000000, 89.524, -155.8507
925.000000, 89.537, -155.0207
938.000000, 89.554, -154.1683
950.000000, 89.574, -153.3727
962.000000, 89.601, -152.5938
975.000000, 89.636, -151.7498
988.000000, 89.673, -150.9351
1000.000000, 89.708, -150.2047
1015.000000, 89.758, -149.2758
1030.000000, 89.818, -148.3739
1044.000000, 89.877, -147.5740
1060.000000, 89.947, -146.6865
1075.000000, 90.021, -145.8929
1090.000000, 90.101, -145.1516
1106.000000, 90.191, -144.4229
1120.000000, 90.277, -143.7861
1138.000000, 90.392, -143.0421
1150.000000, 90.468, -142.6080
1172.000000, 90.609, -141.9110
1180.000000, 90.660, -141.6891
1206.000000, 90.818, -141.1091
1220.000000, 90.895, -140.8900
1241.000000, 91.002, -140.6327
1250.000000, 91.044, -140.5217
1265.000000, 91.104, -140.3534
1280.000000, 91.153, -140.2007
1315.000000, 91.246, -139.8075
1320.000000, 91.257, -139.7464
1340.000000, 91.300, -139.4949
1360.000000, 91.337, -139.2115
1380.000000, 91.369, -138.9033
1400.000000, 91.399, -138.5657
1430.000000, 91.444, -138.0184
1450.000000, 91.472, -137.6302
1475.000000, 91.507, -137.0857
1500.000000, 91.539, -136.5282
1525.000000, 91.567, -135.9606
1550.000000, 91.597, -135.3570
1575.000000, 91.629, -134.7267
1600.000000, 91.663, -134.0895
1625.000000, 91.699, -133.4033
1650.000000, 91.737, -132.6866
1675.000000, 91.780, -131.9773
1700.000000, 91.831, -131.2866
1725.000000, 91.885, -130.5798
1750.000000, 91.938, -129.8429
1775.000000, 91.997, -129.1213
1800.000000, 92.062, -128.3834
1825.000000, 92.133, -127.6384
1850.000000, 92.207, -126.8958
1875.000000, 92.286, -126.1670
1900.000000, 92.372, -125.4583
1925.000000, 92.457, -124.7444
1950.000000, 92.547, -124.0399
1975.000000, 92.643, -123.3632
2000.000000, 92.745, -122.7121
2030.000000, 92.873, -121.9393
2060.000000, 93.004, -121.1761
2090.000000, 93.144, -120.4681
2120.000000, 93.296, -119.8018
2140.000000, 93.402, -119.3782
2180.000000, 93.621, -118.5900
2200.000000, 93.733, -118.2222
2240.000000, 93.964, -117.5747
2270.000000, 94.143, -117.1612
2300.000000, 94.329, -116.8110
2330.000000, 94.519, -116.5277
2360.000000, 94.713, -116.3210
2400.000000, 94.978, -116.1843
2430.000000, 95.180, -116.1765
2470.000000, 95.448, -116.3024
2500.000000, 95.647, -116.5020
2540.000000, 95.911, -116.9100
2580.000000, 96.170, -117.4884
2620.000000, 96.418, -118.2377
2650.000000, 96.600, -118.9000
2690.000000, 96.834, -119.9136
2720.000000, 97.001, -120.7739
2760.000000, 97.211, -122.0568
2800.000000, 97.404, -123.4946
2850.000000, 97.615, -125.5013
2900.000000, 97.787, -127.7411
2950.000000, 97.908, -130.1962
3000.000000, 97.965, -132.8291
3040.000000, 97.955, -134.9946
3070.000000, 97.912, -136.5911
3110.000000, 97.811, -138.6126
3150.000000, 97.664, -140.4169
3200.000000, 97.434, -142.2492
3250.000000, 97.183, -143.5750
3300.000000, 96.941, -144.4545
3350.000000, 96.724, -144.9548
3400.000000, 96.546, -145.2127
3450.000000, 96.413, -145.3787
3500.000000, 96.317, -145.5817
3550.000000, 96.242, -145.8916
3600.000000, 96.178, -146.3082
3650.000000, 96.115, -146.7935
3700.000000, 96.053, -147.3359
3750.000000, 95.994, -147.9513
3820.000000, 95.911, -148.9359
3870.000000, 95.842, -149.7307
3950.000000, 95.696, -151.0802
4000.000000, 95.585, -151.8928
4060.000000, 95.441, -152.7661
4120.000000, 95.297, -153.5518
4180.000000, 95.158, -154.3223
4250.000000, 94.995, -155.2354
4310.000000, 94.849, -155.9763
4370.000000, 94.701, -156.6758
4440.000000, 94.533, -157.4606
4500.000000, 94.398, -158.1219
4550.000000, 94.293, -158.6779
4620.000000, 94.154, -159.4931
4680.000000, 94.036, -160.2754
4750.000000, 93.892, -161.3292
4820.000000, 93.735, -162.5316
4870.000000, 93.608, -163.4547
4940.000000, 93.404, -164.7849
5000.000000, 93.199, -165.9079
5080.000000, 92.882, -167.2593
5150.000000, 92.572, -168.2001
5220.000000, 92.241, -168.8525
5300.000000, 91.864, -169.1857
5380.000000, 91.510, -169.1201
5450.000000, 91.229, -168.7986
5520.000000, 90.984, -168.3303
5600.000000, 90.743, -167.7054
5700.000000, 90.488, -166.8289
5800.000000, 90.288, -165.8588
5900.000000, 90.138, -164.8153
6000.000000, 90.035, -163.7048
6080.000000, 89.985, -162.7821
6150.000000, 89.971, -161.9647
6220.000000, 89.990, -161.1404
6300.000000, 90.051, -160.2098
6400.000000, 90.182, -159.1041
6500.000000, 90.373, -158.0898
6600.000000, 90.629, -157.1855
6700.000000, 90.954, -156.4829
6800.000000, 91.341, -156.0179
6900.000000, 91.783, -155.8956
7000.000000, 92.277, -156.2083
7100.000000, 92.809, -157.0034
7200.000000, 93.367, -158.3018
7300.000000, 93.943, -160.1321
7400.000000, 94.535, -162.5439
7500.000000, 95.130, -165.7458
7620.000000, 95.762, -170.9136
7750.000000, 96.213, -177.6555
7880.000000, 96.384, 175.3426
8000.000000, 96.325, 169.2385
8120.000000, 96.108, 163.8293
8250.000000, 95.762, 158.9391
8380.000000, 95.361, 155.0565
8500.000000, 94.987, 152.1531
8620.000000, 94.611, 149.5833
8750.000000, 94.149, 147.1505
8850.000000, 93.744, 145.8111
9000.000000, 93.133, 144.9327
9120.000000, 92.696, 144.9463
9250.000000, 92.282, 145.3845
9380.000000, 91.919, 146.1220
9500.000000, 91.621, 147.0066
9620.000000, 91.360, 148.0319
9750.000000, 91.108, 149.2227
9880.000000, 90.878, 150.4557
10000.000000, 90.677, 151.6566
10150.000000, 90.438, 153.2796
10300.000000, 90.211, 155.0834
10440.000000, 90.014, 156.9339
10600.000000, 89.812, 159.2443
10750.000000, 89.649, 161.5884
10900.000000, 89.514, 164.0904
11060.000000, 89.408, 166.9079
11200.000000, 89.349, 169.4751
11380.000000, 89.323, 172.8695
11500.000000, 89.341, 175.1686
11720.000000, 89.465, 179.3370
11800.000000, 89.542, -179.2247
12060.000000, 89.865, -175.2606
12200.000000, 90.047, -173.5433
12410.000000, 90.314, -171.0864
12500.000000, 90.444, -169.9835
12650.000000, 90.719, -168.1797
12800.000000, 91.074, -166.7643
13150.000000, 92.027, -166.2125
13200.000000, 92.159, -166.4619
13400.000000, 92.639, -168.2679
13600.000000, 93.001, -171.2645
13800.000000, 93.190, -175.1771
14000.000000, 93.179, -179.6068
14300.000000, 92.790, 173.7350
14500.000000, 92.331, 169.7475
14750.000000, 91.602, 165.4167
15000.000000, 90.739, 161.7648
15250.000000, 89.775, 158.6072
15500.000000, 88.707, 155.6364
15750.000000, 87.460, 152.7870
16000.000000, 85.952, 150.6313
