* Measurement data measured by REW V5.31.3
* Source: Mic In (Elgato Wave:XLR), MICROPHONE (Master Volume), R, volume: 0.660
* Format: 2M Log Swept Sine, 1 sweep at -12.0 dBFS with no timing reference
* Dated: Sep 21, 2024 5:14:06 AM
* REW Settings:
*  C-weighting compensation: Off
*  Target level: 75.0 dB
* Note: ; 
* Measurement: Softears Studio 4 R
* Smoothing: 1/24 octave
* Frequency Step: 1/48 octave
* Start Frequency: 1.000 Hz
*
* Freq(Hz), SPL(dB), Phase(degrees)
1.000000, 50.176, 45.4455
1.015000, 50.292, 44.3419
1.030000, 50.408, 43.2422
1.044000, 50.517, 42.2178
1.060000, 50.641, 41.0475
1.075000, 50.758, 39.9489
1.090000, 50.875, 38.8467
1.106000, 51.000, 37.6640
1.120000, 51.108, 36.6206
1.138000, 51.246, 35.2672
1.150000, 51.336, 34.3582
1.172000, 51.500, 32.6805
1.180000, 51.558, 32.0674
1.206000, 51.747, 30.0663
1.220000, 51.847, 28.9848
1.241000, 51.996, 27.3598
1.250000, 52.060, 26.6630
1.265000, 52.165, 25.5016
1.280000, 52.270, 24.3412
1.315000, 52.513, 21.6415
1.320000, 52.548, 21.2572
1.340000, 52.686, 19.7241
1.360000, 52.826, 18.1988
1.380000, 52.965, 16.6828
1.400000, 53.106, 15.1769
1.430000, 53.319, 12.9391
1.450000, 53.462, 11.4623
1.475000, 53.644, 9.6341
1.500000, 53.827, 7.8264
1.525000, 54.009, 6.0390
1.550000, 54.192, 4.2706
1.575000, 54.374, 2.5195
1.600000, 54.557, 0.7833
1.625000, 54.741, -0.9404
1.650000, 54.925, -2.6542
1.675000, 55.111, -4.3610
1.700000, 55.297, -6.0635
1.725000, 55.484, -7.7647
1.750000, 55.673, -9.4673
1.775000, 55.863, -11.1742
1.800000, 56.055, -12.8879
1.825000, 56.248, -14.6093
1.850000, 56.444, -16.3332
1.875000, 56.641, -18.0500
1.900000, 56.839, -19.7546
1.925000, 57.040, -21.4450
1.950000, 57.241, -23.1202
1.975000, 57.444, -24.7797
2.000000, 57.648, -26.4235
2.030000, 57.894, -28.3759
2.060000, 58.141, -30.3074
2.090000, 58.388, -32.2197
2.120000, 58.637, -34.1149
2.140000, 58.802, -35.3701
2.180000, 59.134, -37.8629
2.200000, 59.300, -39.0999
2.240000, 59.633, -41.5433
2.270000, 59.885, -43.3417
2.300000, 60.138, -45.1098
2.330000, 60.392, -46.8483
2.360000, 60.646, -48.5590
2.400000, 60.985, -50.8004
2.430000, 61.240, -52.4549
2.470000, 61.577, -54.6309
2.500000, 61.830, -56.2439
2.540000, 62.164, -58.3743
2.580000, 62.496, -60.4804
2.620000, 62.827, -62.5489
2.650000, 63.074, -64.0709
2.690000, 63.404, -66.0617
2.720000, 63.650, -67.5275
2.760000, 63.977, -69.4491
2.800000, 64.301, -71.3374
2.850000, 64.703, -73.6593
2.900000, 65.099, -75.9480
2.950000, 65.490, -78.2076
3.000000, 65.876, -80.4270
3.040000, 66.182, -82.1677
3.070000, 66.410, -83.4528
3.110000, 66.710, -85.1401
3.150000, 67.008, -86.7992
3.200000, 67.376, -88.8381
3.250000, 67.737, -90.8437
3.300000, 68.093, -92.8220
3.350000, 68.443, -94.7730
3.400000, 68.787, -96.6920
3.450000, 69.126, -98.5762
3.500000, 69.460, -100.4255
3.550000, 69.788, -102.2410
3.600000, 70.110, -104.0254
3.650000, 70.427, -105.7825
3.700000, 70.738, -107.5167
3.750000, 71.043, -109.2290
3.820000, 71.461, -111.5839
3.870000, 71.753, -113.2324
3.950000, 72.210, -115.8091
4.000000, 72.489, -117.3828
4.060000, 72.817, -119.2394
4.120000, 73.138, -121.0682
4.180000, 73.451, -122.8676
4.250000, 73.807, -124.9239
4.310000, 74.106, -126.6462
4.370000, 74.399, -128.3306
4.440000, 74.732, -130.2542
4.500000, 75.011, -131.8746
4.550000, 75.239, -133.2046
4.620000, 75.551, -135.0317
4.680000, 75.813, -136.5627
4.750000, 76.113, -138.3070
4.820000, 76.406, -140.0117
4.870000, 76.611, -141.2092
4.940000, 76.893, -142.8572
5.000000, 77.129, -144.2417
5.080000, 77.438, -146.0455
5.150000, 77.703, -147.5853
5.220000, 77.963, -149.0939
5.300000, 78.253, -150.7832
5.380000, 78.537, -152.4350
5.450000, 78.780, -153.8492
5.520000, 79.020, -155.2357
5.600000, 79.289, -156.7901
5.700000, 79.617, -158.6906
5.800000, 79.937, -160.5445
5.900000, 80.250, -162.3545
6.000000, 80.555, -164.1261
6.080000, 80.794, -165.5162
6.150000, 80.999, -166.7123
6.220000, 81.200, -167.8900
6.300000, 81.427, -169.2160
6.400000, 81.703, -170.8458
6.500000, 81.972, -172.4420
6.600000, 82.235, -174.0032
6.700000, 82.491, -175.5334
6.800000, 82.741, -177.0345
6.900000, 82.985, -178.5026
7.000000, 83.223, -179.9368
7.100000, 83.455, 178.6588
7.200000, 83.682, 177.2837
7.300000, 83.905, 175.9398
7.400000, 84.123, 174.6267
7.500000, 84.337, 173.3412
7.620000, 84.588, 171.8328
7.750000, 84.855, 170.2393
7.880000, 85.117, 168.6845
8.000000, 85.355, 167.2776
8.120000, 85.588, 165.8937
8.250000, 85.838, 164.4183
8.380000, 86.082, 162.9622
8.500000, 86.304, 161.6303
8.620000, 86.521, 160.3094
8.750000, 86.751, 158.8899
8.850000, 86.924, 157.8043
9.000000, 87.177, 156.1857
9.120000, 87.373, 154.9034
9.250000, 87.579, 153.5276
9.380000, 87.778, 152.1659
9.500000, 87.955, 150.9278
9.620000, 88.127, 149.7098
9.750000, 88.307, 148.4123
9.880000, 88.482, 147.1429
10.000000, 88.639, 145.9980
10.150000, 88.829, 144.6003
10.300000, 89.015, 143.2407
10.440000, 89.184, 142.0045
10.600000, 89.375, 140.6234
10.750000, 89.552, 139.3548
10.900000, 89.726, 138.1066
11.060000, 89.909, 136.7891
11.200000, 90.066, 135.6457
11.380000, 90.265, 134.1848
11.500000, 90.394, 133.2151
11.720000, 90.622, 131.4514
11.800000, 90.702, 130.8158
12.060000, 90.953, 128.7801
12.200000, 91.082, 127.7108
12.410000, 91.268, 126.1467
12.500000, 91.346, 125.4933
12.650000, 91.474, 124.4265
12.800000, 91.600, 123.3839
13.150000, 91.894, 121.0249
13.200000, 91.935, 120.6924
13.400000, 92.103, 119.3650
13.600000, 92.269, 118.0302
13.800000, 92.431, 116.6791
14.000000, 92.586, 115.3127
14.300000, 92.801, 113.2543
14.500000, 92.929, 111.9031
14.750000, 93.074, 110.2780
15.000000, 93.205, 108.7567
15.250000, 93.330, 107.3612
15.500000, 93.459, 106.0809
15.750000, 93.597, 104.8808
16.000000, 93.748, 103.7061
16.250000, 93.909, 102.4988
16.500000, 94.074, 101.2207
16.750000, 94.235, 99.8566
17.000000, 94.383, 98.4249
17.250000, 94.512, 96.9637
17.500000, 94.623, 95.5209
17.750000, 94.717, 94.1409
18.000000, 94.801, 92.8491
18.250000, 94.881, 91.6508
18.500000, 94.963, 90.5289
18.750000, 95.049, 89.4542
19.000000, 95.140, 88.3962
19.250000, 95.233, 87.3322
19.500000, 95.323, 86.2563
19.750000, 95.409, 85.1754
20.000000, 95.488, 84.1056
20.299999, 95.575, 82.8595
20.600000, 95.659, 81.6683
20.900000, 95.742, 80.5275
21.200001, 95.829, 79.4156
21.400000, 95.888, 78.6773
21.799999, 96.005, 77.1855
22.000000, 96.061, 76.4302
22.400000, 96.165, 74.9175
22.700001, 96.234, 73.8031
23.000000, 96.297, 72.7227
23.299999, 96.357, 71.6815
23.600000, 96.416, 70.6746
24.000000, 96.495, 69.3661
24.299999, 96.553, 68.3963
24.700001, 96.628, 67.1077
25.000000, 96.680, 66.1462
25.400000, 96.743, 64.8825
25.799999, 96.798, 63.6551
26.200001, 96.849, 62.4740
26.500000, 96.886, 61.6168
26.900000, 96.935, 60.5000
27.200001, 96.972, 59.6726
27.600000, 97.019, 58.5764
28.000000, 97.062, 57.4944
28.500000, 97.112, 56.1817
29.000000, 97.162, 54.9133
29.500000, 97.214, 53.6521
30.000000, 97.262, 52.3779
30.400000, 97.292, 51.3780
30.700001, 97.311, 50.6637
31.100000, 97.337, 49.7672
31.500000, 97.369, 48.9042
32.000000, 97.417, 47.7875
32.500000, 97.453, 46.6023
33.000000, 97.461, 45.4677
33.500000, 97.456, 44.5383
34.000000, 97.468, 43.8003
34.500000, 97.511, 43.0611
35.000000, 97.561, 42.1669
35.500000, 97.591, 41.1719
36.000000, 97.601, 40.2304
36.500000, 97.611, 39.3812
37.000000, 97.631, 38.5121
37.500000, 97.645, 37.5434
38.200001, 97.620, 36.2160
38.700001, 97.593, 35.4792
39.500000, 97.604, 34.4750
40.000000, 97.635, 33.6838
40.599998, 97.652, 32.5583
41.200001, 97.636, 31.4912
41.799999, 97.619, 30.6087
42.500000, 97.620, 29.6524
43.099998, 97.624, 28.7829
43.700001, 97.616, 27.9332
44.400002, 97.602, 27.0568
45.000000, 97.596, 26.3541
45.500000, 97.591, 25.7583
46.200001, 97.575, 24.9375
46.799999, 97.555, 24.2994
47.500000, 97.538, 23.6021
48.200001, 97.525, 22.8738
48.700001, 97.513, 22.3357
49.400002, 97.493, 21.5868
50.000000, 97.476, 20.9375
50.799999, 97.448, 20.0559
51.500000, 97.418, 19.3287
52.200001, 97.394, 18.6434
53.000000, 97.369, 17.8866
53.799999, 97.354, 17.1967
54.500000, 97.358, 16.5084
55.200001, 97.343, 15.6317
56.000000, 97.266, 14.7568
57.000000, 97.172, 14.2632
58.000000, 97.137, 13.8369
59.000000, 97.108, 13.3658
60.000000, 97.104, 12.7882
60.799999, 97.087, 12.1432
61.500000, 97.054, 11.6193
62.200001, 97.023, 11.1561
63.000000, 96.989, 10.6289
64.000000, 96.943, 10.0096
65.000000, 96.902, 9.4362
66.000000, 96.859, 8.8860
67.000000, 96.819, 8.3816
68.000000, 96.779, 7.8864
69.000000, 96.736, 7.4045
70.000000, 96.693, 6.9393
71.000000, 96.649, 6.4790
72.000000, 96.603, 6.0322
73.000000, 96.557, 5.6073
74.000000, 96.513, 5.2040
75.000000, 96.469, 4.8228
76.199997, 96.420, 4.3905
77.500000, 96.368, 3.9264
78.800003, 96.313, 3.4746
80.000000, 96.260, 3.0830
81.199997, 96.207, 2.7222
82.500000, 96.152, 2.3521
83.800003, 96.098, 1.9999
85.000000, 96.048, 1.6917
86.199997, 95.999, 1.4132
87.500000, 95.946, 1.1228
88.500000, 95.905, 0.9041
90.000000, 95.845, 0.5911
91.199997, 95.797, 0.3510
92.500000, 95.746, 0.1057
93.800003, 95.696, -0.1210
95.000000, 95.651, -0.3178
96.199997, 95.607, -0.5085
97.500000, 95.558, -0.6983
98.800003, 95.512, -0.8735
100.000000, 95.470, -1.0314
101.500000, 95.420, -1.2153
103.000000, 95.369, -1.3905
104.400002, 95.321, -1.5195
106.000000, 95.269, -1.6556
107.500000, 95.219, -1.7811
109.000000, 95.171, -1.9040
110.599998, 95.120, -2.0267
112.000000, 95.079, -2.1205
113.800003, 95.026, -2.2391
115.000000, 94.990, -2.3023
117.199997, 94.923, -2.3938
118.000000, 94.899, -2.4217
120.599998, 94.828, -2.4717
122.000000, 94.796, -2.5223
124.099998, 94.744, -2.5840
125.000000, 94.721, -2.5961
126.500000, 94.684, -2.6215
128.000000, 94.645, -2.6512
131.500000, 94.560, -2.6529
132.000000, 94.549, -2.6478
134.000000, 94.508, -2.6042
136.000000, 94.471, -2.5527
138.000000, 94.431, -2.5510
140.000000, 94.391, -2.5593
143.000000, 94.339, -2.5659
145.000000, 94.306, -2.5424
147.500000, 94.263, -2.4980
150.000000, 94.217, -2.4443
152.500000, 94.176, -2.3834
155.000000, 94.139, -2.3103
157.500000, 94.103, -2.2211
160.000000, 94.064, -2.1379
162.500000, 94.024, -2.0360
165.000000, 93.990, -1.9366
167.500000, 93.959, -1.8605
170.000000, 93.926, -1.7728
172.500000, 93.896, -1.6539
175.000000, 93.870, -1.5483
177.500000, 93.843, -1.4439
180.000000, 93.815, -1.3258
182.500000, 93.789, -1.1971
185.000000, 93.766, -1.0743
187.500000, 93.741, -0.9694
190.000000, 93.717, -0.8667
192.500000, 93.695, -0.7738
195.000000, 93.674, -0.6753
197.500000, 93.651, -0.5573
200.000000, 93.629, -0.4328
203.000000, 93.603, -0.3049
206.000000, 93.577, -0.1644
209.000000, 93.549, 0.0014
212.000000, 93.522, 0.1715
214.000000, 93.505, 0.2860
218.000000, 93.470, 0.5410
220.000000, 93.450, 0.6876
224.000000, 93.410, 1.0111
227.000000, 93.382, 1.2953
230.000000, 93.359, 1.6467
233.000000, 93.339, 2.0565
236.000000, 93.330, 2.5385
240.000000, 93.354, 3.2997
243.000000, 93.411, 3.8325
247.000000, 93.522, 4.2261
250.000000, 93.611, 4.2084
254.000000, 93.692, 3.7932
258.000000, 93.712, 3.2554
262.000000, 93.697, 2.9091
265.000000, 93.677, 2.7557
269.000000, 93.643, 2.6362
272.000000, 93.617, 2.6012
276.000000, 93.584, 2.6028
280.000000, 93.558, 2.6487
285.000000, 93.530, 2.7595
290.000000, 93.504, 2.8849
295.000000, 93.482, 3.0261
300.000000, 93.463, 3.1539
304.000000, 93.445, 3.2509
307.000000, 93.432, 3.3330
311.000000, 93.417, 3.4445
315.000000, 93.404, 3.5588
320.000000, 93.389, 3.7133
325.000000, 93.375, 3.8618
330.000000, 93.361, 3.9990
335.000000, 93.345, 4.1405
340.000000, 93.331, 4.2896
345.000000, 93.316, 4.4403
350.000000, 93.303, 4.5885
355.000000, 93.292, 4.7112
360.000000, 93.280, 4.8489
365.000000, 93.267, 4.9967
370.000000, 93.254, 5.1462
375.000000, 93.245, 5.2833
382.000000, 93.233, 5.4786
387.000000, 93.221, 5.6332
395.000000, 93.201, 5.8807
400.000000, 93.185, 6.0308
406.000000, 93.168, 6.2009
412.000000, 93.151, 6.3762
418.000000, 93.136, 6.5786
425.000000, 93.118, 6.8412
431.000000, 93.102, 7.0628
437.000000, 93.084, 7.2996
444.000000, 93.065, 7.5735
450.000000, 93.052, 7.8220
455.000000, 93.046, 8.0479
462.000000, 93.039, 8.3937
468.000000, 93.036, 8.6926
475.000000, 93.042, 9.0206
482.000000, 93.053, 9.2966
487.000000, 93.060, 9.4507
494.000000, 93.068, 9.6179
500.000000, 93.072, 9.7523
508.000000, 93.070, 9.9264
515.000000, 93.065, 10.0684
522.000000, 93.058, 10.2016
530.000000, 93.049, 10.3734
538.000000, 93.034, 10.5800
545.000000, 93.017, 10.7828
552.000000, 93.000, 10.9701
560.000000, 92.984, 11.1796
570.000000, 92.967, 11.4902
580.000000, 92.954, 11.8049
590.000000, 92.941, 12.1236
600.000000, 92.925, 12.4348
608.000000, 92.911, 12.7058
615.000000, 92.898, 12.9368
622.000000, 92.887, 13.1810
630.000000, 92.873, 13.4781
640.000000, 92.854, 13.8430
650.000000, 92.836, 14.2178
660.000000, 92.821, 14.6174
670.000000, 92.808, 15.0013
680.000000, 92.793, 15.3962
690.000000, 92.780, 15.8220
700.000000, 92.771, 16.2640
710.000000, 92.763, 16.7120
720.000000, 92.754, 17.1494
730.000000, 92.745, 17.5834
740.000000, 92.739, 18.0565
750.000000, 92.734, 18.5367
762.000000, 92.730, 19.1006
775.000000, 92.727, 19.7513
788.000000, 92.734, 20.4059
800.000000, 92.744, 20.9982
812.000000, 92.754, 21.5998
825.000000, 92.767, 22.2560
838.000000, 92.783, 22.9357
850.000000, 92.800, 23.5743
862.000000, 92.822, 24.2205
875.000000, 92.854, 24.8948
885.000000, 92.880, 25.4094
900.000000, 92.923, 26.1892
912.000000, 92.961, 26.8033
925.000000, 93.007, 27.4810
938.000000, 93.058, 28.1515
950.000000, 93.109, 28.7306
962.000000, 93.163, 29.2843
975.000000, 93.225, 29.8589
988.000000, 93.291, 30.4277
1000.000000, 93.355, 30.9495
1015.000000, 93.437, 31.5771
1030.000000, 93.526, 32.1844
1044.000000, 93.611, 32.7161
1060.000000, 93.714, 33.2563
1075.000000, 93.815, 33.7248
1090.000000, 93.916, 34.1728
1106.000000, 94.022, 34.5846
1120.000000, 94.115, 34.8774
1138.000000, 94.235, 35.2213
1150.000000, 94.311, 35.4205
1172.000000, 94.449, 35.7219
1180.000000, 94.497, 35.8177
1206.000000, 94.647, 36.0960
1220.000000, 94.724, 36.2057
1241.000000, 94.834, 36.3249
1250.000000, 94.879, 36.3694
1265.000000, 94.952, 36.4367
1280.000000, 95.023, 36.5082
1315.000000, 95.172, 36.6294
1320.000000, 95.192, 36.6423
1340.000000, 95.273, 36.7126
1360.000000, 95.349, 36.7912
1380.000000, 95.419, 36.8690
1400.000000, 95.487, 36.9555
1430.000000, 95.585, 37.0616
1450.000000, 95.645, 37.1535
1475.000000, 95.719, 37.2961
1500.000000, 95.792, 37.4512
1525.000000, 95.861, 37.6176
1550.000000, 95.931, 37.7989
1575.000000, 96.004, 37.9853
1600.000000, 96.074, 38.1940
1625.000000, 96.148, 38.4246
1650.000000, 96.226, 38.6682
1675.000000, 96.302, 38.9077
1700.000000, 96.382, 39.1446
1725.000000, 96.465, 39.3934
1750.000000, 96.549, 39.6421
1775.000000, 96.634, 39.8784
1800.000000, 96.724, 40.1072
1825.000000, 96.818, 40.3375
1850.000000, 96.914, 40.5692
1875.000000, 97.015, 40.7829
1900.000000, 97.118, 40.9786
1925.000000, 97.224, 41.1681
1950.000000, 97.332, 41.3418
1975.000000, 97.444, 41.4892
2000.000000, 97.560, 41.6124
2030.000000, 97.702, 41.7343
2060.000000, 97.846, 41.8219
2090.000000, 97.994, 41.8686
2120.000000, 98.146, 41.8799
2140.000000, 98.250, 41.8649
2180.000000, 98.459, 41.7541
2200.000000, 98.566, 41.6653
2240.000000, 98.782, 41.4284
2270.000000, 98.947, 41.1794
2300.000000, 99.111, 40.8624
2330.000000, 99.275, 40.4844
2360.000000, 99.440, 40.0427
2400.000000, 99.660, 39.3516
2430.000000, 99.822, 38.7518
2470.000000, 100.035, 37.8396
2500.000000, 100.189, 37.0645
2540.000000, 100.387, 35.9159
2580.000000, 100.572, 34.6413
2620.000000, 100.743, 33.2329
2650.000000, 100.859, 32.1015
2690.000000, 100.996, 30.5101
2720.000000, 101.085, 29.2531
2760.000000, 101.184, 27.5011
2800.000000, 101.259, 25.6766
2850.000000, 101.314, 23.3395
2900.000000, 101.327, 20.9766
2950.000000, 101.298, 18.6283
3000.000000, 101.229, 16.3433
3040.000000, 101.147, 14.5898
3070.000000, 101.071, 13.3251
3110.000000, 100.952, 11.7071
3150.000000, 100.812, 10.1741
3200.000000, 100.610, 8.4229
3250.000000, 100.385, 6.8746
3300.000000, 100.138, 5.5479
3350.000000, 99.875, 4.4769
3400.000000, 99.607, 3.6850
3450.000000, 99.344, 3.1550
3500.000000, 99.092, 2.8482
3550.000000, 98.856, 2.7109
3600.000000, 98.639, 2.7092
3650.000000, 98.439, 2.8171
3700.000000, 98.255, 3.0178
3750.000000, 98.090, 3.2740
3820.000000, 97.884, 3.6554
3870.000000, 97.750, 3.9250
3950.000000, 97.550, 4.3928
4000.000000, 97.433, 4.7239
4060.000000, 97.301, 5.1590
4120.000000, 97.184, 5.6277
4180.000000, 97.081, 6.1241
4250.000000, 96.978, 6.7166
4310.000000, 96.902, 7.2062
4370.000000, 96.839, 7.6768
4440.000000, 96.782, 8.1922
4500.000000, 96.745, 8.5928
4550.000000, 96.722, 8.8881
4620.000000, 96.702, 9.2176
4680.000000, 96.691, 9.4008
4750.000000, 96.684, 9.4677
4820.000000, 96.673, 9.3733
4870.000000, 96.659, 9.2157
4940.000000, 96.625, 8.8945
5000.000000, 96.575, 8.5612
5080.000000, 96.479, 8.0954
5150.000000, 96.369, 7.7460
5220.000000, 96.242, 7.4969
5300.000000, 96.085, 7.3015
5380.000000, 95.916, 7.1904
5450.000000, 95.757, 7.1873
5520.000000, 95.588, 7.2838
5600.000000, 95.385, 7.5386
5700.000000, 95.123, 8.1219
5800.000000, 94.864, 9.0255
5900.000000, 94.620, 10.2543
6000.000000, 94.405, 11.7802
6080.000000, 94.261, 13.1895
6150.000000, 94.161, 14.5208
6220.000000, 94.085, 15.9219
6300.000000, 94.031, 17.5857
6400.000000, 94.015, 19.7123
6500.000000, 94.057, 21.8063
6600.000000, 94.156, 23.8090
6700.000000, 94.310, 25.6705
6800.000000, 94.515, 27.3367
6900.000000, 94.767, 28.7559
7000.000000, 95.064, 29.8646
7100.000000, 95.404, 30.6213
7200.000000, 95.779, 30.9383
7300.000000, 96.179, 30.7459
7400.000000, 96.596, 29.9761
7500.000000, 97.009, 28.5559
7620.000000, 97.466, 25.9231
7750.000000, 97.862, 21.9523
7880.000000, 98.088, 16.9950
8000.000000, 98.096, 11.9109
8120.000000, 97.894, 6.8115
8250.000000, 97.463, 1.7958
8380.000000, 96.865, -2.3035
8500.000000, 96.220, -5.1416
8620.000000, 95.533, -7.0870
8750.000000, 94.774, -8.2929
8850.000000, 94.193, -8.6435
9000.000000, 93.346, -8.2946
9120.000000, 92.707, -7.3493
9250.000000, 92.068, -5.7444
9380.000000, 91.496, -3.6387
9500.000000, 91.034, -1.3432
9620.000000, 90.644, 1.1848
9750.000000, 90.302, 4.0623
9880.000000, 90.034, 6.9314
10000.000000, 89.840, 9.5411
10150.000000, 89.669, 12.7667
10300.000000, 89.574, 15.8412
10440.000000, 89.535, 18.5262
10600.000000, 89.563, 21.6152
10750.000000, 89.702, 24.0996
10900.000000, 89.873, 25.7616
11060.000000, 90.008, 26.9888
11200.000000, 90.085, 28.0631
11380.000000, 90.210, 29.8149
11500.000000, 90.360, 31.0697
11720.000000, 90.790, 32.5822
11800.000000, 90.971, 32.7053
12060.000000, 91.517, 31.6498
12200.000000, 91.748, 30.4651
12410.000000, 92.023, 28.2855
12500.000000, 92.124, 27.2112
12650.000000, 92.272, 25.1564
12800.000000, 92.377, 22.7113
13150.000000, 92.286, 16.0448
13200.000000, 92.228, 15.1207
13400.000000, 91.910, 11.8762
13600.000000, 91.527, 9.5734
13800.000000, 91.178, 8.1140
14000.000000, 90.924, 7.0132
14300.000000, 90.700, 4.9263
14500.000000, 90.583, 2.8907
14750.000000, 90.372, -0.3301
15000.000000, 90.022, -3.7048
15250.000000, 89.568, -6.4292
15500.000000, 89.131, -8.1885
15750.000000, 88.845, -9.4142
16000.000000, 88.757, -10.9770
16250.000000, 88.824, -13.7672
16500.000000, 88.919, -18.3903
16750.000000, 88.853, -24.7504
17000.000000, 88.496, -31.8213
17250.000000, 87.879, -38.4910
17500.000000, 87.111, -44.3136
17750.000000, 86.268, -49.3510
18000.000000, 85.359, -53.7098
18250.000000, 84.342, -57.0023
18500.000000, 83.274, -57.4873
18750.000000, 82.789, -54.7323
19000.000000, 82.916, -55.3293
19250.000000, 83.017, -57.0586
19500.000000, 83.717, -59.4390
19750.000000, 84.511, -68.3093
20000.000000, 84.654, -80.2971
20300.000000, 84.315, -94.8315
20600.000000, 83.676, -109.9772
20900.000000, 82.587, -125.9570
21200.000000, 80.864, -141.2762
21400.000000, 79.356, -150.0596
21800.000000, 75.679, -162.5636
22000.000000, 73.610, -166.3928
22400.000000, 69.023, -171.2214
22700.000000, 64.978, -173.8696
23000.000000, 60.177, -176.0947
23300.000000, 54.492, -177.4533
